#                                                           
#  __  __   ________   ___ __ __    _______   ______        
# /_/\/_/\ /_______/\ /__//_//_/\ /_______/\ /_____/\       
# \ \ \ \ \\::: _  \ \\::\| \| \ \\::: _  \ \\:::_ \ \      
#  \:\_\ \ \\::(_)  \ \\:.      \ \\::(_)  \/_\:\ \ \ \     
#   \::::_\/ \:: __  \ \\:.\-/\  \ \\::  _  \ \\:\ \ \ \    
#     \::\ \  \:.\ \  \ \\. \  \  \ \\::(_)  \ \\:\_\ \ \   
#      \__\/   \__\/\__\/ \__\/ \__\/ \_______\/ \_____\/   
#                                                           
#                                                           
#        Version 4.2.0 Revision 14290 Hash ab982c3          
#                      MPI+SLK Build                        
#                http://www.yambo-code.org                  
#
# Joint density of states @ Q(1) [q->0 direction] :0.1000E-4  0.000     0.000   
#
# - Energies      are +AMGB (for 2D systems)(C)+Scissor
# - The Green`s function is Resonant -
#
#   BSK|Identifier              :4715
#      |Dimension               :80
#      |Bands                   :1 - 2
#      |Exchange           [res]: yes
#      |Correlation        [res]: yes
#      |Kernel`s coupling       : no
#      |Exchange           [cpl]: no
#      |Correlation        [cpl]: no
#      |W interaction is bare   : no
#      |ALDA kernel in R-space  : no
#      |RL vectors    [exchange]:111
#      |RL vectors [correlation]:111
#      |E/h energy range    [ev]:-1.000000 - -1.000000
#      |Coupling range     [o/o]: 100.0000 -  100.0000
#    W |Interaction is diagonal : no
#      |Matrix size             :111
#      |Bands                   :1 - 2
#      |e/h energy range    [ev]:-1.000000 - -1.000000
#      |Poles              [o/o]: 100.0000
#      |RL vectors in the sum   :8493
#      |[r,Vnl] included        : yes
#      |Field direction         :0.1000E-4  0.000000  0.000000
#      |Coulomb Cutoff          :none
#      |xc-Kernel               :none
#   RIM|RL components      [col]:1
#      |Random points      [col]:1000000
#
#  E/ev[1]    jdos-Im[2] jdos-Re[3] jdoso-Im[4]jdoso-Re[5]jdos`-Im[6]jdos`-Re[7]
#
  0.000     0.2528E-3  0.2259E-1  0.2045E-3  0.2091E-1
 0.1001E-1  0.2535E-3  0.2261E-1  0.2050E-3  0.2093E-1
 0.2002E-1  0.2543E-3  0.2264E-1  0.2055E-3  0.2095E-1
 0.3003E-1  0.2550E-3  0.2266E-1  0.2059E-3  0.2097E-1
 0.4004E-1  0.2557E-3  0.2269E-1  0.2064E-3  0.2099E-1
 0.5005E-1  0.2564E-3  0.2271E-1  0.2069E-3  0.2101E-1
 0.6006E-1  0.2571E-3  0.2274E-1  0.2073E-3  0.2103E-1
 0.7007E-1  0.2579E-3  0.2277E-1  0.2078E-3  0.2105E-1
 0.8008E-1  0.2586E-3  0.2279E-1  0.2083E-3  0.2107E-1
 0.9009E-1  0.2594E-3  0.2282E-1  0.2088E-3  0.2110E-1
 0.1001     0.2601E-3  0.2284E-1  0.2092E-3  0.2112E-1
 0.1101     0.2609E-3  0.2287E-1  0.2097E-3  0.2114E-1
 0.1201     0.2616E-3  0.2290E-1  0.2102E-3  0.2116E-1
 0.1301     0.2624E-3  0.2292E-1  0.2107E-3  0.2118E-1
 0.1401     0.2631E-3  0.2295E-1  0.2112E-3  0.2120E-1
 0.1502     0.2639E-3  0.2297E-1  0.2117E-3  0.2122E-1
 0.1602     0.2647E-3  0.2300E-1  0.2121E-3  0.2124E-1
 0.1702     0.2654E-3  0.2303E-1  0.2126E-3  0.2126E-1
 0.1802     0.2662E-3  0.2305E-1  0.2131E-3  0.2129E-1
 0.1902     0.2670E-3  0.2308E-1  0.2136E-3  0.2131E-1
 0.2002     0.2678E-3  0.2311E-1  0.2141E-3  0.2133E-1
 0.2102     0.2686E-3  0.2313E-1  0.2146E-3  0.2135E-1
 0.2202     0.2694E-3  0.2316E-1  0.2151E-3  0.2137E-1
 0.2302     0.2702E-3  0.2319E-1  0.2156E-3  0.2139E-1
 0.2402     0.2710E-3  0.2321E-1  0.2161E-3  0.2141E-1
 0.2503     0.2718E-3  0.2324E-1  0.2166E-3  0.2144E-1
 0.2603     0.2726E-3  0.2327E-1  0.2171E-3  0.2146E-1
 0.2703     0.2734E-3  0.2330E-1  0.2177E-3  0.2148E-1
 0.2803     0.2743E-3  0.2332E-1  0.2182E-3  0.2150E-1
 0.2903     0.2751E-3  0.2335E-1  0.2187E-3  0.2152E-1
 0.3003     0.2759E-3  0.2338E-1  0.2192E-3  0.2154E-1
 0.3103     0.2768E-3  0.2341E-1  0.2197E-3  0.2157E-1
 0.3203     0.2776E-3  0.2343E-1  0.2202E-3  0.2159E-1
 0.3303     0.2784E-3  0.2346E-1  0.2208E-3  0.2161E-1
 0.3403     0.2793E-3  0.2349E-1  0.2213E-3  0.2163E-1
 0.3504     0.2802E-3  0.2352E-1  0.2218E-3  0.2166E-1
 0.3604     0.2810E-3  0.2355E-1  0.2224E-3  0.2168E-1
 0.3704     0.2819E-3  0.2357E-1  0.2229E-3  0.2170E-1
 0.3804     0.2828E-3  0.2360E-1  0.2234E-3  0.2172E-1
 0.3904     0.2836E-3  0.2363E-1  0.2240E-3  0.2174E-1
 0.4004     0.2845E-3  0.2366E-1  0.2245E-3  0.2177E-1
 0.4104     0.2854E-3  0.2369E-1  0.2250E-3  0.2179E-1
 0.4204     0.2863E-3  0.2372E-1  0.2256E-3  0.2181E-1
 0.4304     0.2872E-3  0.2374E-1  0.2261E-3  0.2183E-1
 0.4404     0.2881E-3  0.2377E-1  0.2267E-3  0.2186E-1
 0.4505     0.2890E-3  0.2380E-1  0.2272E-3  0.2188E-1
 0.4605     0.2899E-3  0.2383E-1  0.2278E-3  0.2190E-1
 0.4705     0.2909E-3  0.2386E-1  0.2283E-3  0.2193E-1
 0.4805     0.2918E-3  0.2389E-1  0.2289E-3  0.2195E-1
 0.4905     0.2927E-3  0.2392E-1  0.2295E-3  0.2197E-1
 0.5005     0.2937E-3  0.2395E-1  0.2300E-3  0.2199E-1
 0.5105     0.2946E-3  0.2398E-1  0.2306E-3  0.2202E-1
 0.5205     0.2956E-3  0.2401E-1  0.2311E-3  0.2204E-1
 0.5305     0.2965E-3  0.2404E-1  0.2317E-3  0.2206E-1
 0.5405     0.2975E-3  0.2407E-1  0.2323E-3  0.2209E-1
 0.5506     0.2984E-3  0.2410E-1  0.2329E-3  0.2211E-1
 0.5606     0.2994E-3  0.2413E-1  0.2334E-3  0.2213E-1
 0.5706     0.3004E-3  0.2416E-1  0.2340E-3  0.2216E-1
 0.5806     0.3014E-3  0.2419E-1  0.2346E-3  0.2218E-1
 0.5906     0.3024E-3  0.2422E-1  0.2352E-3  0.2220E-1
 0.6006     0.3034E-3  0.2425E-1  0.2358E-3  0.2223E-1
 0.6106     0.3044E-3  0.2428E-1  0.2364E-3  0.2225E-1
 0.6206     0.3054E-3  0.2431E-1  0.2369E-3  0.2227E-1
 0.6306     0.3064E-3  0.2434E-1  0.2375E-3  0.2230E-1
 0.6406     0.3074E-3  0.2437E-1  0.2381E-3  0.2232E-1
 0.6507     0.3085E-3  0.2440E-1  0.2387E-3  0.2235E-1
 0.6607     0.3095E-3  0.2443E-1  0.2393E-3  0.2237E-1
 0.6707     0.3105E-3  0.2446E-1  0.2399E-3  0.2239E-1
 0.6807     0.3116E-3  0.2449E-1  0.2406E-3  0.2242E-1
 0.6907     0.3127E-3  0.2452E-1  0.2412E-3  0.2244E-1
 0.7007     0.3137E-3  0.2456E-1  0.2418E-3  0.2247E-1
 0.7107     0.3148E-3  0.2459E-1  0.2424E-3  0.2249E-1
 0.7207     0.3159E-3  0.2462E-1  0.2430E-3  0.2251E-1
 0.7307     0.3170E-3  0.2465E-1  0.2436E-3  0.2254E-1
 0.7407     0.3181E-3  0.2468E-1  0.2443E-3  0.2256E-1
 0.7508     0.3192E-3  0.2471E-1  0.2449E-3  0.2259E-1
 0.7608     0.3203E-3  0.2475E-1  0.2455E-3  0.2261E-1
 0.7708     0.3214E-3  0.2478E-1  0.2461E-3  0.2264E-1
 0.7808     0.3225E-3  0.2481E-1  0.2468E-3  0.2266E-1
 0.7908     0.3237E-3  0.2484E-1  0.2474E-3  0.2269E-1
 0.8008     0.3248E-3  0.2487E-1  0.2480E-3  0.2271E-1
 0.8108     0.3259E-3  0.2491E-1  0.2487E-3  0.2274E-1
 0.8208     0.3271E-3  0.2494E-1  0.2493E-3  0.2276E-1
 0.8308     0.3283E-3  0.2497E-1  0.2500E-3  0.2279E-1
 0.8408     0.3294E-3  0.2501E-1  0.2506E-3  0.2281E-1
 0.8509     0.3306E-3  0.2504E-1  0.2513E-3  0.2284E-1
 0.8609     0.3318E-3  0.2507E-1  0.2519E-3  0.2286E-1
 0.8709     0.3330E-3  0.2511E-1  0.2526E-3  0.2289E-1
 0.8809     0.3342E-3  0.2514E-1  0.2533E-3  0.2291E-1
 0.8909     0.3354E-3  0.2517E-1  0.2539E-3  0.2294E-1
 0.9009     0.3367E-3  0.2521E-1  0.2546E-3  0.2296E-1
 0.9109     0.3379E-3  0.2524E-1  0.2553E-3  0.2299E-1
 0.9209     0.3392E-3  0.2527E-1  0.2560E-3  0.2301E-1
 0.9309     0.3404E-3  0.2531E-1  0.2566E-3  0.2304E-1
 0.9409     0.3417E-3  0.2534E-1  0.2573E-3  0.2307E-1
 0.9510     0.3429E-3  0.2538E-1  0.2580E-3  0.2309E-1
 0.9610     0.3442E-3  0.2541E-1  0.2587E-3  0.2312E-1
 0.9710     0.3455E-3  0.2544E-1  0.2594E-3  0.2314E-1
 0.9810     0.3468E-3  0.2548E-1  0.2601E-3  0.2317E-1
 0.9910     0.3481E-3  0.2551E-1  0.2608E-3  0.2319E-1
  1.001     0.3494E-3  0.2555E-1  0.2615E-3  0.2322E-1
  1.011     0.3508E-3  0.2558E-1  0.2622E-3  0.2325E-1
  1.021     0.3521E-3  0.2562E-1  0.2629E-3  0.2327E-1
  1.031     0.3535E-3  0.2565E-1  0.2636E-3  0.2330E-1
  1.041     0.3548E-3  0.2569E-1  0.2643E-3  0.2333E-1
  1.051     0.3562E-3  0.2572E-1  0.2650E-3  0.2335E-1
  1.061     0.3576E-3  0.2576E-1  0.2657E-3  0.2338E-1
  1.071     0.3590E-3  0.2580E-1  0.2665E-3  0.2341E-1
  1.081     0.3604E-3  0.2583E-1  0.2672E-3  0.2343E-1
  1.091     0.3618E-3  0.2587E-1  0.2679E-3  0.2346E-1
  1.101     0.3632E-3  0.2590E-1  0.2687E-3  0.2349E-1
  1.111     0.3647E-3  0.2594E-1  0.2694E-3  0.2351E-1
  1.121     0.3661E-3  0.2598E-1  0.2701E-3  0.2354E-1
  1.131     0.3676E-3  0.2601E-1  0.2709E-3  0.2357E-1
  1.141     0.3691E-3  0.2605E-1  0.2716E-3  0.2359E-1
  1.151     0.3705E-3  0.2609E-1  0.2724E-3  0.2362E-1
  1.161     0.3720E-3  0.2613E-1  0.2731E-3  0.2365E-1
  1.171     0.3736E-3  0.2616E-1  0.2739E-3  0.2368E-1
  1.181     0.3751E-3  0.2620E-1  0.2747E-3  0.2370E-1
  1.191     0.3766E-3  0.2624E-1  0.2754E-3  0.2373E-1
  1.201     0.3782E-3  0.2628E-1  0.2762E-3  0.2376E-1
  1.211     0.3797E-3  0.2631E-1  0.2770E-3  0.2379E-1
  1.221     0.3813E-3  0.2635E-1  0.2778E-3  0.2381E-1
  1.231     0.3829E-3  0.2639E-1  0.2785E-3  0.2384E-1
  1.241     0.3845E-3  0.2643E-1  0.2793E-3  0.2387E-1
  1.251     0.3861E-3  0.2647E-1  0.2801E-3  0.2390E-1
  1.261     0.3878E-3  0.2650E-1  0.2809E-3  0.2393E-1
  1.271     0.3894E-3  0.2654E-1  0.2817E-3  0.2395E-1
  1.281     0.3911E-3  0.2658E-1  0.2825E-3  0.2398E-1
  1.291     0.3927E-3  0.2662E-1  0.2833E-3  0.2401E-1
  1.301     0.3944E-3  0.2666E-1  0.2841E-3  0.2404E-1
  1.311     0.3961E-3  0.2670E-1  0.2849E-3  0.2407E-1
  1.321     0.3979E-3  0.2674E-1  0.2858E-3  0.2410E-1
  1.331     0.3996E-3  0.2678E-1  0.2866E-3  0.2412E-1
  1.341     0.4013E-3  0.2682E-1  0.2874E-3  0.2415E-1
  1.351     0.4031E-3  0.2686E-1  0.2882E-3  0.2418E-1
  1.361     0.4049E-3  0.2690E-1  0.2891E-3  0.2421E-1
  1.371     0.4067E-3  0.2694E-1  0.2899E-3  0.2424E-1
  1.381     0.4085E-3  0.2698E-1  0.2907E-3  0.2427E-1
  1.391     0.4104E-3  0.2702E-1  0.2916E-3  0.2430E-1
  1.401     0.4122E-3  0.2706E-1  0.2924E-3  0.2433E-1
  1.411     0.4141E-3  0.2711E-1  0.2933E-3  0.2436E-1
  1.421     0.4160E-3  0.2715E-1  0.2942E-3  0.2439E-1
  1.431     0.4179E-3  0.2719E-1  0.2950E-3  0.2442E-1
  1.441     0.4198E-3  0.2723E-1  0.2959E-3  0.2444E-1
  1.451     0.4218E-3  0.2727E-1  0.2968E-3  0.2447E-1
  1.461     0.4237E-3  0.2732E-1  0.2976E-3  0.2450E-1
  1.471     0.4257E-3  0.2736E-1  0.2985E-3  0.2453E-1
  1.481     0.4277E-3  0.2740E-1  0.2994E-3  0.2456E-1
  1.491     0.4297E-3  0.2744E-1  0.3003E-3  0.2459E-1
  1.502     0.4318E-3  0.2749E-1  0.3012E-3  0.2462E-1
  1.512     0.4339E-3  0.2753E-1  0.3021E-3  0.2465E-1
  1.522     0.4359E-3  0.2757E-1  0.3030E-3  0.2468E-1
  1.532     0.4381E-3  0.2762E-1  0.3039E-3  0.2471E-1
  1.542     0.4402E-3  0.2766E-1  0.3048E-3  0.2475E-1
  1.552     0.4423E-3  0.2770E-1  0.3058E-3  0.2478E-1
  1.562     0.4445E-3  0.2775E-1  0.3067E-3  0.2481E-1
  1.572     0.4467E-3  0.2779E-1  0.3076E-3  0.2484E-1
  1.582     0.4489E-3  0.2784E-1  0.3085E-3  0.2487E-1
  1.592     0.4512E-3  0.2788E-1  0.3095E-3  0.2490E-1
  1.602     0.4535E-3  0.2793E-1  0.3104E-3  0.2493E-1
  1.612     0.4558E-3  0.2797E-1  0.3114E-3  0.2496E-1
  1.622     0.4581E-3  0.2802E-1  0.3123E-3  0.2499E-1
  1.632     0.4604E-3  0.2807E-1  0.3133E-3  0.2502E-1
  1.642     0.4628E-3  0.2811E-1  0.3143E-3  0.2505E-1
  1.652     0.4652E-3  0.2816E-1  0.3152E-3  0.2509E-1
  1.662     0.4676E-3  0.2820E-1  0.3162E-3  0.2512E-1
  1.672     0.4701E-3  0.2825E-1  0.3172E-3  0.2515E-1
  1.682     0.4726E-3  0.2830E-1  0.3182E-3  0.2518E-1
  1.692     0.4751E-3  0.2835E-1  0.3192E-3  0.2521E-1
  1.702     0.4776E-3  0.2839E-1  0.3202E-3  0.2525E-1
  1.712     0.4802E-3  0.2844E-1  0.3212E-3  0.2528E-1
  1.722     0.4828E-3  0.2849E-1  0.3222E-3  0.2531E-1
  1.732     0.4854E-3  0.2854E-1  0.3232E-3  0.2534E-1
  1.742     0.4881E-3  0.2859E-1  0.3242E-3  0.2537E-1
  1.752     0.4908E-3  0.2863E-1  0.3252E-3  0.2541E-1
  1.762     0.4935E-3  0.2868E-1  0.3263E-3  0.2544E-1
  1.772     0.4963E-3  0.2873E-1  0.3273E-3  0.2547E-1
  1.782     0.4991E-3  0.2878E-1  0.3283E-3  0.2550E-1
  1.792     0.5019E-3  0.2883E-1  0.3294E-3  0.2554E-1
  1.802     0.5048E-3  0.2888E-1  0.3304E-3  0.2557E-1
  1.812     0.5077E-3  0.2893E-1  0.3315E-3  0.2560E-1
  1.822     0.5107E-3  0.2898E-1  0.3326E-3  0.2564E-1
  1.832     0.5136E-3  0.2904E-1  0.3336E-3  0.2567E-1
  1.842     0.5167E-3  0.2909E-1  0.3347E-3  0.2570E-1
  1.852     0.5197E-3  0.2914E-1  0.3358E-3  0.2574E-1
  1.862     0.5228E-3  0.2919E-1  0.3369E-3  0.2577E-1
  1.872     0.5260E-3  0.2924E-1  0.3380E-3  0.2580E-1
  1.882     0.5292E-3  0.2930E-1  0.3391E-3  0.2584E-1
  1.892     0.5324E-3  0.2935E-1  0.3402E-3  0.2587E-1
  1.902     0.5357E-3  0.2940E-1  0.3413E-3  0.2591E-1
  1.912     0.5390E-3  0.2946E-1  0.3424E-3  0.2594E-1
  1.922     0.5424E-3  0.2951E-1  0.3436E-3  0.2598E-1
  1.932     0.5458E-3  0.2956E-1  0.3447E-3  0.2601E-1
  1.942     0.5493E-3  0.2962E-1  0.3459E-3  0.2604E-1
  1.952     0.5528E-3  0.2967E-1  0.3470E-3  0.2608E-1
  1.962     0.5563E-3  0.2973E-1  0.3482E-3  0.2611E-1
  1.972     0.5600E-3  0.2978E-1  0.3493E-3  0.2615E-1
  1.982     0.5636E-3  0.2984E-1  0.3505E-3  0.2618E-1
  1.992     0.5674E-3  0.2990E-1  0.3517E-3  0.2622E-1
  2.002     0.5711E-3  0.2995E-1  0.3529E-3  0.2625E-1
  2.012     0.5750E-3  0.3001E-1  0.3540E-3  0.2629E-1
  2.022     0.5789E-3  0.3007E-1  0.3552E-3  0.2632E-1
  2.032     0.5829E-3  0.3013E-1  0.3564E-3  0.2636E-1
  2.042     0.5869E-3  0.3019E-1  0.3577E-3  0.2640E-1
  2.052     0.5910E-3  0.3024E-1  0.3589E-3  0.2643E-1
  2.062     0.5951E-3  0.3030E-1  0.3601E-3  0.2647E-1
  2.072     0.5993E-3  0.3036E-1  0.3613E-3  0.2650E-1
  2.082     0.6036E-3  0.3042E-1  0.3626E-3  0.2654E-1
  2.092     0.6080E-3  0.3048E-1  0.3638E-3  0.2658E-1
  2.102     0.6124E-3  0.3054E-1  0.3651E-3  0.2661E-1
  2.112     0.6169E-3  0.3061E-1  0.3664E-3  0.2665E-1
  2.122     0.6215E-3  0.3067E-1  0.3676E-3  0.2669E-1
  2.132     0.6262E-3  0.3073E-1  0.3689E-3  0.2672E-1
  2.142     0.6309E-3  0.3079E-1  0.3702E-3  0.2676E-1
  2.152     0.6358E-3  0.3085E-1  0.3715E-3  0.2680E-1
  2.162     0.6407E-3  0.3092E-1  0.3728E-3  0.2683E-1
  2.172     0.6457E-3  0.3098E-1  0.3741E-3  0.2687E-1
  2.182     0.6508E-3  0.3105E-1  0.3754E-3  0.2691E-1
  2.192     0.6560E-3  0.3111E-1  0.3768E-3  0.2695E-1
  2.202     0.6613E-3  0.3118E-1  0.3781E-3  0.2698E-1
  2.212     0.6667E-3  0.3124E-1  0.3794E-3  0.2702E-1
  2.222     0.6722E-3  0.3131E-1  0.3808E-3  0.2706E-1
  2.232     0.6778E-3  0.3138E-1  0.3822E-3  0.2710E-1
  2.242     0.6835E-3  0.3145E-1  0.3835E-3  0.2714E-1
  2.252     0.6893E-3  0.3151E-1  0.3849E-3  0.2718E-1
  2.262     0.6952E-3  0.3158E-1  0.3863E-3  0.2721E-1
  2.272     0.7013E-3  0.3165E-1  0.3877E-3  0.2725E-1
  2.282     0.7074E-3  0.3172E-1  0.3891E-3  0.2729E-1
  2.292     0.7138E-3  0.3179E-1  0.3905E-3  0.2733E-1
  2.302     0.7202E-3  0.3186E-1  0.3920E-3  0.2737E-1
  2.312     0.7268E-3  0.3194E-1  0.3934E-3  0.2741E-1
  2.322     0.7335E-3  0.3201E-1  0.3948E-3  0.2745E-1
  2.332     0.7403E-3  0.3208E-1  0.3963E-3  0.2749E-1
  2.342     0.7473E-3  0.3216E-1  0.3978E-3  0.2753E-1
  2.352     0.7545E-3  0.3223E-1  0.3992E-3  0.2757E-1
  2.362     0.7618E-3  0.3231E-1  0.4007E-3  0.2761E-1
  2.372     0.7693E-3  0.3238E-1  0.4022E-3  0.2765E-1
  2.382     0.7770E-3  0.3246E-1  0.4037E-3  0.2769E-1
  2.392     0.7848E-3  0.3254E-1  0.4052E-3  0.2773E-1
  2.402     0.7929E-3  0.3261E-1  0.4067E-3  0.2777E-1
  2.412     0.8011E-3  0.3269E-1  0.4083E-3  0.2781E-1
  2.422     0.8095E-3  0.3277E-1  0.4098E-3  0.2785E-1
  2.432     0.8182E-3  0.3285E-1  0.4114E-3  0.2789E-1
  2.442     0.8270E-3  0.3294E-1  0.4129E-3  0.2793E-1
  2.452     0.8361E-3  0.3302E-1  0.4145E-3  0.2797E-1
  2.462     0.8454E-3  0.3310E-1  0.4161E-3  0.2802E-1
  2.472     0.8549E-3  0.3319E-1  0.4177E-3  0.2806E-1
  2.482     0.8647E-3  0.3327E-1  0.4193E-3  0.2810E-1
  2.492     0.8748E-3  0.3336E-1  0.4209E-3  0.2814E-1
  2.503     0.8851E-3  0.3344E-1  0.4226E-3  0.2818E-1
  2.513     0.8957E-3  0.3353E-1  0.4242E-3  0.2823E-1
  2.523     0.9066E-3  0.3362E-1  0.4259E-3  0.2827E-1
  2.533     0.9179E-3  0.3371E-1  0.4275E-3  0.2831E-1
  2.543     0.9294E-3  0.3380E-1  0.4292E-3  0.2835E-1
  2.553     0.9413E-3  0.3390E-1  0.4309E-3  0.2840E-1
  2.563     0.9535E-3  0.3399E-1  0.4326E-3  0.2844E-1
  2.573     0.9661E-3  0.3408E-1  0.4343E-3  0.2848E-1
  2.583     0.9791E-3  0.3418E-1  0.4360E-3  0.2853E-1
  2.593     0.9925E-3  0.3428E-1  0.4378E-3  0.2857E-1
  2.603     0.1006E-2  0.3438E-1  0.4395E-3  0.2861E-1
  2.613     0.1021E-2  0.3448E-1  0.4413E-3  0.2866E-1
  2.623     0.1035E-2  0.3458E-1  0.4430E-3  0.2870E-1
  2.633     0.1050E-2  0.3468E-1  0.4448E-3  0.2875E-1
  2.643     0.1066E-2  0.3478E-1  0.4466E-3  0.2879E-1
  2.653     0.1082E-2  0.3489E-1  0.4484E-3  0.2884E-1
  2.663     0.1099E-2  0.3500E-1  0.4503E-3  0.2888E-1
  2.673     0.1117E-2  0.3511E-1  0.4521E-3  0.2893E-1
  2.683     0.1135E-2  0.3522E-1  0.4540E-3  0.2897E-1
  2.693     0.1153E-2  0.3533E-1  0.4558E-3  0.2902E-1
  2.703     0.1173E-2  0.3544E-1  0.4577E-3  0.2906E-1
  2.713     0.1193E-2  0.3556E-1  0.4596E-3  0.2911E-1
  2.723     0.1214E-2  0.3568E-1  0.4615E-3  0.2915E-1
  2.733     0.1235E-2  0.3580E-1  0.4634E-3  0.2920E-1
  2.743     0.1258E-2  0.3592E-1  0.4654E-3  0.2925E-1
  2.753     0.1281E-2  0.3604E-1  0.4673E-3  0.2929E-1
  2.763     0.1306E-2  0.3617E-1  0.4693E-3  0.2934E-1
  2.773     0.1331E-2  0.3630E-1  0.4713E-3  0.2939E-1
  2.783     0.1357E-2  0.3643E-1  0.4733E-3  0.2944E-1
  2.793     0.1385E-2  0.3656E-1  0.4753E-3  0.2948E-1
  2.803     0.1414E-2  0.3670E-1  0.4773E-3  0.2953E-1
  2.813     0.1444E-2  0.3683E-1  0.4794E-3  0.2958E-1
  2.823     0.1476E-2  0.3698E-1  0.4814E-3  0.2963E-1
  2.833     0.1509E-2  0.3712E-1  0.4835E-3  0.2967E-1
  2.843     0.1543E-2  0.3727E-1  0.4856E-3  0.2972E-1
  2.853     0.1579E-2  0.3742E-1  0.4877E-3  0.2977E-1
  2.863     0.1617E-2  0.3757E-1  0.4898E-3  0.2982E-1
  2.873     0.1657E-2  0.3773E-1  0.4920E-3  0.2987E-1
  2.883     0.1699E-2  0.3789E-1  0.4941E-3  0.2992E-1
  2.893     0.1743E-2  0.3805E-1  0.4963E-3  0.2997E-1
  2.903     0.1790E-2  0.3822E-1  0.4985E-3  0.3002E-1
  2.913     0.1839E-2  0.3839E-1  0.5007E-3  0.3007E-1
  2.923     0.1891E-2  0.3857E-1  0.5029E-3  0.3012E-1
  2.933     0.1946E-2  0.3875E-1  0.5052E-3  0.3017E-1
  2.943     0.2004E-2  0.3894E-1  0.5074E-3  0.3022E-1
  2.953     0.2065E-2  0.3913E-1  0.5097E-3  0.3027E-1
  2.963     0.2131E-2  0.3932E-1  0.5120E-3  0.3032E-1
  2.973     0.2200E-2  0.3952E-1  0.5143E-3  0.3037E-1
  2.983     0.2274E-2  0.3973E-1  0.5167E-3  0.3042E-1
  2.993     0.2352E-2  0.3995E-1  0.5190E-3  0.3048E-1
  3.003     0.2436E-2  0.4017E-1  0.5214E-3  0.3053E-1
  3.013     0.2525E-2  0.4039E-1  0.5238E-3  0.3058E-1
  3.023     0.2621E-2  0.4063E-1  0.5262E-3  0.3063E-1
  3.033     0.2724E-2  0.4087E-1  0.5287E-3  0.3069E-1
  3.043     0.2834E-2  0.4112E-1  0.5311E-3  0.3074E-1
  3.053     0.2953E-2  0.4137E-1  0.5336E-3  0.3079E-1
  3.063     0.3080E-2  0.4164E-1  0.5361E-3  0.3084E-1
  3.073     0.3218E-2  0.4192E-1  0.5386E-3  0.3090E-1
  3.083     0.3367E-2  0.4220E-1  0.5412E-3  0.3095E-1
  3.093     0.3529E-2  0.4250E-1  0.5437E-3  0.3101E-1
  3.103     0.3704E-2  0.4280E-1  0.5463E-3  0.3106E-1
  3.113     0.3895E-2  0.4312E-1  0.5489E-3  0.3112E-1
  3.123     0.4103E-2  0.4345E-1  0.5516E-3  0.3117E-1
  3.133     0.4330E-2  0.4379E-1  0.5542E-3  0.3123E-1
  3.143     0.4580E-2  0.4414E-1  0.5569E-3  0.3128E-1
  3.153     0.4853E-2  0.4451E-1  0.5596E-3  0.3134E-1
  3.163     0.5154E-2  0.4489E-1  0.5623E-3  0.3139E-1
  3.173     0.5487E-2  0.4529E-1  0.5651E-3  0.3145E-1
  3.183     0.5855E-2  0.4569E-1  0.5678E-3  0.3151E-1
  3.193     0.6263E-2  0.4611E-1  0.5706E-3  0.3156E-1
  3.203     0.6716E-2  0.4655E-1  0.5735E-3  0.3162E-1
  3.213     0.7222E-2  0.4699E-1  0.5763E-3  0.3168E-1
  3.223     0.7786E-2  0.4744E-1  0.5792E-3  0.3174E-1
  3.233     0.8419E-2  0.4790E-1  0.5821E-3  0.3179E-1
  3.243     0.9128E-2  0.4835E-1  0.5850E-3  0.3185E-1
  3.253     0.9925E-2  0.4880E-1  0.5880E-3  0.3191E-1
  3.263     0.1082E-1  0.4924E-1  0.5909E-3  0.3197E-1
  3.273     0.1183E-1  0.4964E-1  0.5939E-3  0.3203E-1
  3.283     0.1296E-1  0.4999E-1  0.5970E-3  0.3209E-1
  3.293     0.1423E-1  0.5028E-1  0.6000E-3  0.3215E-1
  3.303     0.1564E-1  0.5046E-1  0.6031E-3  0.3221E-1
  3.313     0.1721E-1  0.5049E-1  0.6062E-3  0.3227E-1
  3.323     0.1892E-1  0.5034E-1  0.6094E-3  0.3233E-1
  3.333     0.2077E-1  0.4995E-1  0.6126E-3  0.3239E-1
  3.343     0.2271E-1  0.4924E-1  0.6158E-3  0.3245E-1
  3.353     0.2469E-1  0.4817E-1  0.6190E-3  0.3251E-1
  3.363     0.2662E-1  0.4668E-1  0.6223E-3  0.3258E-1
  3.373     0.2837E-1  0.4475E-1  0.6256E-3  0.3264E-1
  3.383     0.2981E-1  0.4240E-1  0.6289E-3  0.3270E-1
  3.393     0.3080E-1  0.3971E-1  0.6323E-3  0.3276E-1
  3.403     0.3125E-1  0.3681E-1  0.6357E-3  0.3283E-1
  3.413     0.3109E-1  0.3387E-1  0.6391E-3  0.3289E-1
  3.423     0.3036E-1  0.3106E-1  0.6426E-3  0.3296E-1
  3.433     0.2912E-1  0.2854E-1  0.6461E-3  0.3302E-1
  3.443     0.2751E-1  0.2642E-1  0.6496E-3  0.3308E-1
  3.453     0.2566E-1  0.2473E-1  0.6532E-3  0.3315E-1
  3.463     0.2371E-1  0.2347E-1  0.6568E-3  0.3321E-1
  3.473     0.2175E-1  0.2261E-1  0.6605E-3  0.3328E-1
  3.483     0.1987E-1  0.2209E-1  0.6642E-3  0.3335E-1
  3.493     0.1810E-1  0.2184E-1  0.6679E-3  0.3341E-1
  3.504     0.1648E-1  0.2181E-1  0.6716E-3  0.3348E-1
  3.514     0.1501E-1  0.2194E-1  0.6754E-3  0.3355E-1
  3.524     0.1368E-1  0.2219E-1  0.6793E-3  0.3362E-1
  3.534     0.1250E-1  0.2253E-1  0.6831E-3  0.3368E-1
  3.544     0.1145E-1  0.2293E-1  0.6870E-3  0.3375E-1
  3.554     0.1052E-1  0.2337E-1  0.6910E-3  0.3382E-1
  3.564     0.9691E-2  0.2383E-1  0.6950E-3  0.3389E-1
  3.574     0.8955E-2  0.2431E-1  0.6990E-3  0.3396E-1
  3.584     0.8302E-2  0.2479E-1  0.7031E-3  0.3403E-1
  3.594     0.7720E-2  0.2527E-1  0.7072E-3  0.3410E-1
  3.604     0.7201E-2  0.2574E-1  0.7114E-3  0.3417E-1
  3.614     0.6738E-2  0.2620E-1  0.7156E-3  0.3424E-1
  3.624     0.6323E-2  0.2666E-1  0.7199E-3  0.3431E-1
  3.634     0.5951E-2  0.2710E-1  0.7242E-3  0.3439E-1
  3.644     0.5617E-2  0.2753E-1  0.7285E-3  0.3446E-1
  3.654     0.5315E-2  0.2795E-1  0.7330E-3  0.3453E-1
  3.664     0.5043E-2  0.2835E-1  0.7374E-3  0.3460E-1
  3.674     0.4797E-2  0.2875E-1  0.7419E-3  0.3468E-1
  3.684     0.4574E-2  0.2913E-1  0.7464E-3  0.3475E-1
  3.694     0.4372E-2  0.2950E-1  0.7510E-3  0.3483E-1
  3.704     0.4187E-2  0.2987E-1  0.7557E-3  0.3490E-1
  3.714     0.4020E-2  0.3022E-1  0.7604E-3  0.3498E-1
  3.724     0.3867E-2  0.3056E-1  0.7652E-3  0.3505E-1
  3.734     0.3727E-2  0.3089E-1  0.7700E-3  0.3513E-1
  3.744     0.3599E-2  0.3122E-1  0.7748E-3  0.3521E-1
  3.754     0.3482E-2  0.3153E-1  0.7798E-3  0.3529E-1
  3.764     0.3374E-2  0.3184E-1  0.7848E-3  0.3536E-1
  3.774     0.3276E-2  0.3214E-1  0.7898E-3  0.3544E-1
  3.784     0.3185E-2  0.3244E-1  0.7949E-3  0.3552E-1
  3.794     0.3102E-2  0.3273E-1  0.8001E-3  0.3560E-1
  3.804     0.3026E-2  0.3301E-1  0.8053E-3  0.3568E-1
  3.814     0.2955E-2  0.3329E-1  0.8106E-3  0.3576E-1
  3.824     0.2891E-2  0.3356E-1  0.8159E-3  0.3584E-1
  3.834     0.2832E-2  0.3383E-1  0.8213E-3  0.3593E-1
  3.844     0.2777E-2  0.3409E-1  0.8268E-3  0.3601E-1
  3.854     0.2727E-2  0.3435E-1  0.8323E-3  0.3609E-1
  3.864     0.2681E-2  0.3461E-1  0.8379E-3  0.3617E-1
  3.874     0.2639E-2  0.3486E-1  0.8436E-3  0.3626E-1
  3.884     0.2600E-2  0.3511E-1  0.8494E-3  0.3634E-1
  3.894     0.2565E-2  0.3536E-1  0.8552E-3  0.3643E-1
  3.904     0.2533E-2  0.3561E-1  0.8611E-3  0.3651E-1
  3.914     0.2504E-2  0.3585E-1  0.8671E-3  0.3660E-1
  3.924     0.2477E-2  0.3609E-1  0.8731E-3  0.3669E-1
  3.934     0.2453E-2  0.3633E-1  0.8792E-3  0.3677E-1
  3.944     0.2432E-2  0.3656E-1  0.8854E-3  0.3686E-1
  3.954     0.2413E-2  0.3680E-1  0.8917E-3  0.3695E-1
  3.964     0.2396E-2  0.3703E-1  0.8981E-3  0.3704E-1
  3.974     0.2381E-2  0.3726E-1  0.9045E-3  0.3713E-1
  3.984     0.2368E-2  0.3749E-1  0.9111E-3  0.3722E-1
  3.994     0.2357E-2  0.3772E-1  0.9177E-3  0.3731E-1
  4.004     0.2347E-2  0.3795E-1  0.9244E-3  0.3740E-1
  4.014     0.2340E-2  0.3818E-1  0.9312E-3  0.3750E-1
  4.024     0.2334E-2  0.3841E-1  0.9381E-3  0.3759E-1
  4.034     0.2330E-2  0.3864E-1  0.9450E-3  0.3768E-1
  4.044     0.2327E-2  0.3887E-1  0.9521E-3  0.3778E-1
  4.054     0.2326E-2  0.3909E-1  0.9593E-3  0.3787E-1
  4.064     0.2327E-2  0.3932E-1  0.9666E-3  0.3797E-1
  4.074     0.2328E-2  0.3955E-1  0.9739E-3  0.3807E-1
  4.084     0.2332E-2  0.3978E-1  0.9814E-3  0.3816E-1
  4.094     0.2336E-2  0.4001E-1  0.9890E-3  0.3826E-1
  4.104     0.2342E-2  0.4024E-1  0.9967E-3  0.3836E-1
  4.114     0.2350E-2  0.4047E-1  0.1004E-2  0.3846E-1
  4.124     0.2359E-2  0.4070E-1  0.1012E-2  0.3856E-1
  4.134     0.2369E-2  0.4093E-1  0.1020E-2  0.3866E-1
  4.144     0.2380E-2  0.4116E-1  0.1029E-2  0.3876E-1
  4.154     0.2393E-2  0.4140E-1  0.1037E-2  0.3887E-1
  4.164     0.2407E-2  0.4163E-1  0.1045E-2  0.3897E-1
  4.174     0.2422E-2  0.4187E-1  0.1054E-2  0.3908E-1
  4.184     0.2439E-2  0.4211E-1  0.1062E-2  0.3918E-1
  4.194     0.2457E-2  0.4235E-1  0.1071E-2  0.3929E-1
  4.204     0.2477E-2  0.4259E-1  0.1080E-2  0.3939E-1
  4.214     0.2498E-2  0.4283E-1  0.1089E-2  0.3950E-1
  4.224     0.2520E-2  0.4308E-1  0.1098E-2  0.3961E-1
  4.234     0.2544E-2  0.4333E-1  0.1107E-2  0.3972E-1
  4.244     0.2570E-2  0.4358E-1  0.1117E-2  0.3983E-1
  4.254     0.2597E-2  0.4383E-1  0.1126E-2  0.3994E-1
  4.264     0.2625E-2  0.4409E-1  0.1136E-2  0.4006E-1
  4.274     0.2656E-2  0.4435E-1  0.1146E-2  0.4017E-1
  4.284     0.2688E-2  0.4461E-1  0.1156E-2  0.4029E-1
  4.294     0.2721E-2  0.4487E-1  0.1166E-2  0.4040E-1
  4.304     0.2757E-2  0.4514E-1  0.1177E-2  0.4052E-1
  4.314     0.2795E-2  0.4541E-1  0.1187E-2  0.4064E-1
  4.324     0.2834E-2  0.4569E-1  0.1198E-2  0.4075E-1
  4.334     0.2876E-2  0.4597E-1  0.1209E-2  0.4087E-1
  4.344     0.2920E-2  0.4625E-1  0.1220E-2  0.4100E-1
  4.354     0.2966E-2  0.4653E-1  0.1231E-2  0.4112E-1
  4.364     0.3015E-2  0.4682E-1  0.1243E-2  0.4124E-1
  4.374     0.3066E-2  0.4712E-1  0.1254E-2  0.4136E-1
  4.384     0.3120E-2  0.4742E-1  0.1266E-2  0.4149E-1
  4.394     0.3177E-2  0.4772E-1  0.1278E-2  0.4162E-1
  4.404     0.3237E-2  0.4803E-1  0.1291E-2  0.4174E-1
  4.414     0.3300E-2  0.4835E-1  0.1303E-2  0.4187E-1
  4.424     0.3366E-2  0.4867E-1  0.1316E-2  0.4200E-1
  4.434     0.3437E-2  0.4900E-1  0.1329E-2  0.4214E-1
  4.444     0.3511E-2  0.4933E-1  0.1342E-2  0.4227E-1
  4.454     0.3589E-2  0.4967E-1  0.1355E-2  0.4240E-1
  4.464     0.3672E-2  0.5002E-1  0.1369E-2  0.4254E-1
  4.474     0.3760E-2  0.5037E-1  0.1383E-2  0.4268E-1
  4.484     0.3853E-2  0.5074E-1  0.1397E-2  0.4281E-1
  4.494     0.3951E-2  0.5110E-1  0.1411E-2  0.4295E-1
  4.505     0.4056E-2  0.5148E-1  0.1426E-2  0.4309E-1
  4.515     0.4167E-2  0.5187E-1  0.1441E-2  0.4324E-1
  4.525     0.4285E-2  0.5227E-1  0.1456E-2  0.4338E-1
  4.535     0.4412E-2  0.5267E-1  0.1472E-2  0.4353E-1
  4.545     0.4546E-2  0.5309E-1  0.1488E-2  0.4367E-1
  4.555     0.4690E-2  0.5351E-1  0.1504E-2  0.4382E-1
  4.565     0.4844E-2  0.5395E-1  0.1520E-2  0.4397E-1
  4.575     0.5009E-2  0.5440E-1  0.1537E-2  0.4412E-1
  4.585     0.5187E-2  0.5486E-1  0.1554E-2  0.4428E-1
  4.595     0.5378E-2  0.5534E-1  0.1572E-2  0.4443E-1
  4.605     0.5584E-2  0.5583E-1  0.1590E-2  0.4459E-1
  4.615     0.5807E-2  0.5633E-1  0.1608E-2  0.4475E-1
  4.625     0.6048E-2  0.5685E-1  0.1627E-2  0.4491E-1
  4.635     0.6310E-2  0.5738E-1  0.1646E-2  0.4507E-1
  4.645     0.6595E-2  0.5793E-1  0.1665E-2  0.4524E-1
  4.655     0.6905E-2  0.5850E-1  0.1685E-2  0.4540E-1
  4.665     0.7245E-2  0.5908E-1  0.1705E-2  0.4557E-1
  4.675     0.7617E-2  0.5968E-1  0.1726E-2  0.4574E-1
  4.685     0.8026E-2  0.6030E-1  0.1747E-2  0.4591E-1
  4.695     0.8477E-2  0.6094E-1  0.1769E-2  0.4609E-1
  4.705     0.8975E-2  0.6159E-1  0.1791E-2  0.4626E-1
  4.715     0.9527E-2  0.6225E-1  0.1813E-2  0.4644E-1
  4.725     0.1014E-1  0.6293E-1  0.1836E-2  0.4662E-1
  4.735     0.1082E-1  0.6362E-1  0.1860E-2  0.4681E-1
  4.745     0.1158E-1  0.6432E-1  0.1884E-2  0.4699E-1
  4.755     0.1243E-1  0.6501E-1  0.1909E-2  0.4718E-1
  4.765     0.1338E-1  0.6569E-1  0.1935E-2  0.4737E-1
  4.775     0.1445E-1  0.6635E-1  0.1960E-2  0.4756E-1
  4.785     0.1564E-1  0.6697E-1  0.1987E-2  0.4776E-1
  4.795     0.1697E-1  0.6752E-1  0.2014E-2  0.4796E-1
  4.805     0.1845E-1  0.6797E-1  0.2042E-2  0.4816E-1
  4.815     0.2009E-1  0.6830E-1  0.2071E-2  0.4836E-1
  4.825     0.2187E-1  0.6844E-1  0.2100E-2  0.4857E-1
  4.835     0.2379E-1  0.6834E-1  0.2131E-2  0.4878E-1
  4.845     0.2582E-1  0.6795E-1  0.2161E-2  0.4899E-1
  4.855     0.2789E-1  0.6720E-1  0.2193E-2  0.4920E-1
  4.865     0.2991E-1  0.6603E-1  0.2226E-2  0.4942E-1
  4.875     0.3176E-1  0.6444E-1  0.2259E-2  0.4964E-1
  4.885     0.3332E-1  0.6244E-1  0.2294E-2  0.4987E-1
  4.895     0.3444E-1  0.6010E-1  0.2329E-2  0.5010E-1
  4.905     0.3502E-1  0.5756E-1  0.2365E-2  0.5033E-1
  4.915     0.3500E-1  0.5498E-1  0.2403E-2  0.5056E-1
  4.925     0.3441E-1  0.5254E-1  0.2441E-2  0.5080E-1
  4.935     0.3332E-1  0.5039E-1  0.2480E-2  0.5104E-1
  4.945     0.3186E-1  0.4865E-1  0.2521E-2  0.5129E-1
  4.955     0.3016E-1  0.4735E-1  0.2563E-2  0.5154E-1
  4.965     0.2837E-1  0.4650E-1  0.2606E-2  0.5180E-1
  4.975     0.2658E-1  0.4606E-1  0.2650E-2  0.5205E-1
  4.985     0.2486E-1  0.4597E-1  0.2696E-2  0.5232E-1
  4.995     0.2328E-1  0.4618E-1  0.2743E-2  0.5258E-1
  5.005     0.2185E-1  0.4662E-1  0.2792E-2  0.5286E-1
  5.015     0.2058E-1  0.4724E-1  0.2842E-2  0.5313E-1
  5.025     0.1948E-1  0.4800E-1  0.2894E-2  0.5341E-1
  5.035     0.1854E-1  0.4887E-1  0.2947E-2  0.5370E-1
  5.045     0.1774E-1  0.4982E-1  0.3003E-2  0.5399E-1
  5.055     0.1708E-1  0.5082E-1  0.3060E-2  0.5429E-1
  5.065     0.1654E-1  0.5187E-1  0.3119E-2  0.5459E-1
  5.075     0.1612E-1  0.5296E-1  0.3180E-2  0.5490E-1
  5.085     0.1581E-1  0.5407E-1  0.3243E-2  0.5521E-1
  5.095     0.1559E-1  0.5521E-1  0.3309E-2  0.5553E-1
  5.105     0.1547E-1  0.5637E-1  0.3377E-2  0.5586E-1
  5.115     0.1544E-1  0.5754E-1  0.3447E-2  0.5619E-1
  5.125     0.1550E-1  0.5873E-1  0.3520E-2  0.5653E-1
  5.135     0.1564E-1  0.5994E-1  0.3596E-2  0.5688E-1
  5.145     0.1586E-1  0.6117E-1  0.3674E-2  0.5723E-1
  5.155     0.1617E-1  0.6241E-1  0.3756E-2  0.5759E-1
  5.165     0.1657E-1  0.6367E-1  0.3841E-2  0.5796E-1
  5.175     0.1706E-1  0.6495E-1  0.3929E-2  0.5834E-1
  5.185     0.1765E-1  0.6625E-1  0.4021E-2  0.5872E-1
  5.195     0.1835E-1  0.6756E-1  0.4117E-2  0.5912E-1
  5.205     0.1916E-1  0.6888E-1  0.4217E-2  0.5952E-1
  5.215     0.2009E-1  0.7021E-1  0.4321E-2  0.5993E-1
  5.225     0.2116E-1  0.7154E-1  0.4430E-2  0.6035E-1
  5.235     0.2239E-1  0.7287E-1  0.4544E-2  0.6079E-1
  5.245     0.2378E-1  0.7416E-1  0.4662E-2  0.6123E-1
  5.255     0.2535E-1  0.7542E-1  0.4787E-2  0.6168E-1
  5.265     0.2711E-1  0.7660E-1  0.4917E-2  0.6215E-1
  5.275     0.2908E-1  0.7768E-1  0.5053E-2  0.6262E-1
  5.285     0.3127E-1  0.7860E-1  0.5196E-2  0.6311E-1
    5.2953     0.0337     0.0793     0.0053     0.0636
    5.3053     0.0362     0.0798     0.0055     0.0641
    5.3153     0.0389     0.0799     0.0057     0.0647
    5.3253     0.0417     0.0797     0.0058     0.0652
    5.3353     0.0444     0.0790     0.0060     0.0658
    5.3453     0.0470     0.0780     0.0062     0.0663
    5.3554     0.0494     0.0766     0.0064     0.0669
    5.3654     0.0513     0.0749     0.0066     0.0675
    5.3754     0.0528     0.0732     0.0069     0.0682
    5.3854     0.0539     0.0715     0.0071     0.0688
    5.3954     0.0547     0.0700     0.0074     0.0695
    5.4054     0.0553     0.0689     0.0077     0.0702
    5.4154     0.0558     0.0681     0.0080     0.0709
    5.4254     0.0566     0.0676     0.0083     0.0716
    5.4354     0.0575     0.0673     0.0086     0.0724
    5.4454     0.0589     0.0671     0.0090     0.0732
    5.4555     0.0607     0.0668     0.0093     0.0740
    5.4655     0.0628     0.0662     0.0098     0.0748
   5.47548    0.06538    0.06526    0.01020    0.07572
   5.48549    0.06814    0.06370    0.01067    0.07663
   5.49549    0.07094    0.06143    0.01119    0.07757
   5.50551    0.07354    0.05837    0.01175    0.07854
   5.51552    0.07567    0.05456    0.01235    0.07956
   5.52553    0.07705    0.05012    0.01301    0.08061
   5.53553    0.07746    0.04532    0.01373    0.08170
   5.54555    0.07681    0.04046    0.01451    0.08283
   5.55556    0.07512    0.03589    0.01537    0.08400
   5.56557    0.07255    0.03191    0.01631    0.08521
   5.57558    0.06933    0.02870    0.01735    0.08646
   5.58559    0.06574    0.02637    0.01849    0.08775
   5.59560    0.06203    0.02492    0.01975    0.08908
   5.60561    0.05840    0.02426    0.02115    0.09045
   5.61562    0.05501    0.02428    0.02270    0.09183
   5.62563    0.05195    0.02488    0.02443    0.09324
   5.63564    0.04928    0.02592    0.02635    0.09464
   5.64565    0.04703    0.02731    0.02849    0.09603
   5.65566    0.04521    0.02895    0.03088    0.09736
   5.66567    0.04381    0.03077    0.03352    0.09862
   5.67568    0.04283    0.03271    0.03646    0.09974
   5.68569    0.04225    0.03472    0.03968    0.10068
   5.69570    0.04208    0.03676    0.04320    0.10135
   5.70571    0.04230    0.03878    0.04699    0.10170
   5.71572    0.04294    0.04074    0.05101    0.10163
   5.72573    0.04397    0.04260    0.05518    0.10108
   5.73574    0.04543    0.04429    0.05940    0.10000
   5.74575    0.04729    0.04575    0.06356    0.09838
   5.75576    0.04958    0.04690    0.06755    0.09624
   5.76577    0.05225    0.04764    0.07129    0.09367
   5.77578    0.05527    0.04786    0.07474    0.09072
   5.78579    0.05855    0.04742    0.07789    0.08745
   5.79580    0.06196    0.04622    0.08078    0.08389
   5.80581    0.06532    0.04415    0.08340    0.07999
   5.81582    0.06837    0.04119    0.08568    0.07571
   5.82583    0.07083    0.03737    0.08752    0.07100
   5.83584    0.07243    0.03287    0.08872    0.06588
   5.84585    0.07297    0.02796    0.08909    0.06050
   5.85586    0.07234    0.02297    0.08851    0.05507
   5.86587    0.07060    0.01826    0.08692    0.04988
   5.87588    0.06791    0.01413    0.08442    0.04525
   5.88589    0.06453    0.01079    0.08120    0.04139
    5.8959     0.0607     0.0083     0.0775     0.0385
    5.9059     0.0568     0.0067     0.0737     0.0365
  5.916     0.5284E-1  0.5863E-2  0.6995E-1  0.3544E-1
  5.926     0.4910E-1  0.5693E-2  0.6645E-1  0.3518E-1
    5.9359     0.0456     0.0061     0.0634     0.0356
    5.9459     0.0425     0.0069     0.0608     0.0365
    5.9560     0.0397     0.0080     0.0587     0.0378
    5.9660     0.0372     0.0094     0.0572     0.0394
   5.97598    0.03507    0.01092    0.05629    0.04115
   5.98599    0.03323    0.01259    0.05595    0.04294
   5.99600    0.03166    0.01436    0.05618    0.04469
   6.00601    0.03035    0.01618    0.05698    0.04630
   6.01602    0.02927    0.01804    0.05832    0.04766
   6.02603    0.02842    0.01993    0.06017    0.04865
   6.03604    0.02777    0.02183    0.06247    0.04914
   6.04605    0.02732    0.02373    0.06513    0.04901
   6.05606    0.02706    0.02564    0.06801    0.04813
   6.06607    0.02698    0.02754    0.07091    0.04639
   6.07608    0.02708    0.02944    0.07357    0.04375
   6.08609    0.02738    0.03133    0.07572    0.04025
   6.09610    0.02786    0.03321    0.07707    0.03606
   6.10611    0.02855    0.03506    0.07741    0.03143
   6.11612    0.02945    0.03688    0.07662    0.02671
   6.12613    0.03058    0.03865    0.07475    0.02225
   6.13614    0.03196    0.04037    0.07195    0.01837
   6.14615    0.03361    0.04199    0.06848    0.01525
   6.15616    0.03555    0.04348    0.06461    0.01300
   6.16617    0.03780    0.04480    0.06060    0.01160
   6.17618    0.04037    0.04588    0.05664    0.01099
   6.18619    0.04328    0.04664    0.05289    0.01105
   6.19620    0.04650    0.04699    0.04945    0.01166
   6.20621    0.05001    0.04681    0.04635    0.01270
   6.21622    0.05371    0.04597    0.04362    0.01407
   6.22623    0.05748    0.04437    0.04126    0.01569
   6.23624    0.06113    0.04191    0.03925    0.01749
   6.24625    0.06440    0.03855    0.03758    0.01941
   6.25626    0.06703    0.03437    0.03623    0.02143
   6.26627    0.06874    0.02954    0.03518    0.02350
   6.27628    0.06934    0.02433    0.03442    0.02561
   6.28629    0.06874    0.01909    0.03393    0.02774
   6.29630    0.06703    0.01417    0.03371    0.02987
    6.3063     0.0644     0.0099     0.0338     0.0320
    6.3163     0.0610     0.0064     0.0341     0.0341
  6.326     0.5725E-1  0.3750E-2  0.3468E-1  0.3615E-1
  6.336     0.5333E-1  0.1983E-2  0.3556E-1  0.3815E-1
  6.346     0.4945E-1  0.9886E-3  0.3674E-1  0.4007E-1
  6.356     0.4575E-1  0.6499E-3  0.3823E-1  0.4187E-1
  6.366     0.4231E-1  0.8437E-3  0.4006E-1  0.4352E-1
  6.376     0.3918E-1  0.1454E-2  0.4224E-1  0.4496E-1
  6.386     0.3637E-1  0.2382E-2  0.4476E-1  0.4612E-1
  6.396     0.3388E-1  0.3544E-2  0.4765E-1  0.4691E-1
  6.406     0.3168E-1  0.4876E-2  0.5085E-1  0.4722E-1
  6.416     0.2976E-1  0.6326E-2  0.5432E-1  0.4694E-1
    6.4264     0.0281     0.0079     0.0579     0.0459
    6.4364     0.0267     0.0094     0.0616     0.0441
   6.44645    0.02542    0.01107    0.06497    0.04140
   6.45646    0.02438    0.01270    0.06787    0.03780
   6.46647    0.02350    0.01435    0.07001    0.03345
   6.47648    0.02279    0.01601    0.07113    0.02855
   6.48649    0.02221    0.01766    0.07110    0.02344
   6.49650    0.02177    0.01931    0.06990    0.01847
   6.50651    0.02146    0.02095    0.06766    0.01397
   6.51652    0.02127    0.02260    0.06459    0.01019
    6.5265     0.0212     0.0242     0.0610     0.0073
  6.537     0.2126E-1  0.2588E-1  0.5710E-1  0.5197E-2
  6.547     0.2143E-1  0.2751E-1  0.5317E-1  0.3959E-2
  6.557     0.2172E-1  0.2915E-1  0.4936E-1  0.3438E-2
  6.567     0.2214E-1  0.3079E-1  0.4579E-1  0.3514E-2
  6.577     0.2270E-1  0.3242E-1  0.4251E-1  0.4064E-2
  6.587     0.2341E-1  0.3405E-1  0.3955E-1  0.4982E-2
  6.597     0.2427E-1  0.3567E-1  0.3693E-1  0.6175E-2
    6.6066     0.0253     0.0373     0.0346     0.0076
    6.6166     0.0265     0.0389     0.0326     0.0091
   6.62663    0.02797    0.04039    0.03088    0.01075
   6.63664    0.02964    0.04186    0.02940    0.01246
   6.64665    0.03156    0.04324    0.02815    0.01422
   6.65666    0.03377    0.04449    0.02711    0.01601
   6.66667    0.03627    0.04554    0.02627    0.01781
   6.67668    0.03909    0.04634    0.02561    0.01962
   6.68669    0.04223    0.04680    0.02512    0.02143
   6.69670    0.04567    0.04682    0.02479    0.02325
   6.70671    0.04935    0.04626    0.02462    0.02506
   6.71672    0.05318    0.04502    0.02460    0.02687
   6.72673    0.05701    0.04298    0.02474    0.02868
   6.73674    0.06063    0.04006    0.02503    0.03048
   6.74675    0.06377    0.03627    0.02549    0.03227
   6.75676    0.06616    0.03170    0.02613    0.03405
   6.76677    0.06755    0.02657    0.02694    0.03582
   6.77678    0.06778    0.02118    0.02796    0.03755
   6.78679    0.06682    0.01589    0.02919    0.03925
   6.79680    0.06478    0.01103    0.03065    0.04088
    6.8068     0.0619     0.0069     0.0324     0.0424
  6.817     0.5837E-1  0.3553E-2  0.3437E-1  0.4386E-1
  6.827     0.5454E-1  0.1114E-2  0.3668E-1  0.4512E-1
  6.837     0.5062E-1  -.4903E-3  0.3930E-1  0.4615E-1
  6.847     0.4680E-1  -.1360E-2  0.4224E-1  0.4687E-1
  6.857     0.4318E-1  -.1616E-2  0.4551E-1  0.4719E-1
  6.867     0.3984E-1  -.1381E-2  0.4904E-1  0.4698E-1
  6.877     0.3680E-1  -.7655E-3  0.5278E-1  0.4613E-1
  6.887     0.3409E-1  0.1357E-3  0.5659E-1  0.4453E-1
  6.897     0.3167E-1  0.1246E-2  0.6029E-1  0.4207E-1
  6.907     0.2954E-1  0.2506E-2  0.6362E-1  0.3872E-1
  6.917     0.2768E-1  0.3870E-2  0.6632E-1  0.3454E-1
  6.927     0.2605E-1  0.5303E-2  0.6812E-1  0.2969E-1
  6.937     0.2463E-1  0.6780E-2  0.6881E-1  0.2445E-1
    6.9469     0.0234     0.0083     0.0683     0.0192
    6.9570     0.0223     0.0098     0.0667     0.0142
    6.9670     0.0214     0.0113     0.0641     0.0098
  6.977     0.2068E-1  0.1284E-1  0.6077E-1  0.6197E-2
  6.987     0.2005E-1  0.1435E-1  0.5703E-1  0.3483E-2
  6.997     0.1953E-1  0.1586E-1  0.5312E-1  0.1629E-2
  7.007     0.1913E-1  0.1736E-1  0.4924E-1  0.5551E-3
  7.017     0.1882E-1  0.1886E-1  0.4553E-1  0.1445E-3
  7.027     0.1861E-1  0.2035E-1  0.4208E-1  0.2742E-3
  7.037     0.1850E-1  0.2184E-1  0.3893E-1  0.8275E-3
  7.047     0.1848E-1  0.2332E-1  0.3610E-1  0.1703E-2
  7.057     0.1855E-1  0.2481E-1  0.3358E-1  0.2818E-2
  7.067     0.1871E-1  0.2629E-1  0.3136E-1  0.4106E-2
  7.077     0.1897E-1  0.2778E-1  0.2941E-1  0.5515E-2
  7.087     0.1934E-1  0.2928E-1  0.2772E-1  0.7008E-2
    7.0971     0.0198     0.0308     0.0263     0.0086
   7.10711    0.02039    0.03227    0.02499    0.01014
   7.11712    0.02110    0.03378    0.02391    0.01174
   7.12713    0.02194    0.03528    0.02300    0.01335
   7.13714    0.02293    0.03678    0.02225    0.01496
   7.14715    0.02410    0.03827    0.02163    0.01657
   7.15716    0.02544    0.03973    0.02115    0.01818
   7.16717    0.02700    0.04116    0.02078    0.01979
   7.17718    0.02878    0.04251    0.02054    0.02139
   7.18719    0.03082    0.04377    0.02040    0.02299
   7.19720    0.03314    0.04489    0.02038    0.02458
   7.20721    0.03576    0.04582    0.02046    0.02618
   7.21722    0.03869    0.04647    0.02066    0.02777
   7.22723    0.04193    0.04677    0.02098    0.02937
   7.23724    0.04545    0.04660    0.02141    0.03096
   7.24725    0.04921    0.04584    0.02198    0.03256
   7.25726    0.05308    0.04437    0.02268    0.03416
   7.26727    0.05692    0.04209    0.02353    0.03574
   7.27728    0.06049    0.03893    0.02455    0.03732
   7.28729    0.06352    0.03490    0.02575    0.03888
   7.29730    0.06576    0.03013    0.02715    0.04040
   7.30731    0.06694    0.02485    0.02878    0.04186
   7.31732    0.06695    0.01939    0.03065    0.04324
   7.32733    0.06578    0.01409    0.03279    0.04450
    7.3373     0.0636     0.0093     0.0352     0.0456
  7.347     0.6051E-1  0.5225E-2  0.3798E-1  0.4645E-1
  7.357     0.5693E-1  0.2018E-2  0.4105E-1  0.4699E-1
  7.367     0.5307E-1  -.3121E-3  0.4442E-1  0.4712E-1
  7.377     0.4916E-1  -.1825E-2  0.4805E-1  0.4672E-1
  7.387     0.4537E-1  -.2625E-2  0.5186E-1  0.4566E-1
  7.397     0.4180E-1  -.2836E-2  0.5572E-1  0.4384E-1
  7.407     0.3851E-1  -.2579E-2  0.5943E-1  0.4115E-1
  7.417     0.3553E-1  -.1962E-2  0.6274E-1  0.3758E-1
  7.427     0.3287E-1  -.1076E-2  0.6538E-1  0.3320E-1
  7.437     0.3050E-1  0.5331E-5  0.6708E-1  0.2818E-1
  7.447     0.2841E-1  0.1226E-2  0.6765E-1  0.2281E-1
  7.457     0.2657E-1  0.2541E-2  0.6703E-1  0.1744E-1
  7.467     0.2496E-1  0.3919E-2  0.6528E-1  0.1241E-1
  7.477     0.2356E-1  0.5336E-2  0.6259E-1  0.8023E-2
  7.487     0.2233E-1  0.6774E-2  0.5923E-1  0.4444E-2
  7.497     0.2128E-1  0.8222E-2  0.5547E-1  0.1746E-2
  7.508     0.2037E-1  0.9672E-2  0.5156E-1  -.9908E-4
  7.518     0.1959E-1  0.1112E-1  0.4769E-1  -.1177E-2
  7.528     0.1893E-1  0.1256E-1  0.4401E-1  -.1607E-2
  7.538     0.1838E-1  0.1399E-1  0.4058E-1  -.1512E-2
  7.548     0.1793E-1  0.1541E-1  0.3746E-1  -.1007E-2
  7.558     0.1757E-1  0.1682E-1  0.3466E-1  -.1914E-3
  7.568     0.1730E-1  0.1823E-1  0.3216E-1  0.8534E-3
  7.578     0.1712E-1  0.1963E-1  0.2995E-1  0.2063E-2
  7.588     0.1701E-1  0.2102E-1  0.2801E-1  0.3387E-2
  7.598     0.1699E-1  0.2242E-1  0.2631E-1  0.4790E-2
  7.608     0.1704E-1  0.2381E-1  0.2483E-1  0.6242E-2
    7.6176     0.0172     0.0252     0.0235     0.0077
    7.6276     0.0174     0.0266     0.0224     0.0092
   7.63764    0.01769    0.02801    0.02148    0.01073
   7.64765    0.01808    0.02942    0.02068    0.01223
   7.65766    0.01856    0.03084    0.02000    0.01373
   7.66767    0.01915    0.03227    0.01944    0.01523
   7.67768    0.01986    0.03370    0.01898    0.01671
   7.68769    0.02068    0.03514    0.01864    0.01820
   7.69770    0.02165    0.03658    0.01838    0.01967
   7.70771    0.02277    0.03802    0.01822    0.02114
   7.71772    0.02407    0.03943    0.01815    0.02261
   7.72773    0.02555    0.04082    0.01817    0.02407
   7.73774    0.02726    0.04216    0.01828    0.02554
   7.74775    0.02920    0.04342    0.01848    0.02701
   7.75776    0.03141    0.04456    0.01877    0.02848
   7.76777    0.03390    0.04554    0.01917    0.02996
   7.77778    0.03670    0.04628    0.01967    0.03144
   7.78779    0.03982    0.04672    0.02028    0.03293
   7.79780    0.04323    0.04674    0.02102    0.03442
   7.80781    0.04690    0.04624    0.02189    0.03591
   7.81782    0.05075    0.04509    0.02292    0.03740
   7.82783    0.05464    0.04316    0.02411    0.03887
   7.83784    0.05838    0.04039    0.02550    0.04032
   7.84785    0.06172    0.03673    0.02709    0.04172
   7.85786    0.06438    0.03226    0.02891    0.04306
   7.86787    0.06610    0.02715    0.03099    0.04429
   7.87788    0.06669    0.02169    0.03336    0.04538
   7.88789    0.06609    0.01624    0.03602    0.04626
   7.89790    0.06435    0.01113    0.03900    0.04687
  7.908     0.6167E-1  0.6650E-2  0.4228E-1  0.4710E-1
  7.918     0.5831E-1  0.2987E-2  0.4585E-1  0.4685E-1
  7.928     0.5456E-1  0.2041E-3  0.4963E-1  0.4600E-1
  7.938     0.5065E-1  -.1725E-2  0.5352E-1  0.4443E-1
  7.948     0.4678E-1  -.2887E-2  0.5733E-1  0.4202E-1
  7.958     0.4309E-1  -.3400E-2  0.6085E-1  0.3874E-1
  7.968     0.3966E-1  -.3388E-2  0.6380E-1  0.3460E-1
  7.978     0.3653E-1  -.2967E-2  0.6591E-1  0.2974E-1
  7.988     0.3371E-1  -.2235E-2  0.6695E-1  0.2441E-1
  7.998     0.3119E-1  -.1275E-2  0.6680E-1  0.1894E-1
  8.008     0.2896E-1  -.1510E-3  0.6548E-1  0.1369E-1
  8.018     0.2699E-1  0.1087E-2  0.6314E-1  0.8972E-2
  8.028     0.2527E-1  0.2401E-2  0.6001E-1  0.5009E-2
  8.038     0.2375E-1  0.3764E-2  0.5638E-1  0.1913E-2
  8.048     0.2243E-1  0.5156E-2  0.5250E-1  -.3099E-3
  8.058     0.2128E-1  0.6561E-2  0.4860E-1  -.1727E-2
  8.068     0.2028E-1  0.7970E-2  0.4483E-1  -.2447E-2
  8.078     0.1942E-1  0.9377E-2  0.4130E-1  -.2594E-2
  8.088     0.1868E-1  0.1078E-1  0.3805E-1  -.2289E-2
  8.098     0.1805E-1  0.1217E-1  0.3511E-1  -.1636E-2
  8.108     0.1752E-1  0.1355E-1  0.3249E-1  -.7251E-3
  8.118     0.1709E-1  0.1492E-1  0.3016E-1  0.3732E-3
  8.128     0.1674E-1  0.1628E-1  0.2810E-1  0.1604E-2
  8.138     0.1647E-1  0.1763E-1  0.2629E-1  0.2925E-2
  8.148     0.1627E-1  0.1898E-1  0.2471E-1  0.4305E-2
  8.158     0.1615E-1  0.2032E-1  0.2333E-1  0.5721E-2
  8.168     0.1610E-1  0.2166E-1  0.2213E-1  0.7156E-2
    8.1782     0.0161     0.0230     0.0211     0.0086
   8.18819    0.01622    0.02433    0.02020    0.01005
   8.19820    0.01639    0.02568    0.01943    0.01149
   8.20821    0.01663    0.02702    0.01878    0.01292
   8.21822    0.01695    0.02838    0.01824    0.01434
   8.22823    0.01735    0.02974    0.01780    0.01576
   8.23824    0.01785    0.03112    0.01745    0.01716
   8.24825    0.01844    0.03250    0.01719    0.01856
   8.25826    0.01914    0.03389    0.01701    0.01996
   8.26827    0.01996    0.03529    0.01691    0.02135
   8.27828    0.02092    0.03670    0.01688    0.02273
   8.28829    0.02201    0.03810    0.01694    0.02412
   8.29830    0.02328    0.03949    0.01707    0.02551
   8.30831    0.02473    0.04085    0.01728    0.02691
   8.31832    0.02638    0.04218    0.01758    0.02831
   8.32833    0.02827    0.04343    0.01797    0.02971
   8.33834    0.03042    0.04458    0.01845    0.03113
   8.34835    0.03284    0.04558    0.01903    0.03255
   8.35836    0.03557    0.04638    0.01973    0.03398
   8.36837    0.03860    0.04689    0.02055    0.03542
   8.37838    0.04194    0.04701    0.02151    0.03685
   8.38839    0.04555    0.04665    0.02261    0.03828
   8.39840    0.04937    0.04567    0.02389    0.03970
   8.40841    0.05328    0.04396    0.02536    0.04109
   8.41842    0.05709    0.04141    0.02705    0.04243
   8.42843    0.06058    0.03798    0.02897    0.04369
   8.43844    0.06347    0.03371    0.03115    0.04485
   8.44845    0.06548    0.02873    0.03362    0.04584
   8.45846    0.06642    0.02332    0.03639    0.04661
   8.46847    0.06615    0.01781    0.03948    0.04708
   8.47848    0.06473    0.01255    0.04286    0.04715
  8.488     0.6230E-1  0.7846E-2  0.4651E-1  0.4670E-1
  8.498     0.5911E-1  0.3919E-2  0.5035E-1  0.4562E-1
  8.509     0.5544E-1  0.8626E-3  0.5425E-1  0.4378E-1
  8.519     0.5155E-1  -.1324E-2  0.5801E-1  0.4109E-1
  8.529     0.4766E-1  -.2714E-2  0.6141E-1  0.3751E-1
  8.539     0.4390E-1  -.3420E-2  0.6415E-1  0.3311E-1
  8.549     0.4039E-1  -.3566E-2  0.6597E-1  0.2806E-1
  8.559     0.3717E-1  -.3271E-2  0.6668E-1  0.2262E-1
  8.569     0.3425E-1  -.2639E-2  0.6619E-1  0.1714E-1
  8.579     0.3165E-1  -.1757E-2  0.6456E-1  0.1199E-1
  8.589     0.2933E-1  -.6953E-3  0.6196E-1  0.7438E-2
  8.599     0.2729E-1  0.4934E-3  0.5866E-1  0.3690E-2
  8.609     0.2549E-1  0.1768E-2  0.5494E-1  0.8196E-3
  8.619     0.2391E-1  0.3097E-2  0.5103E-1  -.1190E-2
  8.629     0.2252E-1  0.4460E-2  0.4716E-1  -.2423E-2
  8.639     0.2131E-1  0.5840E-2  0.4344E-1  -.2994E-2
  8.649     0.2026E-1  0.7225E-2  0.3999E-1  -.3029E-2
  8.659     0.1935E-1  0.8609E-2  0.3682E-1  -.2643E-2
  8.669     0.1856E-1  0.9986E-2  0.3397E-1  -.1938E-2
  8.679     0.1788E-1  0.1135E-1  0.3143E-1  -.9968E-3
  8.689     0.1731E-1  0.1271E-1  0.2917E-1  0.1137E-3
  8.699     0.1683E-1  0.1406E-1  0.2718E-1  0.1343E-2
  8.709     0.1643E-1  0.1539E-1  0.2543E-1  0.2651E-2
  8.719     0.1611E-1  0.1672E-1  0.2389E-1  0.4010E-2
  8.729     0.1587E-1  0.1803E-1  0.2256E-1  0.5400E-2
  8.739     0.1569E-1  0.1934E-1  0.2139E-1  0.6805E-2
  8.749     0.1559E-1  0.2065E-1  0.2038E-1  0.8214E-2
    8.7588     0.0155     0.0220     0.0195     0.0096
   8.76877    0.01557    0.02325    0.01875    0.01102
   8.77878    0.01567    0.02456    0.01811    0.01241
   8.78879    0.01583    0.02587    0.01757    0.01380
   8.79880    0.01606    0.02718    0.01712    0.01517
   8.80881    0.01637    0.02851    0.01676    0.01653
   8.81882    0.01675    0.02984    0.01649    0.01788
   8.82883    0.01722    0.03118    0.01628    0.01923
   8.83884    0.01778    0.03253    0.01615    0.02057
   8.84885    0.01843    0.03390    0.01610    0.02191
   8.85886    0.01920    0.03527    0.01611    0.02325
   8.86887    0.02009    0.03665    0.01620    0.02459
   8.87888    0.02112    0.03803    0.01635    0.02593
   8.88889    0.02230    0.03941    0.01659    0.02728
   8.89890    0.02366    0.04077    0.01690    0.02863
   8.90891    0.02521    0.04211    0.01729    0.03000
   8.91892    0.02697    0.04339    0.01777    0.03137
   8.92893    0.02897    0.04458    0.01835    0.03275
   8.93894    0.03125    0.04566    0.01904    0.03415
   8.94895    0.03381    0.04657    0.01984    0.03555
   8.95896    0.03667    0.04723    0.02077    0.03695
   8.96897    0.03985    0.04758    0.02184    0.03835
   8.97898    0.04332    0.04749    0.02308    0.03975
   8.98899    0.04704    0.04687    0.02450    0.04112
   8.99900    0.05091    0.04558    0.02612    0.04245
   9.00901    0.05481    0.04350    0.02798    0.04372
   9.01902    0.05852    0.04056    0.03008    0.04489
   9.02903    0.06178    0.03675    0.03246    0.04592
   9.03904    0.06433    0.03213    0.03514    0.04676
   9.04905    0.06591    0.02693    0.03812    0.04732
   9.05906    0.06633    0.02142    0.04142    0.04751
   9.06907    0.06556    0.01596    0.04499    0.04723
   9.07908    0.06367    0.01089    0.04879    0.04636
  9.089     0.6088E-1  0.6498E-2  0.5269E-1  0.4477E-1
  9.099     0.5746E-1  0.2930E-2  0.5653E-1  0.4236E-1
  9.109     0.5366E-1  0.2443E-3  0.6009E-1  0.3907E-1
  9.119     0.4975E-1  -.1597E-2  0.6309E-1  0.3493E-1
  9.129     0.4590E-1  -.2687E-2  0.6526E-1  0.3005E-1
  9.139     0.4224E-1  -.3147E-2  0.6637E-1  0.2469E-1
  9.149     0.3885E-1  -.3098E-2  0.6630E-1  0.1917E-1
  9.159     0.3576E-1  -.2656E-2  0.6505E-1  0.1385E-1
  9.169     0.3297E-1  -.1918E-2  0.6276E-1  0.9048E-2
  9.179     0.3049E-1  -.9608E-3  0.5967E-1  0.4993E-2
  9.189     0.2829E-1  0.1512E-3  0.5606E-1  0.1801E-2
  9.199     0.2635E-1  0.1370E-2  0.5220E-1  -.5150E-3
  9.209     0.2464E-1  0.2661E-2  0.4829E-1  -.2020E-2
  9.219     0.2315E-1  0.3996E-2  0.4451E-1  -.2822E-2
  9.229     0.2183E-1  0.5356E-2  0.4095E-1  -.3045E-2
  9.239     0.2069E-1  0.6727E-2  0.3768E-1  -.2808E-2
  9.249     0.1969E-1  0.8100E-2  0.3472E-1  -.2219E-2
  9.259     0.1882E-1  0.9468E-2  0.3207E-1  -.1369E-2
  9.269     0.1807E-1  0.1083E-1  0.2971E-1  -.3273E-3
  9.279     0.1743E-1  0.1218E-1  0.2763E-1  0.8479E-3
  9.289     0.1688E-1  0.1351E-1  0.2579E-1  0.2115E-2
  9.299     0.1642E-1  0.1484E-1  0.2418E-1  0.3441E-2
  9.309     0.1605E-1  0.1615E-1  0.2277E-1  0.4803E-2
  9.319     0.1574E-1  0.1746E-1  0.2153E-1  0.6185E-2
  9.329     0.1551E-1  0.1875E-1  0.2046E-1  0.7574E-2
  9.339     0.1534E-1  0.2004E-1  0.1953E-1  0.8962E-2
   9.34935    0.01524    0.02133    0.01872    0.01034
   9.35936    0.01520    0.02261    0.01803    0.01172
   9.36937    0.01523    0.02389    0.01744    0.01308
   9.37938    0.01532    0.02518    0.01694    0.01443
   9.38939    0.01547    0.02647    0.01654    0.01577
   9.39940    0.01569    0.02776    0.01621    0.01710
   9.40941    0.01598    0.02906    0.01595    0.01843
   9.41942    0.01634    0.03038    0.01577    0.01974
   9.42943    0.01678    0.03170    0.01566    0.02105
   9.43944    0.01731    0.03303    0.01561    0.02236
   9.44945    0.01793    0.03438    0.01563    0.02367
   9.45946    0.01865    0.03574    0.01572    0.02498
   9.46947    0.01949    0.03710    0.01587    0.02629
   9.47948    0.02046    0.03848    0.01610    0.02761
   9.48949    0.02158    0.03985    0.01640    0.02894
   9.49950    0.02285    0.04121    0.01677    0.03027
   9.50951    0.02431    0.04255    0.01723    0.03162
   9.51952    0.02597    0.04385    0.01778    0.03298
   9.52953    0.02786    0.04509    0.01843    0.03435
   9.53954    0.03000    0.04623    0.01919    0.03572
   9.54955    0.03242    0.04722    0.02007    0.03711
   9.55956    0.03514    0.04801    0.02109    0.03849
   9.56957    0.03816    0.04852    0.02226    0.03988
   9.57958    0.04149    0.04866    0.02360    0.04125
   9.58959    0.04510    0.04831    0.02513    0.04259
   9.59960    0.04892    0.04736    0.02688    0.04387
   9.60961    0.05283    0.04569    0.02887    0.04508
   9.61962    0.05666    0.04318    0.03112    0.04618
   9.62963    0.06019    0.03979    0.03366    0.04710
   9.63964    0.06313    0.03556    0.03650    0.04779
   9.64965    0.06522    0.03061    0.03966    0.04817
   9.65966    0.06623    0.02521    0.04310    0.04812
   9.66967    0.06606    0.01968    0.04681    0.04755
   9.67968    0.06471    0.01437    0.05068    0.04631
  9.690     0.6234E-1  0.9616E-2  0.5458E-1  0.4430E-1
  9.700     0.5919E-1  0.5620E-2  0.5831E-1  0.4143E-1
  9.710     0.5555E-1  0.2493E-2  0.6162E-1  0.3768E-1
  9.720     0.5167E-1  0.2382E-3  0.6423E-1  0.3313E-1
  9.730     0.4777E-1  -.1214E-2  0.6588E-1  0.2796E-1
  9.740     0.4400E-1  -.1974E-2  0.6639E-1  0.2246E-1
  9.750     0.4047E-1  -.2166E-2  0.6571E-1  0.1699E-1
  9.760     0.3722E-1  -.1909E-2  0.6390E-1  0.1190E-1
  9.770     0.3428E-1  -.1309E-2  0.6117E-1  0.7450E-2
  9.780     0.3165E-1  -.4537E-3  0.5777E-1  0.3824E-2
  9.790     0.2931E-1  0.5854E-3  0.5400E-1  0.1080E-2
  9.800     0.2725E-1  0.1754E-2  0.5009E-1  -.8138E-3
  9.810     0.2542E-1  0.3010E-2  0.4623E-1  -.1949E-2
  9.820     0.2382E-1  0.4323E-2  0.4256E-1  -.2444E-2
  9.830     0.2241E-1  0.5669E-2  0.3914E-1  -.2424E-2
  9.840     0.2118E-1  0.7033E-2  0.3603E-1  -.2001E-2
  9.850     0.2011E-1  0.8403E-2  0.3323E-1  -.1275E-2
  9.860     0.1917E-1  0.9770E-2  0.3072E-1  -.3255E-3
  9.870     0.1836E-1  0.1113E-1  0.2851E-1  0.7830E-3
  9.880     0.1766E-1  0.1248E-1  0.2655E-1  0.2002E-2
  9.890     0.1706E-1  0.1382E-1  0.2483E-1  0.3295E-2
  9.900     0.1655E-1  0.1514E-1  0.2332E-1  0.4633E-2
  9.910     0.1612E-1  0.1646E-1  0.2200E-1  0.5998E-2
  9.920     0.1577E-1  0.1776E-1  0.2084E-1  0.7376E-2
  9.930     0.1549E-1  0.1905E-1  0.1983E-1  0.8756E-2
   9.93994    0.01527    0.02034    0.01896    0.01013
   9.94995    0.01512    0.02162    0.01821    0.01150
   9.95996    0.01504    0.02289    0.01756    0.01286
   9.96997    0.01501    0.02417    0.01701    0.01420
   9.97998    0.01504    0.02544    0.01655    0.01554
   9.98999    0.01514    0.02672    0.01617    0.01686
  10.00000    0.01530    0.02800    0.01586    0.01817
# 
# 02/04/2017 at 12:22 YAMBO @ narro [start]
# 02/04/2017 at 12:22               [end]
#  
# Timing   [Min/Max/Average]: 30s/30s/30s
#
# .-Input file : yambo.in
# | optics                       # [R OPT] Optics
# | bse                          # [R BSE] Bethe Salpeter Equation.
# | bsk                          # [R BSK] Bethe Salpeter Equation kernel
# | bss                          # [R BSS] Bethe Salpeter Equation solver
# | em1s                         # [R Xs] Static Inverse Dielectric Matrix
# | rim_cut                      # [R RIM CUT] Coulomb potential
# | BoseTemp= 0.000000     eV    # Bosonic Temperature
# | RandQpts= 1000000            # [RIM] Number of random q-points in the BZ
# | RandGvec= 1            RL    # [RIM] Coulomb interaction RS components
# | CUTGeo= "none"               # [CUT] Coulomb Cutoff geometry: box/cylinder/sphere X/Y/Z/XY..
# | % CUTBox
# |  0.00     | 0.00     | 0.00     |        # [CUT] [au] Box sides
# | %
# | CUTRadius= 0.000000          # [CUT] [au] Sphere/Cylinder radius
# | CUTCylLen= 0.000000          # [CUT] [au] Cylinder length
# | Chimod= "Hartree"            # [X] IP/Hartree/ALDA/LRC/BSfxc
# | BSEmod= "resonant"           # [BSE] resonant/retarded/coupling
# | BSKmod= "SEX"                # [BSE] IP/Hartree/HF/ALDA/SEX/BSfxc
# | BSSmod= "d"                  # [BSS] (h)aydock/(d)iagonalization/(i)nversion/(t)ddft`
# | BSENGexx= 111          RL    # [BSK] Exchange components
# | BSENGBlk= 111          RL    # [BSK] Screened interaction block size
# | #WehCpl                      # [BSK] eh interaction included also in coupling
# | % KfnQP_E
# |  3.500000 | 1.000000 | 1.000000 |        # [EXTQP BSK BSS] E parameters  (c/v) eV|adim|adim
# | %
# | % BEnRange
# |   0.00000 | 10.00000 | eV    # [BSS] Energy range
# | %
# | % BDmRange
# |   0.10000 |  0.10000 | eV    # [BSS] Damping range
# | %
# | BEnSteps= 1000               # [BSS] Energy steps
# | % BLongDir
# | 0.1000E-4 | 0.000    | 0.000    |        # [BSS] [cc] Electric Field
# | %
# | % BSEBands
# |  1 | 2 |                     # [BSK] Bands range
# | %
# | WRbsWF                       # [BSS] Write to disk excitonic the WFs
# | % BndsRnXs
# |  1 | 2 |                     # [Xs] Polarization function bands
# | %
# | NGsBlkXs= 111          RL    # [Xs] Response block size
# | % DmRngeXs
# | 0.1000E-2 |0.1000E-2 | eV    # [Xs] Damping range
# | %
# | % LongDrXs
# | 0.1000E-4 | 0.000    | 0.000    |        # [Xs] [cc] Electric Field
# | %
