#                                                           
#   __   __     _        __  __       ____      U  ___  u   
#   \ \ / / U  /"\  U u |" \/ "| u U | __") u    \/"_ \/    
#    \ V /   \/ _ \/   \| |\/| |/   \|  _ \/     | | | |    
#   U_|"|_u  / ___ \    | |  | |     | |_) | .-,_| |_| |    
#     |_|   /_/   \_\   |_|  |_|     |____/   \_)-\___/     
# .-,//|(_   \\    >>  <<,-,,-.     _|| \\_        \\       
#  \_) (__) (__)  (__)  (./  \.)   (__) (__)      (__)      
#                                                           
#                                                           
#        Version 4.3.0 Revision 15624 Hash 7ed12fb          
#                      MPI+SLK Build                        
#                http://www.yambo-code.org                  
#
# Absorption @ Q(1) [q->0 direction] :0.1000E-4  0.000     0.000   
#
#
# - Energies      are  Analyt. E
# - Wavefunctions are Teter 93(XC)
#
# - The Green`s function is Retarded -
# - Using the Length Gauge -
# - [r,Vnl] *is* included -
#
#   BSK|Identifier              :3973
#      |Dimension               :49
#      |Bands                   :1 - 50
#      |Exchange           [res]: yes
#      |Correlation        [res]: no
#      |Kernel`s coupling       : no
#      |Exchange           [cpl]: no
#      |Correlation        [cpl]: no
#      |W interaction is bare   : no
#      |ALDA kernel in R-space  : no
#      |RL vectors    [exchange]:4067
#      |E/h energy range    [ev]:-1.000000 - -1.000000
#      |Coupling range     [o/o]: 100.0000 -  100.0000
#
#    E/ev[1]      EPS-Im[2]    EPS-Re[3]    EPSo-Im[4]   EPSo-Re[5]
#
    0.000000     0.000000     1.011350     0.000000     1.012841
   0.2002E-1    0.7461E-7     1.011       0.1049E-6     1.013   
   0.4004E-1    0.1492E-6     1.011       0.2098E-6     1.013   
   0.6006E-1    0.2238E-6     1.011       0.3147E-6     1.013   
   0.8008E-1    0.2984E-6     1.011       0.4197E-6     1.013   
   0.1001       0.3731E-6     1.011       0.5246E-6     1.013   
   0.1201       0.4477E-6     1.011       0.6295E-6     1.013   
   0.1401       0.5223E-6     1.011       0.7345E-6     1.013   
   0.1602       0.5969E-6     1.011       0.8394E-6     1.013   
   0.1802       0.6716E-6     1.011       0.9444E-6     1.013   
   0.2002       0.7462E-6     1.011       0.1049E-5     1.013   
   0.2202       0.8209E-6     1.011       0.1154E-5     1.013   
   0.2402       0.8955E-6     1.011       0.1259E-5     1.013   
   0.2603       0.9702E-6     1.011       0.1364E-5     1.013   
   0.2803       0.1045E-5     1.011       0.1469E-5     1.013   
   0.3003       0.1120E-5     1.011       0.1574E-5     1.013   
   0.3203       0.1194E-5     1.011       0.1679E-5     1.013   
   0.3403       0.1269E-5     1.011       0.1784E-5     1.013   
   0.3604       0.1344E-5     1.011       0.1889E-5     1.013   
   0.3804       0.1418E-5     1.011       0.1995E-5     1.013   
   0.4004       0.1493E-5     1.011       0.2100E-5     1.013   
   0.4204       0.1568E-5     1.011       0.2205E-5     1.013   
   0.4404       0.1643E-5     1.011       0.2310E-5     1.013   
   0.4605       0.1717E-5     1.011       0.2415E-5     1.013   
   0.4805       0.1792E-5     1.011       0.2520E-5     1.013   
   0.5005       0.1867E-5     1.011       0.2626E-5     1.013   
   0.5205       0.1942E-5     1.011       0.2731E-5     1.013   
   0.5405       0.2017E-5     1.011       0.2836E-5     1.013   
   0.5606       0.2091E-5     1.011       0.2942E-5     1.013   
   0.5806       0.2166E-5     1.011       0.3047E-5     1.013   
   0.6006       0.2241E-5     1.011       0.3152E-5     1.013   
   0.6206       0.2316E-5     1.011       0.3258E-5     1.013   
   0.6406       0.2391E-5     1.011       0.3363E-5     1.013   
   0.6607       0.2466E-5     1.011       0.3469E-5     1.013   
   0.6807       0.2541E-5     1.011       0.3574E-5     1.013   
   0.7007       0.2616E-5     1.011       0.3680E-5     1.013   
   0.7207       0.2691E-5     1.011       0.3785E-5     1.013   
   0.7407       0.2766E-5     1.011       0.3891E-5     1.013   
   0.7608       0.2841E-5     1.011       0.3997E-5     1.013   
   0.7808       0.2916E-5     1.011       0.4102E-5     1.013   
   0.8008       0.2991E-5     1.011       0.4208E-5     1.013   
   0.8208       0.3066E-5     1.011       0.4314E-5     1.013   
   0.8408       0.3142E-5     1.011       0.4420E-5     1.013   
   0.8609       0.3217E-5     1.011       0.4526E-5     1.013   
   0.8809       0.3292E-5     1.011       0.4631E-5     1.013   
   0.9009       0.3367E-5     1.011       0.4737E-5     1.013   
   0.9209       0.3442E-5     1.011       0.4843E-5     1.013   
   0.9409       0.3518E-5     1.011       0.4950E-5     1.013   
   0.9610       0.3593E-5     1.011       0.5056E-5     1.013   
   0.9810       0.3668E-5     1.011       0.5162E-5     1.013   
    1.001       0.3744E-5     1.011       0.5268E-5     1.013   
    1.021       0.3819E-5     1.011       0.5374E-5     1.013   
    1.041       0.3895E-5     1.011       0.5481E-5     1.013   
    1.061       0.3970E-5     1.011       0.5587E-5     1.013   
    1.081       0.4046E-5     1.011       0.5694E-5     1.013   
    1.101       0.4121E-5     1.011       0.5800E-5     1.013   
    1.121       0.4197E-5     1.011       0.5907E-5     1.013   
    1.141       0.4273E-5     1.011       0.6013E-5     1.013   
    1.161       0.4348E-5     1.011       0.6120E-5     1.013   
    1.181       0.4424E-5     1.011       0.6227E-5     1.013   
    1.201       0.4500E-5     1.011       0.6334E-5     1.013   
    1.221       0.4575E-5     1.011       0.6440E-5     1.013   
    1.241       0.4651E-5     1.011       0.6547E-5     1.013   
    1.261       0.4727E-5     1.011       0.6654E-5     1.013   
    1.281       0.4803E-5     1.011       0.6762E-5     1.013   
    1.301       0.4879E-5     1.011       0.6869E-5     1.013   
    1.321       0.4955E-5     1.011       0.6976E-5     1.013   
    1.341       0.5031E-5     1.011       0.7083E-5     1.013   
    1.361       0.5107E-5     1.011       0.7191E-5     1.013   
    1.381       0.5183E-5     1.011       0.7298E-5     1.013   
    1.401       0.5259E-5     1.011       0.7406E-5     1.013   
    1.421       0.5336E-5     1.011       0.7513E-5     1.013   
    1.441       0.5412E-5     1.011       0.7621E-5     1.013   
    1.461       0.5488E-5     1.011       0.7729E-5     1.013   
    1.481       0.5565E-5     1.011       0.7837E-5     1.013   
    1.502       0.5641E-5     1.011       0.7944E-5     1.013   
    1.522       0.5717E-5     1.011       0.8052E-5     1.013   
    1.542       0.5794E-5     1.011       0.8161E-5     1.013   
    1.562       0.5870E-5     1.011       0.8269E-5     1.013   
    1.582       0.5947E-5     1.011       0.8377E-5     1.013   
    1.602       0.6024E-5     1.011       0.8485E-5     1.013   
    1.622       0.6100E-5     1.011       0.8594E-5     1.013   
    1.642       0.6177E-5     1.011       0.8702E-5     1.013   
    1.662       0.6254E-5     1.011       0.8811E-5     1.013   
    1.682       0.6331E-5     1.011       0.8920E-5     1.013   
    1.702       0.6408E-5     1.011       0.9028E-5     1.013   
    1.722       0.6485E-5     1.011       0.9137E-5     1.013   
    1.742       0.6562E-5     1.011       0.9246E-5     1.013   
    1.762       0.6639E-5     1.011       0.9355E-5     1.013   
    1.782       0.6716E-5     1.011       0.9465E-5     1.013   
    1.802       0.6793E-5     1.011       0.9574E-5     1.013   
    1.822       0.6871E-5     1.011       0.9683E-5     1.013   
    1.842       0.6948E-5     1.011       0.9793E-5     1.013   
    1.862       0.7025E-5     1.011       0.9902E-5     1.013   
    1.882       0.7103E-5     1.011       0.1001E-4     1.013   
    1.902       0.7180E-5     1.011       0.1012E-4     1.013   
    1.922       0.7258E-5     1.011       0.1023E-4     1.013   
    1.942       0.7335E-5     1.011       0.1034E-4     1.013   
    1.962       0.7413E-5     1.011       0.1045E-4     1.013   
    1.982       0.7491E-5     1.011       0.1056E-4     1.013   
    2.002       0.7569E-5     1.011       0.1067E-4     1.013   
    2.022       0.7647E-5     1.011       0.1078E-4     1.013   
    2.042       0.7725E-5     1.011       0.1089E-4     1.013   
    2.062       0.7803E-5     1.011       0.1100E-4     1.013   
    2.082       0.7881E-5     1.011       0.1111E-4     1.013   
    2.102       0.7959E-5     1.011       0.1123E-4     1.013   
    2.122       0.8037E-5     1.011       0.1134E-4     1.013   
    2.142       0.8115E-5     1.011       0.1145E-4     1.013   
    2.162       0.8194E-5     1.011       0.1156E-4     1.013   
    2.182       0.8272E-5     1.011       0.1167E-4     1.013   
    2.202       0.8351E-5     1.011       0.1178E-4     1.013   
    2.222       0.8429E-5     1.011       0.1189E-4     1.013   
    2.242       0.8508E-5     1.011       0.1201E-4     1.013   
    2.262       0.8587E-5     1.011       0.1212E-4     1.013   
    2.282       0.8666E-5     1.011       0.1223E-4     1.013   
    2.302       0.8745E-5     1.011       0.1234E-4     1.013   
    2.322       0.8824E-5     1.011       0.1245E-4     1.013   
    2.342       0.8903E-5     1.011       0.1257E-4     1.013   
    2.362       0.8982E-5     1.011       0.1268E-4     1.013   
    2.382       0.9061E-5     1.011       0.1279E-4     1.013   
    2.402       0.9140E-5     1.011       0.1290E-4     1.013   
    2.422       0.9220E-5     1.011       0.1302E-4     1.013   
    2.442       0.9299E-5     1.011       0.1313E-4     1.013   
    2.462       0.9379E-5     1.011       0.1324E-4     1.013   
    2.482       0.9458E-5     1.011       0.1336E-4     1.013   
    2.503       0.9538E-5     1.011       0.1347E-4     1.013   
    2.523       0.9618E-5     1.011       0.1358E-4     1.013   
    2.543       0.9698E-5     1.011       0.1370E-4     1.013   
    2.563       0.9778E-5     1.011       0.1381E-4     1.013   
    2.583       0.9858E-5     1.011       0.1393E-4     1.013   
    2.603       0.9938E-5     1.011       0.1404E-4     1.013   
    2.623       0.1002E-4     1.011       0.1415E-4     1.013   
    2.643       0.1010E-4     1.011       0.1427E-4     1.013   
    2.663       0.1018E-4     1.011       0.1438E-4     1.013   
    2.683       0.1026E-4     1.011       0.1450E-4     1.013   
    2.703       0.1034E-4     1.011       0.1461E-4     1.013   
    2.723       0.1042E-4     1.011       0.1473E-4     1.013   
    2.743       0.1050E-4     1.011       0.1484E-4     1.013   
    2.763       0.1058E-4     1.011       0.1496E-4     1.013   
    2.783       0.1066E-4     1.011       0.1508E-4     1.013   
    2.803       0.1074E-4     1.011       0.1519E-4     1.013   
    2.823       0.1083E-4     1.012       0.1531E-4     1.013   
    2.843       0.1091E-4     1.012       0.1542E-4     1.013   
    2.863       0.1099E-4     1.012       0.1554E-4     1.013   
    2.883       0.1107E-4     1.012       0.1566E-4     1.013   
    2.903       0.1115E-4     1.012       0.1577E-4     1.013   
    2.923       0.1123E-4     1.012       0.1589E-4     1.013   
    2.943       0.1131E-4     1.012       0.1601E-4     1.013   
    2.963       0.1140E-4     1.012       0.1612E-4     1.013   
    2.983       0.1148E-4     1.012       0.1624E-4     1.013   
    3.003       0.1156E-4     1.012       0.1636E-4     1.013   
    3.023       0.1164E-4     1.012       0.1648E-4     1.013   
    3.043       0.1172E-4     1.012       0.1659E-4     1.013   
    3.063       0.1181E-4     1.012       0.1671E-4     1.013   
    3.083       0.1189E-4     1.012       0.1683E-4     1.013   
    3.103       0.1197E-4     1.012       0.1695E-4     1.013   
    3.123       0.1206E-4     1.012       0.1707E-4     1.013   
    3.143       0.1214E-4     1.012       0.1719E-4     1.013   
    3.163       0.1222E-4     1.012       0.1730E-4     1.013   
    3.183       0.1230E-4     1.012       0.1742E-4     1.013   
    3.203       0.1239E-4     1.012       0.1754E-4     1.013   
    3.223       0.1247E-4     1.012       0.1766E-4     1.013   
    3.243       0.1255E-4     1.012       0.1778E-4     1.013   
    3.263       0.1264E-4     1.012       0.1790E-4     1.013   
    3.283       0.1272E-4     1.012       0.1802E-4     1.013   
    3.303       0.1280E-4     1.012       0.1814E-4     1.013   
    3.323       0.1289E-4     1.012       0.1826E-4     1.013   
    3.343       0.1297E-4     1.012       0.1838E-4     1.013   
    3.363       0.1306E-4     1.012       0.1851E-4     1.013   
    3.383       0.1314E-4     1.012       0.1863E-4     1.013   
    3.403       0.1322E-4     1.012       0.1875E-4     1.013   
    3.423       0.1331E-4     1.012       0.1887E-4     1.013   
    3.443       0.1339E-4     1.012       0.1899E-4     1.013   
    3.463       0.1348E-4     1.012       0.1911E-4     1.013   
    3.483       0.1356E-4     1.012       0.1924E-4     1.013   
    3.504       0.1365E-4     1.012       0.1936E-4     1.013   
    3.524       0.1373E-4     1.012       0.1948E-4     1.013   
    3.544       0.1382E-4     1.012       0.1960E-4     1.013   
    3.564       0.1390E-4     1.012       0.1973E-4     1.013   
    3.584       0.1399E-4     1.012       0.1985E-4     1.013   
    3.604       0.1407E-4     1.012       0.1997E-4     1.013   
    3.624       0.1416E-4     1.012       0.2010E-4     1.013   
    3.644       0.1425E-4     1.012       0.2022E-4     1.013   
    3.664       0.1433E-4     1.012       0.2034E-4     1.013   
    3.684       0.1442E-4     1.012       0.2047E-4     1.013   
    3.704       0.1450E-4     1.012       0.2059E-4     1.013   
    3.724       0.1459E-4     1.012       0.2072E-4     1.013   
    3.744       0.1468E-4     1.012       0.2084E-4     1.013   
    3.764       0.1476E-4     1.012       0.2097E-4     1.013   
    3.784       0.1485E-4     1.012       0.2109E-4     1.013   
    3.804       0.1494E-4     1.012       0.2122E-4     1.013   
    3.824       0.1502E-4     1.012       0.2135E-4     1.013   
    3.844       0.1511E-4     1.012       0.2147E-4     1.013   
    3.864       0.1520E-4     1.012       0.2160E-4     1.013   
    3.884       0.1529E-4     1.012       0.2173E-4     1.013   
    3.904       0.1537E-4     1.012       0.2185E-4     1.013   
    3.924       0.1546E-4     1.012       0.2198E-4     1.013   
    3.944       0.1555E-4     1.012       0.2211E-4     1.013   
    3.964       0.1564E-4     1.012       0.2223E-4     1.013   
    3.984       0.1573E-4     1.012       0.2236E-4     1.013   
    4.004       0.1581E-4     1.012       0.2249E-4     1.013   
    4.024       0.1590E-4     1.012       0.2262E-4     1.013   
    4.044       0.1599E-4     1.012       0.2275E-4     1.013   
    4.064       0.1608E-4     1.012       0.2288E-4     1.013   
    4.084       0.1617E-4     1.012       0.2301E-4     1.013   
    4.104       0.1626E-4     1.012       0.2314E-4     1.013   
    4.124       0.1635E-4     1.012       0.2327E-4     1.013   
    4.144       0.1644E-4     1.012       0.2340E-4     1.013   
    4.164       0.1653E-4     1.012       0.2353E-4     1.013   
    4.184       0.1662E-4     1.012       0.2366E-4     1.013   
    4.204       0.1671E-4     1.012       0.2379E-4     1.013   
    4.224       0.1680E-4     1.012       0.2392E-4     1.013   
    4.244       0.1689E-4     1.012       0.2405E-4     1.013   
    4.264       0.1698E-4     1.012       0.2418E-4     1.013   
    4.284       0.1707E-4     1.012       0.2431E-4     1.013   
    4.304       0.1716E-4     1.012       0.2445E-4     1.013   
    4.324       0.1725E-4     1.012       0.2458E-4     1.013   
    4.344       0.1734E-4     1.012       0.2471E-4     1.013   
    4.364       0.1743E-4     1.012       0.2485E-4     1.013   
    4.384       0.1752E-4     1.012       0.2498E-4     1.013   
    4.404       0.1761E-4     1.012       0.2511E-4     1.013   
    4.424       0.1771E-4     1.012       0.2525E-4     1.013   
    4.444       0.1780E-4     1.012       0.2538E-4     1.013   
    4.464       0.1789E-4     1.012       0.2552E-4     1.013   
    4.484       0.1798E-4     1.012       0.2565E-4     1.013   
    4.505       0.1807E-4     1.012       0.2579E-4     1.013   
    4.525       0.1817E-4     1.012       0.2592E-4     1.013   
    4.545       0.1826E-4     1.012       0.2606E-4     1.013   
    4.565       0.1835E-4     1.012       0.2619E-4     1.013   
    4.585       0.1845E-4     1.012       0.2633E-4     1.013   
    4.605       0.1854E-4     1.012       0.2647E-4     1.013   
    4.625       0.1863E-4     1.012       0.2660E-4     1.013   
    4.645       0.1873E-4     1.012       0.2674E-4     1.013   
    4.665       0.1882E-4     1.012       0.2688E-4     1.013   
    4.685       0.1891E-4     1.012       0.2702E-4     1.013   
    4.705       0.1901E-4     1.012       0.2715E-4     1.013   
    4.725       0.1910E-4     1.012       0.2729E-4     1.013   
    4.745       0.1920E-4     1.012       0.2743E-4     1.013   
    4.765       0.1929E-4     1.012       0.2757E-4     1.013   
    4.785       0.1939E-4     1.012       0.2771E-4     1.013   
    4.805       0.1948E-4     1.012       0.2785E-4     1.013   
    4.825       0.1958E-4     1.012       0.2799E-4     1.013   
    4.845       0.1967E-4     1.012       0.2813E-4     1.013   
    4.865       0.1977E-4     1.012       0.2827E-4     1.013   
    4.885       0.1986E-4     1.012       0.2841E-4     1.013   
    4.905       0.1996E-4     1.012       0.2856E-4     1.014   
    4.925       0.2006E-4     1.012       0.2870E-4     1.014   
    4.945       0.2015E-4     1.012       0.2884E-4     1.014   
    4.965       0.2025E-4     1.012       0.2898E-4     1.014   
    4.985       0.2035E-4     1.012       0.2913E-4     1.014   
    5.005       0.2044E-4     1.012       0.2927E-4     1.014   
    5.025       0.2054E-4     1.012       0.2941E-4     1.014   
    5.045       0.2064E-4     1.012       0.2956E-4     1.014   
    5.065       0.2074E-4     1.012       0.2970E-4     1.014   
    5.085       0.2083E-4     1.012       0.2985E-4     1.014   
    5.105       0.2093E-4     1.012       0.2999E-4     1.014   
    5.125       0.2103E-4     1.012       0.3014E-4     1.014   
    5.145       0.2113E-4     1.012       0.3028E-4     1.014   
    5.165       0.2123E-4     1.012       0.3043E-4     1.014   
    5.185       0.2133E-4     1.012       0.3057E-4     1.014   
    5.205       0.2143E-4     1.012       0.3072E-4     1.014   
    5.225       0.2153E-4     1.012       0.3087E-4     1.014   
    5.245       0.2163E-4     1.012       0.3102E-4     1.014   
    5.265       0.2173E-4     1.012       0.3117E-4     1.014   
    5.285       0.2183E-4     1.012       0.3131E-4     1.014   
    5.305       0.2193E-4     1.012       0.3146E-4     1.014   
    5.325       0.2203E-4     1.012       0.3161E-4     1.014   
    5.345       0.2213E-4     1.012       0.3176E-4     1.014   
    5.365       0.2223E-4     1.012       0.3191E-4     1.014   
    5.385       0.2233E-4     1.012       0.3206E-4     1.014   
    5.405       0.2243E-4     1.012       0.3221E-4     1.014   
    5.425       0.2253E-4     1.012       0.3236E-4     1.014   
    5.445       0.2263E-4     1.012       0.3252E-4     1.014   
    5.465       0.2274E-4     1.012       0.3267E-4     1.014   
    5.485       0.2284E-4     1.012       0.3282E-4     1.014   
    5.506       0.2294E-4     1.012       0.3297E-4     1.014   
    5.526       0.2304E-4     1.012       0.3313E-4     1.014   
    5.546       0.2315E-4     1.012       0.3328E-4     1.014   
    5.566       0.2325E-4     1.012       0.3343E-4     1.014   
    5.586       0.2335E-4     1.012       0.3359E-4     1.014   
    5.606       0.2346E-4     1.012       0.3374E-4     1.014   
    5.626       0.2356E-4     1.012       0.3390E-4     1.014   
    5.646       0.2367E-4     1.012       0.3406E-4     1.014   
    5.666       0.2377E-4     1.012       0.3421E-4     1.014   
    5.686       0.2387E-4     1.012       0.3437E-4     1.014   
    5.706       0.2398E-4     1.012       0.3453E-4     1.014   
    5.726       0.2409E-4     1.012       0.3468E-4     1.014   
    5.746       0.2419E-4     1.012       0.3484E-4     1.014   
    5.766       0.2430E-4     1.012       0.3500E-4     1.014   
    5.786       0.2440E-4     1.012       0.3516E-4     1.014   
    5.806       0.2451E-4     1.012       0.3532E-4     1.014   
    5.826       0.2462E-4     1.012       0.3548E-4     1.014   
    5.846       0.2472E-4     1.012       0.3564E-4     1.014   
    5.866       0.2483E-4     1.012       0.3580E-4     1.014   
    5.886       0.2494E-4     1.012       0.3596E-4     1.014   
    5.906       0.2504E-4     1.012       0.3612E-4     1.014   
    5.926       0.2515E-4     1.012       0.3628E-4     1.014   
    5.946       0.2526E-4     1.012       0.3645E-4     1.014   
    5.966       0.2537E-4     1.012       0.3661E-4     1.014   
    5.986       0.2548E-4     1.012       0.3677E-4     1.014   
    6.006       0.2559E-4     1.012       0.3694E-4     1.014   
    6.026       0.2569E-4     1.012       0.3710E-4     1.014   
    6.046       0.2580E-4     1.012       0.3727E-4     1.014   
    6.066       0.2591E-4     1.012       0.3743E-4     1.014   
    6.086       0.2602E-4     1.012       0.3760E-4     1.014   
    6.106       0.2613E-4     1.012       0.3777E-4     1.014   
    6.126       0.2624E-4     1.012       0.3793E-4     1.014   
    6.146       0.2636E-4     1.012       0.3810E-4     1.014   
    6.166       0.2647E-4     1.012       0.3827E-4     1.014   
    6.186       0.2658E-4     1.012       0.3844E-4     1.014   
    6.206       0.2669E-4     1.012       0.3861E-4     1.014   
    6.226       0.2680E-4     1.012       0.3878E-4     1.014   
    6.246       0.2691E-4     1.012       0.3895E-4     1.014   
    6.266       0.2703E-4     1.012       0.3912E-4     1.014   
    6.286       0.2714E-4     1.012       0.3929E-4     1.014   
    6.306       0.2725E-4     1.012       0.3946E-4     1.014   
    6.326       0.2737E-4     1.012       0.3963E-4     1.014   
    6.346       0.2748E-4     1.012       0.3980E-4     1.014   
    6.366       0.2759E-4     1.012       0.3998E-4     1.014   
    6.386       0.2771E-4     1.012       0.4015E-4     1.014   
    6.406       0.2782E-4     1.012       0.4033E-4     1.014   
    6.426       0.2794E-4     1.012       0.4050E-4     1.014   
    6.446       0.2805E-4     1.012       0.4068E-4     1.014   
    6.466       0.2817E-4     1.012       0.4085E-4     1.014   
    6.486       0.2829E-4     1.012       0.4103E-4     1.014   
    6.507       0.2840E-4     1.012       0.4121E-4     1.014   
    6.527       0.2852E-4     1.012       0.4138E-4     1.014   
    6.547       0.2863E-4     1.012       0.4156E-4     1.014   
    6.567       0.2875E-4     1.012       0.4174E-4     1.014   
    6.587       0.2887E-4     1.012       0.4192E-4     1.014   
    6.607       0.2899E-4     1.012       0.4210E-4     1.014   
    6.627       0.2911E-4     1.012       0.4228E-4     1.014   
    6.647       0.2922E-4     1.012       0.4246E-4     1.014   
    6.667       0.2934E-4     1.012       0.4264E-4     1.014   
    6.687       0.2946E-4     1.012       0.4283E-4     1.014   
    6.707       0.2958E-4     1.012       0.4301E-4     1.014   
    6.727       0.2970E-4     1.012       0.4319E-4     1.014   
    6.747       0.2982E-4     1.012       0.4338E-4     1.014   
    6.767       0.2994E-4     1.012       0.4356E-4     1.014   
    6.787       0.3006E-4     1.012       0.4375E-4     1.014   
    6.807       0.3018E-4     1.012       0.4393E-4     1.014   
    6.827       0.3031E-4     1.012       0.4412E-4     1.014   
    6.847       0.3043E-4     1.012       0.4431E-4     1.014   
    6.867       0.3055E-4     1.012       0.4449E-4     1.014   
    6.887       0.3067E-4     1.012       0.4468E-4     1.014   
    6.907       0.3079E-4     1.012       0.4487E-4     1.014   
    6.927       0.3092E-4     1.012       0.4506E-4     1.014   
    6.947       0.3104E-4     1.012       0.4525E-4     1.014   
    6.967       0.3117E-4     1.012       0.4544E-4     1.014   
    6.987       0.3129E-4     1.012       0.4563E-4     1.014   
    7.007       0.3141E-4     1.012       0.4583E-4     1.014   
    7.027       0.3154E-4     1.012       0.4602E-4     1.014   
    7.047       0.3167E-4     1.012       0.4621E-4     1.014   
    7.067       0.3179E-4     1.012       0.4641E-4     1.014   
    7.087       0.3192E-4     1.012       0.4660E-4     1.014   
    7.107       0.3204E-4     1.012       0.4680E-4     1.014   
    7.127       0.3217E-4     1.012       0.4699E-4     1.014   
    7.147       0.3230E-4     1.012       0.4719E-4     1.014   
    7.167       0.3243E-4     1.012       0.4739E-4     1.014   
    7.187       0.3255E-4     1.012       0.4759E-4     1.014   
    7.207       0.3268E-4     1.012       0.4779E-4     1.014   
    7.227       0.3281E-4     1.012       0.4799E-4     1.014   
    7.247       0.3294E-4     1.012       0.4819E-4     1.014   
    7.267       0.3307E-4     1.012       0.4839E-4     1.014   
    7.287       0.3320E-4     1.012       0.4859E-4     1.014   
    7.307       0.3333E-4     1.012       0.4879E-4     1.014   
    7.327       0.3346E-4     1.012       0.4899E-4     1.014   
    7.347       0.3359E-4     1.012       0.4920E-4     1.014   
    7.367       0.3372E-4     1.012       0.4940E-4     1.014   
    7.387       0.3386E-4     1.012       0.4961E-4     1.014   
    7.407       0.3399E-4     1.012       0.4982E-4     1.014   
    7.427       0.3412E-4     1.012       0.5002E-4     1.014   
    7.447       0.3425E-4     1.012       0.5023E-4     1.014   
    7.467       0.3439E-4     1.013       0.5044E-4     1.014   
    7.487       0.3452E-4     1.013       0.5065E-4     1.015   
    7.508       0.3466E-4     1.013       0.5086E-4     1.015   
    7.528       0.3479E-4     1.013       0.5107E-4     1.015   
    7.548       0.3493E-4     1.013       0.5128E-4     1.015   
    7.568       0.3506E-4     1.013       0.5149E-4     1.015   
    7.588       0.3520E-4     1.013       0.5171E-4     1.015   
    7.608       0.3533E-4     1.013       0.5192E-4     1.015   
    7.628       0.3547E-4     1.013       0.5213E-4     1.015   
    7.648       0.3561E-4     1.013       0.5235E-4     1.015   
    7.668       0.3575E-4     1.013       0.5257E-4     1.015   
    7.688       0.3589E-4     1.013       0.5278E-4     1.015   
    7.708       0.3602E-4     1.013       0.5300E-4     1.015   
    7.728       0.3616E-4     1.013       0.5322E-4     1.015   
    7.748       0.3630E-4     1.013       0.5344E-4     1.015   
    7.768       0.3644E-4     1.013       0.5366E-4     1.015   
    7.788       0.3658E-4     1.013       0.5388E-4     1.015   
    7.808       0.3673E-4     1.013       0.5410E-4     1.015   
    7.828       0.3687E-4     1.013       0.5433E-4     1.015   
    7.848       0.3701E-4     1.013       0.5455E-4     1.015   
    7.868       0.3715E-4     1.013       0.5477E-4     1.015   
    7.888       0.3729E-4     1.013       0.5500E-4     1.015   
    7.908       0.3744E-4     1.013       0.5523E-4     1.015   
    7.928       0.3758E-4     1.013       0.5545E-4     1.015   
    7.948       0.3773E-4     1.013       0.5568E-4     1.015   
    7.968       0.3787E-4     1.013       0.5591E-4     1.015   
    7.988       0.3802E-4     1.013       0.5614E-4     1.015   
    8.008       0.3816E-4     1.013       0.5637E-4     1.015   
    8.028       0.3831E-4     1.013       0.5660E-4     1.015   
    8.048       0.3845E-4     1.013       0.5684E-4     1.015   
    8.068       0.3860E-4     1.013       0.5707E-4     1.015   
    8.088       0.3875E-4     1.013       0.5730E-4     1.015   
    8.108       0.3890E-4     1.013       0.5754E-4     1.015   
    8.128       0.3905E-4     1.013       0.5777E-4     1.015   
    8.148       0.3920E-4     1.013       0.5801E-4     1.015   
    8.168       0.3935E-4     1.013       0.5825E-4     1.015   
    8.188       0.3950E-4     1.013       0.5849E-4     1.015   
    8.208       0.3965E-4     1.013       0.5873E-4     1.015   
    8.228       0.3980E-4     1.013       0.5897E-4     1.015   
    8.248       0.3995E-4     1.013       0.5921E-4     1.015   
    8.268       0.4010E-4     1.013       0.5946E-4     1.015   
    8.288       0.4025E-4     1.013       0.5970E-4     1.015   
    8.308       0.4041E-4     1.013       0.5994E-4     1.015   
    8.328       0.4056E-4     1.013       0.6019E-4     1.015   
    8.348       0.4072E-4     1.013       0.6044E-4     1.015   
    8.368       0.4087E-4     1.013       0.6069E-4     1.015   
    8.388       0.4103E-4     1.013       0.6093E-4     1.015   
    8.408       0.4118E-4     1.013       0.6118E-4     1.015   
    8.428       0.4134E-4     1.013       0.6144E-4     1.015   
    8.448       0.4150E-4     1.013       0.6169E-4     1.015   
    8.468       0.4165E-4     1.013       0.6194E-4     1.015   
    8.488       0.4181E-4     1.013       0.6219E-4     1.015   
    8.509       0.4197E-4     1.013       0.6245E-4     1.015   
    8.529       0.4213E-4     1.013       0.6271E-4     1.015   
    8.549       0.4229E-4     1.013       0.6296E-4     1.015   
    8.569       0.4245E-4     1.013       0.6322E-4     1.015   
    8.589       0.4261E-4     1.013       0.6348E-4     1.015   
    8.609       0.4278E-4     1.013       0.6374E-4     1.015   
    8.629       0.4294E-4     1.013       0.6400E-4     1.015   
    8.649       0.4310E-4     1.013       0.6427E-4     1.015   
    8.669       0.4326E-4     1.013       0.6453E-4     1.015   
    8.689       0.4343E-4     1.013       0.6480E-4     1.015   
    8.709       0.4359E-4     1.013       0.6506E-4     1.015   
    8.729       0.4376E-4     1.013       0.6533E-4     1.015   
    8.749       0.4392E-4     1.013       0.6560E-4     1.015   
    8.769       0.4409E-4     1.013       0.6587E-4     1.015   
    8.789       0.4426E-4     1.013       0.6614E-4     1.015   
    8.809       0.4443E-4     1.013       0.6641E-4     1.015   
    8.829       0.4459E-4     1.013       0.6668E-4     1.015   
    8.849       0.4476E-4     1.013       0.6696E-4     1.015   
    8.869       0.4493E-4     1.013       0.6723E-4     1.015   
    8.889       0.4510E-4     1.013       0.6751E-4     1.015   
    8.909       0.4527E-4     1.013       0.6779E-4     1.015   
    8.929       0.4545E-4     1.013       0.6807E-4     1.015   
    8.949       0.4562E-4     1.013       0.6835E-4     1.015   
    8.969       0.4579E-4     1.013       0.6863E-4     1.015   
    8.989       0.4596E-4     1.013       0.6891E-4     1.015   
    9.009       0.4614E-4     1.013       0.6919E-4     1.015   
    9.029       0.4631E-4     1.013       0.6948E-4     1.015   
    9.049       0.4649E-4     1.013       0.6977E-4     1.015   
    9.069       0.4666E-4     1.013       0.7005E-4     1.015   
    9.089       0.4684E-4     1.013       0.7034E-4     1.015   
    9.109       0.4702E-4     1.013       0.7063E-4     1.015   
    9.129       0.4720E-4     1.013       0.7092E-4     1.015   
    9.149       0.4738E-4     1.013       0.7122E-4     1.016   
    9.169       0.4756E-4     1.013       0.7151E-4     1.016   
    9.189       0.4774E-4     1.013       0.7181E-4     1.016   
    9.209       0.4792E-4     1.013       0.7210E-4     1.016   
    9.229       0.4810E-4     1.013       0.7240E-4     1.016   
    9.249       0.4828E-4     1.013       0.7270E-4     1.016   
    9.269       0.4846E-4     1.013       0.7300E-4     1.016   
    9.289       0.4865E-4     1.013       0.7331E-4     1.016   
    9.309       0.4883E-4     1.013       0.7361E-4     1.016   
    9.329       0.4902E-4     1.013       0.7392E-4     1.016   
    9.349       0.4920E-4     1.013       0.7422E-4     1.016   
    9.369       0.4939E-4     1.013       0.7453E-4     1.016   
    9.389       0.4958E-4     1.013       0.7484E-4     1.016   
    9.409       0.4977E-4     1.013       0.7515E-4     1.016   
    9.429       0.4996E-4     1.013       0.7546E-4     1.016   
    9.449       0.5015E-4     1.013       0.7578E-4     1.016   
    9.469       0.5034E-4     1.013       0.7609E-4     1.016   
    9.489       0.5053E-4     1.013       0.7641E-4     1.016   
    9.510       0.5072E-4     1.013       0.7673E-4     1.016   
    9.530       0.5091E-4     1.013       0.7705E-4     1.016   
    9.550       0.5111E-4     1.013       0.7737E-4     1.016   
    9.570       0.5130E-4     1.013       0.7769E-4     1.016   
    9.590       0.5150E-4     1.013       0.7801E-4     1.016   
    9.610       0.5169E-4     1.013       0.7834E-4     1.016   
    9.630       0.5189E-4     1.013       0.7867E-4     1.016   
    9.650       0.5209E-4     1.013       0.7900E-4     1.016   
    9.670       0.5228E-4     1.013       0.7933E-4     1.016   
    9.690       0.5248E-4     1.013       0.7966E-4     1.016   
    9.710       0.5268E-4     1.013       0.7999E-4     1.016   
    9.730       0.5288E-4     1.013       0.8033E-4     1.016   
    9.750       0.5309E-4     1.013       0.8066E-4     1.016   
    9.770       0.5329E-4     1.013       0.8100E-4     1.016   
    9.790       0.5349E-4     1.014       0.8134E-4     1.016   
    9.810       0.5370E-4     1.014       0.8169E-4     1.016   
    9.830       0.5390E-4     1.014       0.8203E-4     1.016   
    9.850       0.5411E-4     1.014       0.8237E-4     1.016   
    9.870       0.5431E-4     1.014       0.8272E-4     1.016   
    9.890       0.5452E-4     1.014       0.8307E-4     1.016   
    9.910       0.5473E-4     1.014       0.8342E-4     1.016   
    9.930       0.5494E-4     1.014       0.8377E-4     1.016   
    9.950       0.5515E-4     1.014       0.8413E-4     1.016   
    9.970       0.5536E-4     1.014       0.8448E-4     1.016   
    9.990       0.5557E-4     1.014       0.8484E-4     1.016   
    10.01       0.5579E-4     1.014       0.8520E-4     1.016   
    10.03       0.5600E-4     1.014       0.8556E-4     1.016   
    10.05       0.5622E-4     1.014       0.8592E-4     1.016   
    10.07       0.5643E-4     1.014       0.8628E-4     1.016   
    10.09       0.5665E-4     1.014       0.8665E-4     1.016   
    10.11       0.5687E-4     1.014       0.8702E-4     1.016   
    10.13       0.5708E-4     1.014       0.8739E-4     1.016   
    10.15       0.5730E-4     1.014       0.8776E-4     1.016   
    10.17       0.5752E-4     1.014       0.8813E-4     1.016   
    10.19       0.5775E-4     1.014       0.8851E-4     1.016   
    10.21       0.5797E-4     1.014       0.8889E-4     1.016   
    10.23       0.5819E-4     1.014       0.8927E-4     1.016   
    10.25       0.5842E-4     1.014       0.8965E-4     1.016   
    10.27       0.5864E-4     1.014       0.9003E-4     1.016   
    10.29       0.5887E-4     1.014       0.9042E-4     1.016   
    10.31       0.5910E-4     1.014       0.9081E-4     1.016   
    10.33       0.5932E-4     1.014       0.9119E-4     1.016   
    10.35       0.5955E-4     1.014       0.9159E-4     1.016   
    10.37       0.5978E-4     1.014       0.9198E-4     1.017   
    10.39       0.6002E-4     1.014       0.9238E-4     1.017   
    10.41       0.6025E-4     1.014       0.9277E-4     1.017   
    10.43       0.6048E-4     1.014       0.9317E-4     1.017   
    10.45       0.6072E-4     1.014       0.9357E-4     1.017   
    10.47       0.6095E-4     1.014       0.9398E-4     1.017   
    10.49       0.6119E-4     1.014       0.9438E-4     1.017   
    10.51       0.6143E-4     1.014       0.9479E-4     1.017   
    10.53       0.6167E-4     1.014       0.9520E-4     1.017   
    10.55       0.6191E-4     1.014       0.9562E-4     1.017   
    10.57       0.6215E-4     1.014       0.9603E-4     1.017   
    10.59       0.6239E-4     1.014       0.9645E-4     1.017   
    10.61       0.6263E-4     1.014       0.9687E-4     1.017   
    10.63       0.6288E-4     1.014       0.9729E-4     1.017   
    10.65       0.6312E-4     1.014       0.9771E-4     1.017   
    10.67       0.6337E-4     1.014       0.9814E-4     1.017   
    10.69       0.6362E-4     1.014       0.9857E-4     1.017   
    10.71       0.6387E-4     1.014       0.9900E-4     1.017   
    10.73       0.6412E-4     1.014       0.9943E-4     1.017   
    10.75       0.6437E-4     1.014       0.9986E-4     1.017   
    10.77       0.6462E-4     1.014       0.1003E-3     1.017   
    10.79       0.6487E-4     1.014       0.1007E-3     1.017   
    10.81       0.6513E-4     1.014       0.1012E-3     1.017   
    10.83       0.6539E-4     1.014       0.1016E-3     1.017   
    10.85       0.6564E-4     1.014       0.1021E-3     1.017   
    10.87       0.6590E-4     1.014       0.1025E-3     1.017   
    10.89       0.6616E-4     1.014       0.1030E-3     1.017   
    10.91       0.6642E-4     1.014       0.1034E-3     1.017   
    10.93       0.6668E-4     1.014       0.1039E-3     1.017   
    10.95       0.6695E-4     1.014       0.1044E-3     1.017   
    10.97       0.6721E-4     1.014       0.1048E-3     1.017   
    10.99       0.6748E-4     1.014       0.1053E-3     1.017   
    11.01       0.6775E-4     1.014       0.1057E-3     1.017   
    11.03       0.6802E-4     1.014       0.1062E-3     1.017   
    11.05       0.6829E-4     1.014       0.1067E-3     1.017   
    11.07       0.6856E-4     1.014       0.1072E-3     1.017   
    11.09       0.6883E-4     1.014       0.1076E-3     1.017   
    11.11       0.6910E-4     1.014       0.1081E-3     1.017   
    11.13       0.6938E-4     1.014       0.1086E-3     1.017   
    11.15       0.6966E-4     1.014       0.1091E-3     1.017   
    11.17       0.6993E-4     1.014       0.1096E-3     1.017   
    11.19       0.7021E-4     1.014       0.1101E-3     1.017   
    11.21       0.7049E-4     1.014       0.1106E-3     1.017   
    11.23       0.7078E-4     1.014       0.1111E-3     1.017   
    11.25       0.7106E-4     1.014       0.1116E-3     1.017   
    11.27       0.7135E-4     1.014       0.1121E-3     1.017   
    11.29       0.7163E-4     1.014       0.1126E-3     1.017   
    11.31       0.7192E-4     1.014       0.1131E-3     1.017   
    11.33       0.7221E-4     1.014       0.1136E-3     1.017   
    11.35       0.7250E-4     1.014       0.1141E-3     1.018   
    11.37       0.7279E-4     1.014       0.1146E-3     1.018   
    11.39       0.7309E-4     1.015       0.1152E-3     1.018   
    11.41       0.7338E-4     1.015       0.1157E-3     1.018   
    11.43       0.7368E-4     1.015       0.1162E-3     1.018   
    11.45       0.7398E-4     1.015       0.1167E-3     1.018   
    11.47       0.7428E-4     1.015       0.1173E-3     1.018   
    11.49       0.7458E-4     1.015       0.1178E-3     1.018   
    11.51       0.7488E-4     1.015       0.1184E-3     1.018   
    11.53       0.7518E-4     1.015       0.1189E-3     1.018   
    11.55       0.7549E-4     1.015       0.1194E-3     1.018   
    11.57       0.7580E-4     1.015       0.1200E-3     1.018   
    11.59       0.7611E-4     1.015       0.1206E-3     1.018   
    11.61       0.7642E-4     1.015       0.1211E-3     1.018   
    11.63       0.7673E-4     1.015       0.1217E-3     1.018   
    11.65       0.7705E-4     1.015       0.1222E-3     1.018   
    11.67       0.7736E-4     1.015       0.1228E-3     1.018   
    11.69       0.7768E-4     1.015       0.1234E-3     1.018   
    11.71       0.7800E-4     1.015       0.1239E-3     1.018   
    11.73       0.7832E-4     1.015       0.1245E-3     1.018   
    11.75       0.7864E-4     1.015       0.1251E-3     1.018   
    11.77       0.7896E-4     1.015       0.1257E-3     1.018   
    11.79       0.7929E-4     1.015       0.1263E-3     1.018   
    11.81       0.7962E-4     1.015       0.1269E-3     1.018   
    11.83       0.7995E-4     1.015       0.1275E-3     1.018   
    11.85       0.8028E-4     1.015       0.1281E-3     1.018   
    11.87       0.8061E-4     1.015       0.1287E-3     1.018   
    11.89       0.8095E-4     1.015       0.1293E-3     1.018   
    11.91       0.8128E-4     1.015       0.1299E-3     1.018   
    11.93       0.8162E-4     1.015       0.1305E-3     1.018   
    11.95       0.8196E-4     1.015       0.1311E-3     1.018   
    11.97       0.8230E-4     1.015       0.1318E-3     1.018   
    11.99       0.8265E-4     1.015       0.1324E-3     1.018   
    12.01       0.8299E-4     1.015       0.1330E-3     1.018   
    12.03       0.8334E-4     1.015       0.1336E-3     1.018   
    12.05       0.8369E-4     1.015       0.1343E-3     1.018   
    12.07       0.8404E-4     1.015       0.1349E-3     1.018   
    12.09       0.8440E-4     1.015       0.1356E-3     1.018   
    12.11       0.8475E-4     1.015       0.1362E-3     1.018   
    12.13       0.8511E-4     1.015       0.1369E-3     1.018   
    12.15       0.8547E-4     1.015       0.1375E-3     1.019   
    12.17       0.8583E-4     1.015       0.1382E-3     1.019   
    12.19       0.8619E-4     1.015       0.1389E-3     1.019   
    12.21       0.8656E-4     1.015       0.1396E-3     1.019   
    12.23       0.8693E-4     1.015       0.1402E-3     1.019   
    12.25       0.8730E-4     1.015       0.1409E-3     1.019   
    12.27       0.8767E-4     1.015       0.1416E-3     1.019   
    12.29       0.8804E-4     1.015       0.1423E-3     1.019   
    12.31       0.8842E-4     1.015       0.1430E-3     1.019   
    12.33       0.8880E-4     1.015       0.1437E-3     1.019   
    12.35       0.8918E-4     1.015       0.1444E-3     1.019   
    12.37       0.8956E-4     1.015       0.1451E-3     1.019   
    12.39       0.8994E-4     1.015       0.1458E-3     1.019   
    12.41       0.9033E-4     1.015       0.1465E-3     1.019   
    12.43       0.9072E-4     1.015       0.1473E-3     1.019   
    12.45       0.9111E-4     1.015       0.1480E-3     1.019   
    12.47       0.9151E-4     1.015       0.1487E-3     1.019   
    12.49       0.9190E-4     1.015       0.1495E-3     1.019   
    12.51       0.9230E-4     1.015       0.1502E-3     1.019   
    12.53       0.9270E-4     1.015       0.1510E-3     1.019   
    12.55       0.9310E-4     1.015       0.1517E-3     1.019   
    12.57       0.9351E-4     1.015       0.1525E-3     1.019   
    12.59       0.9392E-4     1.016       0.1532E-3     1.019   
    12.61       0.9433E-4     1.016       0.1540E-3     1.019   
    12.63       0.9474E-4     1.016       0.1548E-3     1.019   
    12.65       0.9515E-4     1.016       0.1556E-3     1.019   
    12.67       0.9557E-4     1.016       0.1563E-3     1.019   
    12.69       0.9599E-4     1.016       0.1571E-3     1.019   
    12.71       0.9641E-4     1.016       0.1579E-3     1.019   
    12.73       0.9684E-4     1.016       0.1587E-3     1.019   
    12.75       0.9727E-4     1.016       0.1595E-3     1.019   
    12.77       0.9770E-4     1.016       0.1604E-3     1.019   
    12.79       0.9813E-4     1.016       0.1612E-3     1.019   
    12.81       0.9857E-4     1.016       0.1620E-3     1.019   
    12.83       0.9901E-4     1.016       0.1628E-3     1.020   
    12.85       0.9945E-4     1.016       0.1637E-3     1.020   
    12.87       0.9989E-4     1.016       0.1645E-3     1.020   
    12.89       0.1003E-3     1.016       0.1654E-3     1.020   
    12.91       0.1008E-3     1.016       0.1662E-3     1.020   
    12.93       0.1012E-3     1.016       0.1671E-3     1.020   
    12.95       0.1017E-3     1.016       0.1680E-3     1.020   
    12.97       0.1021E-3     1.016       0.1688E-3     1.020   
    12.99       0.1026E-3     1.016       0.1697E-3     1.020   
    13.01       0.1031E-3     1.016       0.1706E-3     1.020   
    13.03       0.1035E-3     1.016       0.1715E-3     1.020   
    13.05       0.1040E-3     1.016       0.1724E-3     1.020   
    13.07       0.1045E-3     1.016       0.1733E-3     1.020   
    13.09       0.1050E-3     1.016       0.1742E-3     1.020   
    13.11       0.1054E-3     1.016       0.1751E-3     1.020   
    13.13       0.1059E-3     1.016       0.1761E-3     1.020   
    13.15       0.1064E-3     1.016       0.1770E-3     1.020   
    13.17       0.1069E-3     1.016       0.1780E-3     1.020   
    13.19       0.1074E-3     1.016       0.1789E-3     1.020   
    13.21       0.1079E-3     1.016       0.1799E-3     1.020   
    13.23       0.1084E-3     1.016       0.1808E-3     1.020   
    13.25       0.1089E-3     1.016       0.1818E-3     1.020   
    13.27       0.1094E-3     1.016       0.1828E-3     1.020   
    13.29       0.1099E-3     1.016       0.1838E-3     1.020   
    13.31       0.1104E-3     1.016       0.1847E-3     1.020   
    13.33       0.1109E-3     1.016       0.1858E-3     1.020   
    13.35       0.1114E-3     1.016       0.1868E-3     1.020   
    13.37       0.1119E-3     1.016       0.1878E-3     1.020   
    13.39       0.1125E-3     1.016       0.1888E-3     1.021   
    13.41       0.1130E-3     1.016       0.1898E-3     1.021   
    13.43       0.1135E-3     1.016       0.1909E-3     1.021   
    13.45       0.1141E-3     1.016       0.1919E-3     1.021   
    13.47       0.1146E-3     1.016       0.1930E-3     1.021   
    13.49       0.1151E-3     1.016       0.1940E-3     1.021   
    13.51       0.1157E-3     1.016       0.1951E-3     1.021   
    13.53       0.1162E-3     1.016       0.1962E-3     1.021   
    13.55       0.1168E-3     1.017       0.1973E-3     1.021   
    13.57       0.1173E-3     1.017       0.1984E-3     1.021   
    13.59       0.1179E-3     1.017       0.1995E-3     1.021   
    13.61       0.1185E-3     1.017       0.2006E-3     1.021   
    13.63       0.1190E-3     1.017       0.2017E-3     1.021   
    13.65       0.1196E-3     1.017       0.2029E-3     1.021   
    13.67       0.1202E-3     1.017       0.2040E-3     1.021   
    13.69       0.1207E-3     1.017       0.2052E-3     1.021   
    13.71       0.1213E-3     1.017       0.2063E-3     1.021   
    13.73       0.1219E-3     1.017       0.2075E-3     1.021   
    13.75       0.1225E-3     1.017       0.2087E-3     1.021   
    13.77       0.1231E-3     1.017       0.2099E-3     1.021   
    13.79       0.1237E-3     1.017       0.2111E-3     1.021   
    13.81       0.1243E-3     1.017       0.2123E-3     1.021   
    13.83       0.1249E-3     1.017       0.2135E-3     1.021   
    13.85       0.1255E-3     1.017       0.2148E-3     1.021   
    13.87       0.1261E-3     1.017       0.2160E-3     1.021   
    13.89       0.1268E-3     1.017       0.2172E-3     1.022   
    13.91       0.1274E-3     1.017       0.2185E-3     1.022   
    13.93       0.1280E-3     1.017       0.2198E-3     1.022   
    13.95       0.1287E-3     1.017       0.2211E-3     1.022   
    13.97       0.1293E-3     1.017       0.2224E-3     1.022   
    13.99       0.1299E-3     1.017       0.2237E-3     1.022   
    14.01       0.1306E-3     1.017       0.2250E-3     1.022   
    14.03       0.1312E-3     1.017       0.2263E-3     1.022   
    14.05       0.1319E-3     1.017       0.2277E-3     1.022   
    14.07       0.1326E-3     1.017       0.2290E-3     1.022   
    14.09       0.1332E-3     1.017       0.2304E-3     1.022   
    14.11       0.1339E-3     1.017       0.2317E-3     1.022   
    14.13       0.1346E-3     1.017       0.2331E-3     1.022   
    14.15       0.1353E-3     1.017       0.2345E-3     1.022   
    14.17       0.1360E-3     1.017       0.2359E-3     1.022   
    14.19       0.1366E-3     1.017       0.2374E-3     1.022   
    14.21       0.1373E-3     1.017       0.2388E-3     1.022   
    14.23       0.1380E-3     1.017       0.2403E-3     1.022   
    14.25       0.1388E-3     1.017       0.2417E-3     1.022   
    14.27       0.1395E-3     1.017       0.2432E-3     1.022   
    14.29       0.1402E-3     1.017       0.2447E-3     1.022   
    14.31       0.1409E-3     1.017       0.2462E-3     1.022   
    14.33       0.1416E-3     1.018       0.2477E-3     1.023   
    14.35       0.1424E-3     1.018       0.2492E-3     1.023   
    14.37       0.1431E-3     1.018       0.2508E-3     1.023   
    14.39       0.1439E-3     1.018       0.2523E-3     1.023   
    14.41       0.1446E-3     1.018       0.2539E-3     1.023   
    14.43       0.1454E-3     1.018       0.2555E-3     1.023   
    14.45       0.1461E-3     1.018       0.2571E-3     1.023   
    14.47       0.1469E-3     1.018       0.2587E-3     1.023   
    14.49       0.1477E-3     1.018       0.2603E-3     1.023   
    14.51       0.1485E-3     1.018       0.2620E-3     1.023   
    14.53       0.1493E-3     1.018       0.2636E-3     1.023   
    14.55       0.1501E-3     1.018       0.2653E-3     1.023   
    14.57       0.1509E-3     1.018       0.2670E-3     1.023   
    14.59       0.1517E-3     1.018       0.2687E-3     1.023   
    14.61       0.1525E-3     1.018       0.2704E-3     1.023   
    14.63       0.1533E-3     1.018       0.2722E-3     1.023   
    14.65       0.1541E-3     1.018       0.2739E-3     1.023   
    14.67       0.1550E-3     1.018       0.2757E-3     1.023   
    14.69       0.1558E-3     1.018       0.2775E-3     1.023   
    14.71       0.1567E-3     1.018       0.2793E-3     1.024   
    14.73       0.1575E-3     1.018       0.2811E-3     1.024   
    14.75       0.1584E-3     1.018       0.2830E-3     1.024   
    14.77       0.1593E-3     1.018       0.2848E-3     1.024   
    14.79       0.1601E-3     1.018       0.2867E-3     1.024   
    14.81       0.1610E-3     1.018       0.2886E-3     1.024   
    14.83       0.1619E-3     1.018       0.2905E-3     1.024   
    14.85       0.1628E-3     1.018       0.2925E-3     1.024   
    14.87       0.1637E-3     1.018       0.2944E-3     1.024   
    14.89       0.1646E-3     1.018       0.2964E-3     1.024   
    14.91       0.1655E-3     1.018       0.2984E-3     1.024   
    14.93       0.1665E-3     1.018       0.3004E-3     1.024   
    14.95       0.1674E-3     1.018       0.3025E-3     1.024   
    14.97       0.1684E-3     1.019       0.3045E-3     1.024   
    14.99       0.1693E-3     1.019       0.3066E-3     1.024   
    15.02       0.1703E-3     1.019       0.3087E-3     1.024   
    15.04       0.1712E-3     1.019       0.3108E-3     1.024   
    15.06       0.1722E-3     1.019       0.3129E-3     1.025   
    15.08       0.1732E-3     1.019       0.3151E-3     1.025   
    15.10       0.1742E-3     1.019       0.3173E-3     1.025   
    15.12       0.1752E-3     1.019       0.3195E-3     1.025   
    15.14       0.1762E-3     1.019       0.3217E-3     1.025   
    15.16       0.1772E-3     1.019       0.3240E-3     1.025   
    15.18       0.1783E-3     1.019       0.3263E-3     1.025   
    15.20       0.1793E-3     1.019       0.3286E-3     1.025   
    15.22       0.1804E-3     1.019       0.3309E-3     1.025   
    15.24       0.1814E-3     1.019       0.3332E-3     1.025   
    15.26       0.1825E-3     1.019       0.3356E-3     1.025   
    15.28       0.1836E-3     1.019       0.3380E-3     1.025   
    15.30       0.1846E-3     1.019       0.3404E-3     1.025   
    15.32       0.1857E-3     1.019       0.3429E-3     1.025   
    15.34       0.1868E-3     1.019       0.3454E-3     1.025   
    15.36       0.1880E-3     1.019       0.3479E-3     1.026   
    15.38       0.1891E-3     1.019       0.3504E-3     1.026   
    15.40       0.1902E-3     1.019       0.3530E-3     1.026   
    15.42       0.1914E-3     1.019       0.3556E-3     1.026   
    15.44       0.1925E-3     1.019       0.3582E-3     1.026   
    15.46       0.1937E-3     1.019       0.3608E-3     1.026   
    15.48       0.1949E-3     1.019       0.3635E-3     1.026   
    15.50       0.1961E-3     1.019       0.3662E-3     1.026   
    15.52       0.1973E-3     1.019       0.3690E-3     1.026   
    15.54       0.1985E-3     1.020       0.3717E-3     1.026   
    15.56       0.1997E-3     1.020       0.3745E-3     1.026   
    15.58       0.2010E-3     1.020       0.3774E-3     1.026   
    15.60       0.2022E-3     1.020       0.3802E-3     1.026   
    15.62       0.2035E-3     1.020       0.3831E-3     1.026   
    15.64       0.2047E-3     1.020       0.3861E-3     1.027   
    15.66       0.2060E-3     1.020       0.3890E-3     1.027   
    15.68       0.2073E-3     1.020       0.3920E-3     1.027   
    15.70       0.2086E-3     1.020       0.3951E-3     1.027   
    15.72       0.2100E-3     1.020       0.3981E-3     1.027   
    15.74       0.2113E-3     1.020       0.4012E-3     1.027   
    15.76       0.2127E-3     1.020       0.4044E-3     1.027   
    15.78       0.2140E-3     1.020       0.4076E-3     1.027   
    15.80       0.2154E-3     1.020       0.4108E-3     1.027   
    15.82       0.2168E-3     1.020       0.4141E-3     1.027   
    15.84       0.2182E-3     1.020       0.4174E-3     1.027   
    15.86       0.2196E-3     1.020       0.4207E-3     1.027   
    15.88       0.2210E-3     1.020       0.4241E-3     1.028   
    15.90       0.2225E-3     1.020       0.4275E-3     1.028   
    15.92       0.2240E-3     1.020       0.4310E-3     1.028   
    15.94       0.2254E-3     1.020       0.4345E-3     1.028   
    15.96       0.2269E-3     1.020       0.4380E-3     1.028   
    15.98       0.2284E-3     1.020       0.4416E-3     1.028   
    16.00       0.2300E-3     1.021       0.4452E-3     1.028   
    16.02       0.2315E-3     1.021       0.4489E-3     1.028   
    16.04       0.2331E-3     1.021       0.4527E-3     1.028   
    16.06       0.2346E-3     1.021       0.4564E-3     1.028   
    16.08       0.2362E-3     1.021       0.4603E-3     1.028   
    16.10       0.2378E-3     1.021       0.4641E-3     1.029   
    16.12       0.2395E-3     1.021       0.4681E-3     1.029   
    16.14       0.2411E-3     1.021       0.4720E-3     1.029   
    16.16       0.2428E-3     1.021       0.4761E-3     1.029   
    16.18       0.2444E-3     1.021       0.4801E-3     1.029   
    16.20       0.2461E-3     1.021       0.4843E-3     1.029   
    16.22       0.2478E-3     1.021       0.4885E-3     1.029   
    16.24       0.2496E-3     1.021       0.4927E-3     1.029   
    16.26       0.2513E-3     1.021       0.4970E-3     1.029   
    16.28       0.2531E-3     1.021       0.5014E-3     1.029   
    16.30       0.2549E-3     1.021       0.5058E-3     1.029   
    16.32       0.2567E-3     1.021       0.5103E-3     1.030   
    16.34       0.2585E-3     1.021       0.5148E-3     1.030   
    16.36       0.2604E-3     1.021       0.5194E-3     1.030   
    16.38       0.2623E-3     1.021       0.5241E-3     1.030   
    16.40       0.2642E-3     1.022       0.5288E-3     1.030   
    16.42       0.2661E-3     1.022       0.5336E-3     1.030   
    16.44       0.2680E-3     1.022       0.5385E-3     1.030   
    16.46       0.2700E-3     1.022       0.5434E-3     1.030   
    16.48       0.2720E-3     1.022       0.5484E-3     1.030   
    16.50       0.2740E-3     1.022       0.5534E-3     1.031   
    16.52       0.2760E-3     1.022       0.5586E-3     1.031   
    16.54       0.2780E-3     1.022       0.5638E-3     1.031   
    16.56       0.2801E-3     1.022       0.5691E-3     1.031   
    16.58       0.2822E-3     1.022       0.5745E-3     1.031   
    16.60       0.2844E-3     1.022       0.5799E-3     1.031   
    16.62       0.2865E-3     1.022       0.5854E-3     1.031   
    16.64       0.2887E-3     1.022       0.5910E-3     1.031   
    16.66       0.2909E-3     1.022       0.5967E-3     1.031   
    16.68       0.2931E-3     1.022       0.6025E-3     1.032   
    16.70       0.2954E-3     1.022       0.6084E-3     1.032   
    16.72       0.2977E-3     1.022       0.6143E-3     1.032   
    16.74       0.3000E-3     1.022       0.6203E-3     1.032   
    16.76       0.3023E-3     1.023       0.6265E-3     1.032   
    16.78       0.3047E-3     1.023       0.6327E-3     1.032   
    16.80       0.3071E-3     1.023       0.6390E-3     1.032   
    16.82       0.3096E-3     1.023       0.6454E-3     1.032   
    16.84       0.3120E-3     1.023       0.6519E-3     1.033   
    16.86       0.3145E-3     1.023       0.6586E-3     1.033   
    16.88       0.3171E-3     1.023       0.6653E-3     1.033   
    16.90       0.3196E-3     1.023       0.6721E-3     1.033   
    16.92       0.3222E-3     1.023       0.6791E-3     1.033   
    16.94       0.3248E-3     1.023       0.6861E-3     1.033   
    16.96       0.3275E-3     1.023       0.6933E-3     1.033   
    16.98       0.3302E-3     1.023       0.7005E-3     1.034   
    17.00       0.3330E-3     1.023       0.7079E-3     1.034   
    17.02       0.3357E-3     1.023       0.7155E-3     1.034   
    17.04       0.3385E-3     1.023       0.7231E-3     1.034   
    17.06       0.3414E-3     1.023       0.7309E-3     1.034   
    17.08       0.3443E-3     1.024       0.7388E-3     1.034   
    17.10       0.3472E-3     1.024       0.7468E-3     1.034   
    17.12       0.3502E-3     1.024       0.7550E-3     1.035   
    17.14       0.3532E-3     1.024       0.7633E-3     1.035   
    17.16       0.3562E-3     1.024       0.7717E-3     1.035   
    17.18       0.3593E-3     1.024       0.7803E-3     1.035   
    17.20       0.3624E-3     1.024       0.7891E-3     1.035   
    17.22       0.3656E-3     1.024       0.7980E-3     1.035   
    17.24       0.3688E-3     1.024       0.8070E-3     1.035   
    17.26       0.3721E-3     1.024       0.8162E-3     1.036   
    17.28       0.3754E-3     1.024       0.8256E-3     1.036   
    17.30       0.3788E-3     1.024       0.8352E-3     1.036   
    17.32       0.3822E-3     1.024       0.8449E-3     1.036   
    17.34       0.3857E-3     1.024       0.8548E-3     1.036   
    17.36       0.3892E-3     1.025       0.8649E-3     1.036   
    17.38       0.3928E-3     1.025       0.8751E-3     1.037   
    17.40       0.3964E-3     1.025       0.8856E-3     1.037   
    17.42       0.4001E-3     1.025       0.8962E-3     1.037   
    17.44       0.4038E-3     1.025       0.9071E-3     1.037   
    17.46       0.4076E-3     1.025       0.9181E-3     1.037   
    17.48       0.4114E-3     1.025       0.9294E-3     1.038   
    17.50       0.4153E-3     1.025       0.9409E-3     1.038   
    17.52       0.4193E-3     1.025       0.9526E-3     1.038   
    17.54       0.4233E-3     1.025       0.9645E-3     1.038   
    17.56       0.4274E-3     1.025       0.9767E-3     1.038   
    17.58       0.4315E-3     1.025       0.9891E-3     1.039   
    17.60       0.4358E-3     1.026       0.1002E-2     1.039   
    17.62       0.4400E-3     1.026       0.1015E-2     1.039   
    17.64       0.4444E-3     1.026       0.1028E-2     1.039   
    17.66       0.4488E-3     1.026       0.1041E-2     1.039   
    17.68       0.4533E-3     1.026       0.1055E-2     1.040   
    17.70       0.4579E-3     1.026       0.1069E-2     1.040   
    17.72       0.4625E-3     1.026       0.1083E-2     1.040   
    17.74       0.4673E-3     1.026       0.1098E-2     1.040   
    17.76       0.4721E-3     1.026       0.1113E-2     1.040   
    17.78       0.4770E-3     1.026       0.1128E-2     1.041   
    17.80       0.4819E-3     1.026       0.1143E-2     1.041   
    17.82       0.4870E-3     1.027       0.1159E-2     1.041   
    17.84       0.4921E-3     1.027       0.1175E-2     1.041   
    17.86       0.4973E-3     1.027       0.1192E-2     1.042   
    17.88       0.5027E-3     1.027       0.1209E-2     1.042   
    17.90       0.5081E-3     1.027       0.1226E-2     1.042   
    17.92       0.5136E-3     1.027       0.1244E-2     1.042   
    17.94       0.5192E-3     1.027       0.1262E-2     1.043   
    17.96       0.5249E-3     1.027       0.1281E-2     1.043   
    17.98       0.5307E-3     1.027       0.1300E-2     1.043   
    18.00       0.5366E-3     1.027       0.1319E-2     1.043   
    18.02       0.5426E-3     1.028       0.1339E-2     1.044   
    18.04       0.5488E-3     1.028       0.1359E-2     1.044   
    18.06       0.5550E-3     1.028       0.1380E-2     1.044   
    18.08       0.5614E-3     1.028       0.1401E-2     1.044   
    18.10       0.5679E-3     1.028       0.1423E-2     1.045   
    18.12       0.5745E-3     1.028       0.1445E-2     1.045   
    18.14       0.5812E-3     1.028       0.1468E-2     1.045   
    18.16       0.5881E-3     1.028       0.1492E-2     1.046   
    18.18       0.5951E-3     1.029       0.1516E-2     1.046   
    18.20       0.6022E-3     1.029       0.1540E-2     1.046   
    18.22       0.6095E-3     1.029       0.1566E-2     1.046   
    18.24       0.6169E-3     1.029       0.1592E-2     1.047   
    18.26       0.6245E-3     1.029       0.1618E-2     1.047   
    18.28       0.6322E-3     1.029       0.1646E-2     1.047   
    18.30       0.6401E-3     1.029       0.1674E-2     1.048   
    18.32       0.6482E-3     1.029       0.1702E-2     1.048   
    18.34       0.6564E-3     1.030       0.1732E-2     1.048   
    18.36       0.6648E-3     1.030       0.1763E-2     1.049   
    18.38       0.6733E-3     1.030       0.1794E-2     1.049   
    18.40       0.6821E-3     1.030       0.1826E-2     1.049   
    18.42       0.6910E-3     1.030       0.1859E-2     1.050   
    18.44       0.7001E-3     1.030       0.1893E-2     1.050   
    18.46       0.7095E-3     1.030       0.1928E-2     1.051   
    18.48       0.7190E-3     1.030       0.1964E-2     1.051   
    18.50       0.7288E-3     1.031       0.2001E-2     1.051   
    18.52       0.7387E-3     1.031       0.2039E-2     1.052   
    18.54       0.7489E-3     1.031       0.2078E-2     1.052   
    18.56       0.7593E-3     1.031       0.2119E-2     1.053   
    18.58       0.7700E-3     1.031       0.2161E-2     1.053   
    18.60       0.7809E-3     1.031       0.2204E-2     1.053   
    18.62       0.7921E-3     1.032       0.2248E-2     1.054   
    18.64       0.8035E-3     1.032       0.2294E-2     1.054   
    18.66       0.8153E-3     1.032       0.2341E-2     1.055   
    18.68       0.8273E-3     1.032       0.2390E-2     1.055   
    18.70       0.8395E-3     1.032       0.2440E-2     1.056   
    18.72       0.8521E-3     1.032       0.2492E-2     1.056   
    18.74       0.8650E-3     1.033       0.2546E-2     1.057   
    18.76       0.8783E-3     1.033       0.2602E-2     1.057   
    18.78       0.8918E-3     1.033       0.2659E-2     1.058   
    18.80       0.9057E-3     1.033       0.2719E-2     1.058   
    18.82       0.9200E-3     1.033       0.2781E-2     1.059   
    18.84       0.9347E-3     1.033       0.2845E-2     1.059   
    18.86       0.9497E-3     1.034       0.2911E-2     1.060   
    18.88       0.9651E-3     1.034       0.2980E-2     1.061   
    18.90       0.9810E-3     1.034       0.3051E-2     1.061   
    18.92       0.9973E-3     1.034       0.3125E-2     1.062   
    18.94       0.1014E-2     1.034       0.3202E-2     1.062   
    18.96       0.1031E-2     1.035       0.3282E-2     1.063   
    18.98       0.1049E-2     1.035       0.3364E-2     1.064   
    19.00       0.1067E-2     1.035       0.3451E-2     1.064   
    19.02       0.1086E-2     1.035       0.3540E-2     1.065   
    19.04       0.1105E-2     1.035       0.3634E-2     1.066   
    19.06       0.1125E-2     1.036       0.3731E-2     1.067   
    19.08       0.1145E-2     1.036       0.3832E-2     1.067   
    19.10       0.1166E-2     1.036       0.3938E-2     1.068   
    19.12       0.1188E-2     1.036       0.4049E-2     1.069   
    19.14       0.1210E-2     1.037       0.4164E-2     1.070   
    19.16       0.1233E-2     1.037       0.4284E-2     1.071   
    19.18       0.1257E-2     1.037       0.4410E-2     1.071   
    19.20       0.1282E-2     1.037       0.4542E-2     1.072   
    19.22       0.1307E-2     1.038       0.4680E-2     1.073   
    19.24       0.1333E-2     1.038       0.4824E-2     1.074   
    19.26       0.1360E-2     1.038       0.4976E-2     1.075   
    19.28       0.1388E-2     1.038       0.5135E-2     1.076   
    19.30       0.1417E-2     1.039       0.5302E-2     1.077   
    19.32       0.1447E-2     1.039       0.5478E-2     1.078   
    19.34       0.1478E-2     1.039       0.5663E-2     1.079   
    19.36       0.1510E-2     1.040       0.5858E-2     1.080   
    19.38       0.1543E-2     1.040       0.6063E-2     1.082   
    19.40       0.1578E-2     1.040       0.6280E-2     1.083   
    19.42       0.1613E-2     1.040       0.6509E-2     1.084   
    19.44       0.1650E-2     1.041       0.6751E-2     1.085   
    19.46       0.1689E-2     1.041       0.7007E-2     1.087   
    19.48       0.1729E-2     1.041       0.7278E-2     1.088   
    19.50       0.1770E-2     1.042       0.7566E-2     1.090   
    19.52       0.1813E-2     1.042       0.7872E-2     1.091   
    19.54       0.1858E-2     1.043       0.8198E-2     1.093   
    19.56       0.1905E-2     1.043       0.8545E-2     1.094   
    19.58       0.1954E-2     1.043       0.8914E-2     1.096   
    19.60       0.2004E-2     1.044       0.9309E-2     1.098   
    19.62       0.2057E-2     1.044       0.9732E-2     1.100   
    19.64       0.2112E-2     1.045       0.1018E-1     1.102   
    19.66       0.2170E-2     1.045       0.1067E-1     1.104   
    19.68       0.2230E-2     1.045       0.1119E-1     1.106   
    19.70       0.2293E-2     1.046       0.1175E-1     1.108   
    19.72       0.2359E-2     1.046       0.1236E-1     1.110   
    19.74       0.2428E-2     1.047       0.1302E-1     1.113   
    19.76       0.2500E-2     1.047       0.1373E-1     1.115   
    19.78       0.2576E-2     1.048       0.1450E-1     1.118   
    19.80       0.2656E-2     1.048       0.1534E-1     1.121   
    19.82       0.2740E-2     1.049       0.1625E-1     1.124   
    19.84       0.2828E-2     1.049       0.1725E-1     1.127   
    19.86       0.2921E-2     1.050       0.1835E-1     1.131   
    19.88       0.3018E-2     1.050       0.1956E-1     1.134   
    19.90       0.3121E-2     1.051       0.2089E-1     1.138   
    19.92       0.3230E-2     1.052       0.2236E-1     1.142   
    19.94       0.3345E-2     1.052       0.2400E-1     1.146   
    19.96       0.3467E-2     1.053       0.2582E-1     1.151   
    19.98       0.3596E-2     1.054       0.2786E-1     1.156   
    20.00       0.3733E-2     1.054       0.3015E-1     1.161   
# 
# 07/24/2018 at 09:14 YAMBO @ NewLaptop [start]
# 07/24/2018 at 09:14                   [end]
#
# .-Input file : yambo.in
# | optics                         # [R OPT] Optics
# | bse                            # [R BSE] Bethe Salpeter Equation.
# | bsk                            # [R BSK] Bethe Salpeter Equation kernel
# | bss                            # [R BSS] Bethe Salpeter Equation solver
# | BoseTemp= 0.000000     eV      # Bosonic Temperature
# | FFTGvecs=  4945        RL      # [FFT] Plane-waves
# | NonPDirs= "XYZ"                # [X/BSS] Non periodic chartesian directions (X,Y,Z,XY...)
# | BSEmod= "retarded"             # [BSE] resonant/retarded/coupling
# | BSKmod= "Hartree"              # [BSE] IP/Hartree/HF/ALDA/SEX/BSfxc
# | BSSmod= "d"                    # [BSS] (h)aydock/(d)iagonalization/(i)nversion/(t)ddft`
# | BSENGexx=  4067        RL      # [BSK] Exchange components
# | % KfnQP_E
# |  7.600000 | 1.000000 | 1.000000 |        # [EXTQP BSK BSS] E parameters  (c/v) eV|adim|adim
# | %
# | % BEnRange
# |   0.00000 | 20.00000 | eV      # [BSS] Energy range
# | %
# | % BDmRange
# |   0.10000 |  0.10000 | eV      # [BSS] Damping range
# | %
# | BEnSteps= 1000                 # [BSS] Energy steps
# | % BLongDir
# | 0.1000E-4 | 0.000    | 0.000    |        # [BSS] [cc] Electric Field
# | %
# | % BSEBands
# |    1 |  50 |                   # [BSK] Bands range
# | %
