#                                                           
#  **    **    **     ****     ****  ******     *******     
# //**  **    ****   /**/**   **/** /*////**   **/////**    
#  //****    **//**  /**//** ** /** /*   /**  **     //**   
#   //**    **  //** /** //***  /** /******  /**      /**   
#    /**   **********/**  //*   /** /*//// **/**      /**   
#    /**  /**//////**/**   /    /** /*    /**//**     **    
#    /**  /**     /**/**        /** /*******  //*******     
#    //   //      // //         //  ///////    ///////      
#                                                           
#        Version 4.3.0 Revision 15624 Hash 7ed12fb          
#                      MPI+SLK Build                        
#                http://www.yambo-code.org                  
#
# Absorption @ Q(1) [q->0 direction] :0.1000E-4  0.000     0.000   
#
#
# - Energies      are Teter 93(XC)
# - Wavefunctions are Teter 93(XC)
#
# - The Green`s function is Retarded -
# - Using the Length Gauge -
# - [r,Vnl] *is* included -
#
#   BSK|Identifier              :5179
#      |Dimension               :49
#      |Bands                   :1 - 50
#      |Exchange           [res]: yes
#      |Correlation        [res]: no
#      |Kernel`s coupling       : no
#      |Exchange           [cpl]: no
#      |Correlation        [cpl]: no
#      |W interaction is bare   : no
#      |ALDA kernel in R-space  : no
#      |RL vectors    [exchange]:123
#      |E/h energy range    [ev]:-1.000000 - -1.000000
#      |Coupling range     [o/o]: 100.0000 -  100.0000
#
#    E/ev[1]      EPS-Im[2]    EPS-Re[3]    EPSo-Im[4]   EPSo-Re[5]
#
    0.000000     0.000000     1.017398     0.000000     1.019553
   0.7538E-1    0.1050E-5     1.017       0.1450E-5     1.020   
   0.1508       0.2099E-5     1.017       0.2901E-5     1.020   
   0.2261       0.3150E-5     1.017       0.4352E-5     1.020   
   0.3015       0.4201E-5     1.017       0.5805E-5     1.020   
   0.3769       0.5254E-5     1.017       0.7261E-5     1.020   
   0.4523       0.6308E-5     1.017       0.8718E-5     1.020   
   0.5276       0.7365E-5     1.017       0.1018E-4     1.020   
   0.6030       0.8423E-5     1.017       0.1164E-4     1.020   
   0.6784       0.9484E-5     1.017       0.1311E-4     1.020   
   0.7538       0.1055E-4     1.017       0.1459E-4     1.020   
   0.8291       0.1162E-4     1.017       0.1607E-4     1.020   
   0.9045       0.1269E-4     1.017       0.1755E-4     1.020   
   0.9799       0.1376E-4     1.017       0.1904E-4     1.020   
    1.055       0.1484E-4     1.017       0.2054E-4     1.020   
    1.131       0.1592E-4     1.017       0.2205E-4     1.020   
    1.206       0.1701E-4     1.017       0.2356E-4     1.020   
    1.281       0.1811E-4     1.018       0.2508E-4     1.020   
    1.357       0.1921E-4     1.018       0.2661E-4     1.020   
    1.432       0.2031E-4     1.018       0.2816E-4     1.020   
    1.508       0.2142E-4     1.018       0.2971E-4     1.020   
    1.583       0.2254E-4     1.018       0.3127E-4     1.020   
    1.658       0.2367E-4     1.018       0.3285E-4     1.020   
    1.734       0.2480E-4     1.018       0.3444E-4     1.020   
    1.809       0.2594E-4     1.018       0.3604E-4     1.020   
    1.884       0.2709E-4     1.018       0.3765E-4     1.020   
    1.960       0.2825E-4     1.018       0.3928E-4     1.020   
    2.035       0.2942E-4     1.018       0.4092E-4     1.020   
    2.111       0.3060E-4     1.018       0.4258E-4     1.020   
    2.186       0.3178E-4     1.018       0.4426E-4     1.020   
    2.261       0.3298E-4     1.018       0.4596E-4     1.020   
    2.337       0.3419E-4     1.018       0.4767E-4     1.020   
    2.412       0.3541E-4     1.018       0.4940E-4     1.020   
    2.487       0.3664E-4     1.018       0.5115E-4     1.020   
    2.563       0.3789E-4     1.018       0.5292E-4     1.020   
    2.638       0.3914E-4     1.018       0.5471E-4     1.020   
    2.714       0.4041E-4     1.018       0.5653E-4     1.020   
    2.789       0.4170E-4     1.018       0.5837E-4     1.020   
    2.864       0.4299E-4     1.018       0.6023E-4     1.020   
    2.940       0.4431E-4     1.018       0.6212E-4     1.020   
    3.015       0.4564E-4     1.018       0.6403E-4     1.020   
    3.090       0.4698E-4     1.018       0.6597E-4     1.021   
    3.166       0.4834E-4     1.018       0.6794E-4     1.021   
    3.241       0.4972E-4     1.018       0.6993E-4     1.021   
    3.317       0.5112E-4     1.018       0.7196E-4     1.021   
    3.392       0.5253E-4     1.018       0.7402E-4     1.021   
    3.467       0.5397E-4     1.018       0.7611E-4     1.021   
    3.543       0.5542E-4     1.018       0.7824E-4     1.021   
    3.618       0.5689E-4     1.018       0.8040E-4     1.021   
    3.693       0.5839E-4     1.018       0.8260E-4     1.021   
    3.769       0.5991E-4     1.018       0.8483E-4     1.021   
    3.844       0.6145E-4     1.018       0.8711E-4     1.021   
    3.920       0.6301E-4     1.019       0.8942E-4     1.021   
    3.995       0.6460E-4     1.019       0.9178E-4     1.021   
    4.070       0.6622E-4     1.019       0.9418E-4     1.021   
    4.146       0.6786E-4     1.019       0.9663E-4     1.021   
    4.221       0.6953E-4     1.019       0.9912E-4     1.021   
    4.296       0.7122E-4     1.019       0.1017E-3     1.022   
    4.372       0.7295E-4     1.019       0.1043E-3     1.022   
    4.447       0.7470E-4     1.019       0.1069E-3     1.022   
    4.523       0.7649E-4     1.019       0.1096E-3     1.022   
    4.598       0.7831E-4     1.019       0.1124E-3     1.022   
    4.673       0.8016E-4     1.019       0.1152E-3     1.022   
    4.749       0.8204E-4     1.019       0.1181E-3     1.022   
    4.824       0.8397E-4     1.019       0.1210E-3     1.022   
    4.899       0.8593E-4     1.019       0.1240E-3     1.022   
    4.975       0.8793E-4     1.019       0.1271E-3     1.022   
    5.050       0.8996E-4     1.019       0.1302E-3     1.022   
    5.126       0.9204E-4     1.019       0.1335E-3     1.022   
    5.201       0.9417E-4     1.020       0.1368E-3     1.023   
    5.276       0.9633E-4     1.020       0.1401E-3     1.023   
    5.352       0.9854E-4     1.020       0.1436E-3     1.023   
    5.427       0.1008E-3     1.020       0.1472E-3     1.023   
    5.503       0.1031E-3     1.020       0.1508E-3     1.023   
    5.578       0.1055E-3     1.020       0.1545E-3     1.023   
    5.653       0.1079E-3     1.020       0.1584E-3     1.023   
    5.729       0.1104E-3     1.020       0.1623E-3     1.023   
    5.804       0.1129E-3     1.020       0.1663E-3     1.024   
    5.879       0.1155E-3     1.020       0.1705E-3     1.024   
    5.955       0.1181E-3     1.020       0.1748E-3     1.024   
    6.030       0.1208E-3     1.020       0.1792E-3     1.024   
    6.106       0.1236E-3     1.021       0.1837E-3     1.024   
    6.181       0.1265E-3     1.021       0.1883E-3     1.024   
    6.256       0.1294E-3     1.021       0.1931E-3     1.024   
    6.332       0.1324E-3     1.021       0.1980E-3     1.024   
    6.407       0.1355E-3     1.021       0.2031E-3     1.025   
    6.482       0.1386E-3     1.021       0.2083E-3     1.025   
    6.558       0.1419E-3     1.021       0.2137E-3     1.025   
    6.633       0.1452E-3     1.021       0.2193E-3     1.025   
    6.709       0.1487E-3     1.021       0.2251E-3     1.025   
    6.784       0.1522E-3     1.021       0.2310E-3     1.025   
    6.859       0.1558E-3     1.022       0.2372E-3     1.026   
    6.935       0.1595E-3     1.022       0.2435E-3     1.026   
    7.010       0.1634E-3     1.022       0.2501E-3     1.026   
    7.085       0.1673E-3     1.022       0.2569E-3     1.026   
    7.161       0.1714E-3     1.022       0.2639E-3     1.026   
    7.236       0.1756E-3     1.022       0.2712E-3     1.027   
    7.312       0.1800E-3     1.022       0.2788E-3     1.027   
    7.387       0.1844E-3     1.022       0.2866E-3     1.027   
    7.462       0.1891E-3     1.023       0.2947E-3     1.027   
    7.538       0.1938E-3     1.023       0.3032E-3     1.027   
    7.613       0.1988E-3     1.023       0.3120E-3     1.028   
    7.688       0.2039E-3     1.023       0.3211E-3     1.028   
    7.764       0.2091E-3     1.023       0.3306E-3     1.028   
    7.839       0.2146E-3     1.023       0.3405E-3     1.028   
    7.915       0.2203E-3     1.024       0.3508E-3     1.029   
    7.990       0.2261E-3     1.024       0.3615E-3     1.029   
    8.065       0.2322E-3     1.024       0.3727E-3     1.029   
    8.141       0.2385E-3     1.024       0.3844E-3     1.029   
    8.216       0.2450E-3     1.024       0.3966E-3     1.030   
    8.291       0.2518E-3     1.024       0.4094E-3     1.030   
    8.367       0.2589E-3     1.025       0.4228E-3     1.030   
    8.442       0.2663E-3     1.025       0.4368E-3     1.031   
    8.518       0.2739E-3     1.025       0.4514E-3     1.031   
    8.593       0.2819E-3     1.025       0.4668E-3     1.031   
    8.668       0.2902E-3     1.025       0.4830E-3     1.032   
    8.744       0.2988E-3     1.026       0.5000E-3     1.032   
    8.819       0.3079E-3     1.026       0.5179E-3     1.033   
    8.894       0.3173E-3     1.026       0.5367E-3     1.033   
    8.970       0.3272E-3     1.026       0.5565E-3     1.033   
    9.045       0.3376E-3     1.027       0.5775E-3     1.034   
    9.121       0.3484E-3     1.027       0.5996E-3     1.034   
    9.196       0.3597E-3     1.027       0.6230E-3     1.035   
    9.271       0.3717E-3     1.027       0.6478E-3     1.035   
    9.347       0.3842E-3     1.028       0.6741E-3     1.036   
    9.422       0.3974E-3     1.028       0.7020E-3     1.036   
    9.497       0.4112E-3     1.028       0.7317E-3     1.037   
    9.573       0.4258E-3     1.029       0.7633E-3     1.037   
    9.648       0.4412E-3     1.029       0.7971E-3     1.038   
    9.724       0.4575E-3     1.029       0.8331E-3     1.038   
    9.799       0.4747E-3     1.030       0.8716E-3     1.039   
    9.874       0.4930E-3     1.030       0.9129E-3     1.040   
    9.950       0.5123E-3     1.030       0.9573E-3     1.040   
    10.03       0.5329E-3     1.031       0.1005E-2     1.041   
    10.10       0.5547E-3     1.031       0.1057E-2     1.042   
    10.18       0.5780E-3     1.032       0.1112E-2     1.043   
    10.25       0.6029E-3     1.032       0.1172E-2     1.044   
    10.33       0.6295E-3     1.033       0.1238E-2     1.045   
    10.40       0.6579E-3     1.033       0.1309E-2     1.046   
    10.48       0.6885E-3     1.033       0.1387E-2     1.047   
    10.55       0.7213E-3     1.034       0.1472E-2     1.048   
    10.63       0.7568E-3     1.035       0.1565E-2     1.049   
    10.70       0.7950E-3     1.035       0.1668E-2     1.050   
    10.78       0.8364E-3     1.036       0.1781E-2     1.051   
    10.85       0.8814E-3     1.036       0.1907E-2     1.053   
    10.93       0.9303E-3     1.037       0.2048E-2     1.054   
    11.01       0.9838E-3     1.038       0.2205E-2     1.056   
    11.08       0.1042E-2     1.039       0.2381E-2     1.057   
    11.16       0.1107E-2     1.039       0.2581E-2     1.059   
    11.23       0.1178E-2     1.040       0.2807E-2     1.061   
    11.31       0.1256E-2     1.041       0.3066E-2     1.063   
    11.38       0.1344E-2     1.042       0.3364E-2     1.066   
    11.46       0.1441E-2     1.043       0.3710E-2     1.069   
    11.53       0.1551E-2     1.044       0.4113E-2     1.071   
    11.61       0.1674E-2     1.046       0.4590E-2     1.075   
    11.68       0.1815E-2     1.047       0.5157E-2     1.078   
    11.76       0.1975E-2     1.048       0.5840E-2     1.082   
    11.83       0.2159E-2     1.050       0.6673E-2     1.087   
    11.91       0.2373E-2     1.051       0.7706E-2     1.092   
    11.98       0.2623E-2     1.053       0.9005E-2     1.098   
    12.06       0.2918E-2     1.055       0.1067E-1     1.106   
    12.14       0.3269E-2     1.058       0.1287E-1     1.114   
    12.21       0.3694E-2     1.060       0.1583E-1     1.125   
    12.29       0.4213E-2     1.063       0.1997E-1     1.137   
    12.36       0.4859E-2     1.067       0.2598E-1     1.153   
    12.44       0.5676E-2     1.070       0.3521E-1     1.174   
    12.51       0.6732E-2     1.075       0.5032E-1     1.202   
    12.59       0.8133E-2     1.080       0.7736E-1     1.240   
    12.66       0.1004E-1     1.087       0.1316        1.293   
    12.73869      0.01275      1.09492      0.25546      1.35406
    12.81407      0.01677      1.10516      0.52717      1.30611
    12.88945      0.02307      1.11853      0.64117      0.88432
    12.96482      0.03373      1.13658      0.34434      0.69329
    13.04020      0.05365      1.16156      0.16908      0.73918
    13.11558      0.09582      1.19500      0.09478      0.79836
    13.19096      0.19521      1.22051      0.05972      0.84257
    13.26633      0.36143      1.11081      0.04102      0.87460
    13.34171      0.29407      0.87604      0.03003      0.89846
    13.41709      0.14271      0.85136      0.02311      0.91691
    13.49246      0.07406      0.88598      0.01851      0.93166
    13.56784      0.04402      0.91626      0.01535      0.94383
    13.64       0.2909E-1    0.9384       0.1313E-1    0.9542   
    13.72       0.2080E-1    0.9548       0.1155E-1    0.9632   
    13.79       0.1580E-1    0.9673       0.1044E-1    0.9713   
    13.87       0.1261E-1    0.9773       0.9698E-2    0.9787   
    13.94       0.1049E-1    0.9856       0.9258E-2    0.9857   
    14.02       0.9045E-2    0.9926       0.9094E-2    0.9925   
    14.10       0.8065E-2    0.9989       0.9203E-2    0.9992   
    14.17       0.7420E-2     1.005       0.9615E-2     1.006   
    14.25       0.7033E-2     1.010       0.1040E-1     1.013   
    14.32       0.6862E-2     1.015       0.1167E-1     1.021   
    14.40       0.6891E-2     1.020       0.1365E-1     1.031   
    14.47       0.7120E-2     1.025       0.1673E-1     1.041   
    14.55       0.7572E-2     1.031       0.2168E-1     1.054   
    14.62       0.8294E-2     1.037       0.3005E-1     1.071   
    14.70       0.9370E-2     1.043       0.4544E-1     1.094   
    14.77       0.1094E-1     1.050       0.7710E-1     1.124   
    14.85       0.1325E-1     1.059       0.1507        1.156   
    14.92462      0.01673      1.06948      0.30259      1.10962
    15.00000      0.02222      1.08275      0.32102      0.87815
# 
# 07/24/2018 at 09:14 YAMBO @ NewLaptop [start]
# 07/24/2018 at 09:14                   [end]
#
# .-Input file : yambo.in
# | optics                         # [R OPT] Optics
# | bse                            # [R BSE] Bethe Salpeter Equation.
# | bsk                            # [R BSK] Bethe Salpeter Equation kernel
# | bss                            # [R BSS] Bethe Salpeter Equation solver
# | BoseTemp= 0.000000     eV      # Bosonic Temperature
# | FFTGvecs=  4945        RL      # [FFT] Plane-waves
# | NonPDirs= "XYZ"                # [X/BSS] Non periodic chartesian directions (X,Y,Z,XY...)
# | BSEmod= "retarded"             # [BSE] resonant/retarded/coupling
# | BSKmod= "Hartree"              # [BSE] IP/Hartree/HF/ALDA/SEX/BSfxc
# | BSSmod= "d"                    # [BSS] (h)aydock/(d)iagonalization/(i)nversion/(t)ddft`
# | BSENGexx= 123          RL      # [BSK] Exchange components
# | % BEnRange
# |   0.00000 | 15.00000 | eV      # [BSS] Energy range
# | %
# | % BDmRange
# |   0.10000 |  0.10000 | eV      # [BSS] Damping range
# | %
# | BEnSteps= 200                  # [BSS] Energy steps
# | % BLongDir
# | 0.1000E-4 | 0.000    | 0.000    |        # [BSS] [cc] Electric Field
# | %
# | % BSEBands
# |    1 |  50 |                   # [BSK] Bands range
# | %
