#                                                           
#  __  __   ________   ___ __ __    _______   ______        
# /_/\/_/\ /_______/\ /__//_//_/\ /_______/\ /_____/\       
# \ \ \ \ \\::: _  \ \\::\| \| \ \\::: _  \ \\:::_ \ \      
#  \:\_\ \ \\::(_)  \ \\:.      \ \\::(_)  \/_\:\ \ \ \     
#   \::::_\/ \:: __  \ \\:.\-/\  \ \\::  _  \ \\:\ \ \ \    
#     \::\ \  \:.\ \  \ \\. \  \  \ \\::(_)  \ \\:\_\ \ \   
#      \__\/   \__\/\__\/ \__\/ \__\/ \_______\/ \_____\/   
#                                                           
#                                                           
#        Version 4.3.0 Revision 15624 Hash 7ed12fb          
#                      MPI+SLK Build                        
#                http://www.yambo-code.org                  
#
# Joint density of states @ Q(1) [q->0 direction] :0.1000E-4  0.000     0.000   
#
# - Energies      are Teter 93(XC)
# - The Green`s function is Retarded -
#
#   BSK|Identifier              :1210
#      |Dimension               :49
#      |Bands                   :1 - 50
#      |Exchange           [res]: yes
#      |Correlation        [res]: no
#      |Kernel`s coupling       : yes
#      |Exchange           [cpl]: yes
#      |Correlation        [cpl]: no
#      |W interaction is bare   : no
#      |ALDA kernel in R-space  : no
#      |RL vectors    [exchange]:123
#      |E/h energy range    [ev]:-1.000000 - -1.000000
#      |Coupling range     [o/o]: 100.0000 -  100.0000
#
#    E/ev[1]      jdos-Im[2]   jdos-Re[3]   jdoso-Im[4]  jdoso-Re[5]  jdos`-Im[6]  jdos`-Re[7]
#
    0.000       0.6338E-2    -.3711E-6     0.000        1.108   
   0.7538E-1    0.6338E-2    0.4777E-2    0.5897E-4     1.108   
   0.1508       0.6340E-2    0.9554E-2    0.1179E-3     1.108   
   0.2261       0.6342E-2    0.1433E-1    0.1770E-3     1.109   
   0.3015       0.6344E-2    0.1911E-1    0.2360E-3     1.109   
   0.3769       0.6348E-2    0.2390E-1    0.2952E-3     1.109   
   0.4523       0.6353E-2    0.2868E-1    0.3544E-3     1.109   
   0.5276       0.6358E-2    0.3347E-1    0.4137E-3     1.109   
   0.6030       0.6364E-2    0.3827E-1    0.4731E-3     1.110   
   0.6784       0.6371E-2    0.4307E-1    0.5327E-3     1.110   
   0.7538       0.6379E-2    0.4787E-1    0.5924E-3     1.111   
   0.8291       0.6387E-2    0.5268E-1    0.6523E-3     1.111   
   0.9045       0.6397E-2    0.5750E-1    0.7124E-3     1.112   
   0.9799       0.6407E-2    0.6233E-1    0.7727E-3     1.112   
    1.055       0.6418E-2    0.6716E-1    0.8332E-3     1.113   
    1.131       0.6430E-2    0.7200E-1    0.8939E-3     1.113   
    1.206       0.6443E-2    0.7685E-1    0.9549E-3     1.114   
    1.281       0.6456E-2    0.8171E-1    0.1016E-2     1.115   
    1.357       0.6471E-2    0.8658E-1    0.1078E-2     1.116   
    1.432       0.6486E-2    0.9147E-1    0.1140E-2     1.116   
    1.508       0.6503E-2    0.9636E-1    0.1202E-2     1.117   
    1.583       0.6520E-2    0.1013       0.1264E-2     1.118   
    1.658       0.6538E-2    0.1062       0.1327E-2     1.119   
    1.734       0.6557E-2    0.1111       0.1391E-2     1.120   
    1.809       0.6577E-2    0.1161       0.1455E-2     1.121   
    1.884       0.6598E-2    0.1210       0.1519E-2     1.122   
    1.960       0.6620E-2    0.1260       0.1583E-2     1.124   
    2.035       0.6643E-2    0.1310       0.1648E-2     1.125   
    2.111       0.6666E-2    0.1360       0.1714E-2     1.126   
    2.186       0.6691E-2    0.1411       0.1780E-2     1.127   
    2.261       0.6717E-2    0.1461       0.1847E-2     1.129   
    2.337       0.6743E-2    0.1512       0.1914E-2     1.130   
    2.412       0.6771E-2    0.1563       0.1982E-2     1.132   
    2.487       0.6800E-2    0.1614       0.2050E-2     1.133   
    2.563       0.6830E-2    0.1665       0.2120E-2     1.135   
    2.638       0.6861E-2    0.1717       0.2189E-2     1.136   
    2.714       0.6893E-2    0.1769       0.2260E-2     1.138   
    2.789       0.6926E-2    0.1821       0.2331E-2     1.140   
    2.864       0.6960E-2    0.1873       0.2403E-2     1.142   
    2.940       0.6995E-2    0.1926       0.2476E-2     1.143   
    3.015       0.7032E-2    0.1979       0.2549E-2     1.145   
    3.090       0.7070E-2    0.2032       0.2623E-2     1.147   
    3.166       0.7109E-2    0.2085       0.2699E-2     1.149   
    3.241       0.7149E-2    0.2139       0.2775E-2     1.151   
    3.317       0.7190E-2    0.2193       0.2852E-2     1.153   
    3.392       0.7233E-2    0.2247       0.2930E-2     1.156   
    3.467       0.7277E-2    0.2302       0.3009E-2     1.158   
    3.543       0.7322E-2    0.2357       0.3089E-2     1.160   
    3.618       0.7369E-2    0.2412       0.3170E-2     1.163   
    3.693       0.7417E-2    0.2468       0.3252E-2     1.165   
    3.769       0.7467E-2    0.2524       0.3336E-2     1.167   
    3.844       0.7518E-2    0.2581       0.3420E-2     1.170   
    3.920       0.7570E-2    0.2638       0.3506E-2     1.173   
    3.995       0.7625E-2    0.2695       0.3593E-2     1.175   
    4.070       0.7680E-2    0.2752       0.3682E-2     1.178   
    4.146       0.7737E-2    0.2811       0.3771E-2     1.181   
    4.221       0.7796E-2    0.2869       0.3863E-2     1.184   
    4.296       0.7857E-2    0.2928       0.3955E-2     1.187   
    4.372       0.7919E-2    0.2988       0.4050E-2     1.190   
    4.447       0.7983E-2    0.3047       0.4145E-2     1.193   
    4.523       0.8049E-2    0.3108       0.4243E-2     1.196   
    4.598       0.8117E-2    0.3169       0.4342E-2     1.199   
    4.673       0.8187E-2    0.3230       0.4443E-2     1.202   
    4.749       0.8258E-2    0.3292       0.4546E-2     1.206   
    4.824       0.8332E-2    0.3355       0.4650E-2     1.209   
    4.899       0.8408E-2    0.3418       0.4757E-2     1.213   
    4.975       0.8486E-2    0.3481       0.4865E-2     1.216   
    5.050       0.8566E-2    0.3546       0.4976E-2     1.220   
    5.126       0.8649E-2    0.3611       0.5089E-2     1.224   
      5.2010       0.0087       0.3676       0.0052       1.2279
      5.2764       0.0088       0.3742       0.0053       1.2318
      5.3518       0.0089       0.3809       0.0054       1.2359
      5.4271       0.0090       0.3877       0.0056       1.2400
      5.5025       0.0091       0.3945       0.0057       1.2443
      5.5779       0.0092       0.4014       0.0058       1.2486
      5.6533       0.0093       0.4083       0.0059       1.2530
      5.7286       0.0094       0.4154       0.0061       1.2576
      5.8040       0.0095       0.4225       0.0062       1.2622
      5.8794       0.0096       0.4297       0.0064       1.2669
      5.9548       0.0097       0.4370       0.0065       1.2718
      6.0302       0.0098       0.4444       0.0066       1.2767
      6.1055       0.0100       0.4519       0.0068       1.2818
      6.1809       0.0101       0.4594       0.0070       1.2870
      6.2563       0.0102       0.4671       0.0071       1.2923
      6.3317       0.0104       0.4748       0.0073       1.2977
      6.4070       0.0105       0.4827       0.0074       1.3032
      6.4824       0.0106       0.4906       0.0076       1.3089
      6.5578       0.0108       0.4987       0.0078       1.3147
      6.6332       0.0109       0.5069       0.0080       1.3206
      6.7085       0.0111       0.5152       0.0082       1.3267
      6.7839       0.0112       0.5236       0.0083       1.3329
      6.8593       0.0114       0.5321       0.0085       1.3393
      6.9347       0.0116       0.5407       0.0087       1.3458
      7.0101       0.0117       0.5495       0.0090       1.3525
      7.0854       0.0119       0.5585       0.0092       1.3593
      7.1608       0.0121       0.5675       0.0094       1.3663
      7.2362       0.0123       0.5767       0.0096       1.3734
      7.3116       0.0125       0.5861       0.0099       1.3808
     7.38694      0.01273      0.59559      0.01010      1.38830
     7.46231      0.01295      0.60526      0.01036      1.39601
     7.53769      0.01317      0.61510      0.01062      1.40392
     7.61307      0.01341      0.62511      0.01089      1.41202
     7.68844      0.01365      0.63530      0.01118      1.42033
     7.76382      0.01390      0.64568      0.01147      1.42886
     7.83920      0.01417      0.65625      0.01178      1.43762
     7.91457      0.01444      0.66703      0.01209      1.44661
     7.98995      0.01473      0.67802      0.01242      1.45584
     8.06533      0.01503      0.68922      0.01277      1.46533
     8.14070      0.01534      0.70066      0.01313      1.47508
     8.21608      0.01566      0.71234      0.01350      1.48511
     8.29146      0.01600      0.72426      0.01389      1.49543
     8.36683      0.01636      0.73645      0.01430      1.50604
     8.44221      0.01673      0.74891      0.01473      1.51698
     8.51759      0.01712      0.76166      0.01518      1.52824
     8.59297      0.01753      0.77471      0.01566      1.53985
     8.66834      0.01797      0.78808      0.01616      1.55183
     8.74372      0.01842      0.80178      0.01668      1.56419
     8.81910      0.01890      0.81584      0.01724      1.57696
     8.89447      0.01941      0.83027      0.01783      1.59016
     8.96985      0.01995      0.84508      0.01845      1.60382
     9.04523      0.02052      0.86032      0.01912      1.61795
     9.12060      0.02113      0.87600      0.01982      1.63261
     9.19598      0.02177      0.89214      0.02058      1.64781
     9.27136      0.02246      0.90879      0.02139      1.66360
     9.34673      0.02320      0.92598      0.02226      1.68001
     9.42211      0.02400      0.94374      0.02320      1.69711
     9.49749      0.02485      0.96211      0.02422      1.71494
     9.57286      0.02578      0.98116      0.02532      1.73356
     9.64824      0.02678      1.00092      0.02653      1.75305
     9.72362      0.02787      1.02147      0.02786      1.77349
     9.79900      0.02907      1.04287      0.02933      1.79496
     9.87437      0.03039      1.06521      0.03096      1.81760
     9.94975      0.03185      1.08859      0.03279      1.84152
    10.02513      0.03348      1.11312      0.03486      1.86688
    10.10050      0.03532      1.13894      0.03721      1.89388
    10.17588      0.03739      1.16621      0.03993      1.92275
    10.25126      0.03977      1.19512      0.04310      1.95379
    10.32663      0.04252      1.22592      0.04686      1.98735
    10.40201      0.04575      1.25892      0.05137      2.02392
    10.47739      0.04960      1.29449      0.05692      2.06412
    10.55276      0.05425      1.33315      0.06389      2.10879
    10.62814      0.06000      1.37555      0.07288      2.15908
    10.70352      0.06728      1.42259      0.08488      2.21663
    10.77890      0.07677      1.47551      0.10154      2.28383
    10.85427      0.08956      1.53608      0.12587      2.36429
    10.92965      0.10755      1.60693      0.16370      2.46368
    11.00503      0.13421      1.69204      0.22752      2.59086
    11.08040      0.17647      1.79770      0.34728      2.75852
    11.15578      0.24948      1.93369      0.60373      2.97138
    11.23116      0.39067      2.11303      1.20592      3.10171
    11.30653      0.70296      2.33030      2.05102      2.35700
    11.38191      1.42268      2.36165      1.48620      1.25145
    11.45729      2.06694      1.31830      0.74273      1.25470
    11.53266      1.26397      0.49637      0.42027      1.48255
    11.60804      0.63822      0.61300      0.27933      1.68017
    11.68342      0.37460      0.83813      0.21066      1.83875
    11.75879      0.25582      1.02369      0.17480      1.97171
    11.83417      0.19614      1.17258      0.15600      2.08965
    11.90955      0.16400      1.29791      0.14734      2.19975
    11.98493      0.14645      1.40916      0.14557      2.30706
    12.06030      0.13757      1.51261      0.14925      2.41554
    12.13568      0.13445      1.61260      0.15803      2.52869
    12.21106      0.13569      1.71240      0.17235      2.65010
    12.28643      0.14064      1.81470      0.19355      2.78389
    12.36181      0.14921      1.92205      0.22433      2.93537
    12.43719      0.16172      2.03705      0.26972      3.11185
    12.51256      0.17896      2.16273      0.33967      3.32408
    12.58794      0.20232      2.30279      0.45557      3.58803
    12.66332      0.23411      2.46209      0.66924      3.92407
    12.73869      0.27824      2.64735      1.11949      4.32240
    12.81407      0.34151      2.86827      2.06522      4.45172
    12.88945      0.43662      3.13943      2.64101      3.53982
    12.96482      0.58929      3.48322      2.22940      3.42542
    13.04020      0.85762      3.93289      2.81899      3.94243
    13.11558      1.38964      4.51918      4.40778      3.01478
    13.19096      2.56093      5.09951      3.55672      0.83160
    13.26633      4.52208      4.63473      1.98743      0.91554
    13.34171      5.73420      2.57007      1.38692      1.63919
    13.41709      4.44072      0.47567      1.34260      2.38925
    13.49246      3.12305      0.89112      1.80870      3.12732
    13.56784      3.59128      1.58526      3.15587      3.44912
    13.64322      4.71959      0.28536      4.45368      1.70876
    13.71859      3.23429     -1.34151      3.05855      0.24785
    13.79397      1.76893     -0.98224      2.04710      0.69299
    13.86935      1.16159     -0.29310      2.18122      1.21332
    13.94472      0.96817      0.32909      2.59739      0.58940
    14.02010      1.06296      0.88961      1.68070      0.02547
    14.09548      1.58152      1.28337      0.96293      0.37203
    14.17085      2.34692      0.72174      0.64800      0.80353
    14.24623      1.70252     -0.15897      0.50236      1.17480
    14.32161      0.94866      0.03307      0.43194      1.49813
    14.39699      0.61897      0.41724      0.40236      1.79540
    14.47236      0.47312      0.76130      0.40118      2.08462
    14.54774      0.40422      1.06331      0.42650      2.38167
    14.62312      0.37368      1.34117      0.48526      2.70340
    14.69849      0.36664      1.60984      0.59899      3.07030
    14.77387      0.37769      1.88150      0.82495      3.50489
    14.84925      0.40628      2.16737      1.31958      3.98346
    14.92462      0.45580      2.47971      2.31290      4.07245
    15.00000      0.53486      2.83385      2.64390      3.18868
# 
# 07/24/2018 at 09:14 YAMBO @ NewLaptop [start]
# 07/24/2018 at 09:14                   [end]
#
# .-Input file : yambo.in
# | optics                         # [R OPT] Optics
# | bse                            # [R BSE] Bethe Salpeter Equation.
# | bsk                            # [R BSK] Bethe Salpeter Equation kernel
# | bss                            # [R BSS] Bethe Salpeter Equation solver
# | BoseTemp= 0.000000     eV      # Bosonic Temperature
# | FFTGvecs=  4945        RL      # [FFT] Plane-waves
# | NonPDirs= "XYZ"                # [X/BSS] Non periodic chartesian directions (X,Y,Z,XY...)
# | BSEmod= "coupling"             # [BSE] resonant/retarded/coupling
# | BSKmod= "Hartree"              # [BSE] IP/Hartree/HF/ALDA/SEX/BSfxc
# | BSSmod= "dh"                   # [BSS] (h)aydock/(d)iagonalization/(i)nversion/(t)ddft`
# | BSENGexx= 123          RL      # [BSK] Exchange components
# | % BEnRange
# |   0.00000 | 15.00000 | eV      # [BSS] Energy range
# | %
# | % BDmRange
# |   0.10000 |  0.10000 | eV      # [BSS] Damping range
# | %
# | BEnSteps= 200                  # [BSS] Energy steps
# | % BLongDir
# | 0.1000E-4 | 0.000    | 0.000    |        # [BSS] [cc] Electric Field
# | %
# | % BSEBands
# |    1 |  50 |                   # [BSK] Bands range
# | %
# | BSHayTrs=   0.0050             # [BSS] Relative [o/o] Haydock treshold. Strict(>0)/Average(<0)
