#                                                           
# ooooo   oooo ..     ooo        ooo ooooooooo.    .oooo.   
#  `88.   .8" .88.    `88.       .88 `88"   `Y8b  dP"  `Yb  
#   `88. .8" .8"88.    888b     d"88  88     888 88      88 
#    `88.8" .8" `88.   8 Y88. .P  88  88oooo888" 88      88 
#     `88" .88ooo888.  8  `888"   88  88    `88b 88      88 
#      88 .8"     `88. 8    Y     88  88    .88P `8b    d8" 
#     o88o88o      888o8          88 o88bood8P"   `Ybod8P"  
#                                                           
#                                                           
#                Version 4.0.2 Revision 5545                
#                         MPI Build                         
#                 http://www.yambo-code.org                 
#
#  E  [meV]   gF^2 sum   gF^2 Fan   gF^2  DW   gF^2 Cor   Gamma(G)   G   Bose   G F
#
  0.000     -.6807E-4  0.4793E-1  -.4798E-1  -.2570E-4  -.1022E-5  0.1888E-6  -.1211E-5
 0.1460     -.7846E-4  0.5522E-1  -.5526E-1  -.2961E-4  -.1183E-5  0.2185E-6  -.1401E-5
 0.2921     -.9035E-4  0.6356E-1  -.6361E-1  -.3408E-4  -.1369E-5  0.2529E-6  -.1622E-5
 0.4381     -.1040E-3  0.7310E-1  -.7316E-1  -.3919E-4  -.1584E-5  0.2926E-6  -.1877E-5
 0.5841     -.1196E-3  0.8399E-1  -.8407E-1  -.4504E-4  -.1833E-5  0.3386E-6  -.2171E-5
 0.7302     -.1375E-3  0.9641E-1  -.9649E-1  -.5169E-4  -.2121E-5  0.3919E-6  -.2513E-5
 0.8762     -.1578E-3  0.1105     -.1106     -.5926E-4  -.2454E-5  0.4535E-6  -.2907E-5
  1.022     -.1809E-3  0.1265     -.1266     -.6783E-4  -.2839E-5  0.5248E-6  -.3364E-5
  1.168     -.2071E-3  0.1446     -.1447     -.7752E-4  -.3285E-5  0.6072E-6  -.3893E-5
  1.314     -.2367E-3  0.1649     -.1651     -.8843E-4  -.3801E-5  0.7027E-6  -.4504E-5
  1.460     -.2701E-3  0.1877     -.1879     -.1007E-3  -.4398E-5  0.8132E-6  -.5212E-5
  1.606     -.3075E-3  0.2132     -.2134     -.1143E-3  -.5089E-5  0.9410E-6  -.6030E-5
  1.752     -.3493E-3  0.2414     -.2416     -.1294E-3  -.5888E-5  0.1089E-5  -.6977E-5
  1.898     -.3958E-3  0.2725     -.2728     -.1461E-3  -.6812E-5  0.1260E-5  -.8072E-5
  2.044     -.4473E-3  0.3066     -.3069     -.1644E-3  -.7880E-5  0.1458E-5  -.9338E-5
  2.190     -.5036E-3  0.3435     -.3439     -.1842E-3  -.9116E-5  0.1687E-5  -.1080E-4
  2.336     -.5650E-3  0.3832     -.3836     -.2055E-3  -.1055E-4  0.1952E-5  -.1250E-4
  2.483     -.6315E-3  0.4254     -.4258     -.2281E-3  -.1220E-4  0.2259E-5  -.1446E-4
  2.629     -.7030E-3  0.4696     -.4701     -.2518E-3  -.1411E-4  0.2614E-5  -.1672E-4
  2.775     -.7785E-3  0.5153     -.5158     -.2762E-3  -.1632E-4  0.3024E-5  -.1935E-4
  2.921     -.8583E-3  0.5617     -.5623     -.3011E-3  -.1888E-4  0.3499E-5  -.2238E-4
  3.067     -.9409E-3  0.6079     -.6085     -.3258E-3  -.2183E-4  0.4048E-5  -.2588E-4
  3.213     -.1027E-2  0.6527     -.6534     -.3498E-3  -.2525E-4  0.4683E-5  -.2993E-4
  3.359     -.1113E-2  0.6950     -.6957     -.3725E-3  -.2920E-4  0.5418E-5  -.3462E-4
  3.505     -.1200E-2  0.7334     -.7342     -.3930E-3  -.3377E-4  0.6268E-5  -.4003E-4
  3.651     -.1288E-2  0.7667     -.7676     -.4108E-3  -.3904E-4  0.7251E-5  -.4630E-4
  3.797     -.1375E-2  0.7937     -.7946     -.4252E-3  -.4514E-4  0.8387E-5  -.5353E-4
  3.943     -.1461E-2  0.8133     -.8143     -.4356E-3  -.5220E-4  0.9701E-5  -.6190E-4
  4.089     -.1547E-2  0.8247     -.8258     -.4417E-3  -.6034E-4  0.1122E-4  -.7156E-4
  4.235     -.1633E-2  0.8276     -.8288     -.4431E-3  -.6976E-4  0.1297E-4  -.8273E-4
  4.381     -.1722E-2  0.8217     -.8230     -.4399E-3  -.8064E-4  0.1500E-4  -.9564E-4
  4.527     -.1815E-2  0.8075     -.8089     -.4321E-3  -.9320E-4  0.1735E-4  -.1105E-3
  4.673     -.1915E-2  0.7855     -.7870     -.4201E-3  -.1077E-3  0.2005E-4  -.1278E-3
  4.819     -.2027E-2  0.7565     -.7582     -.4044E-3  -.1245E-3  0.2318E-4  -.1476E-3
  4.965     -.2154E-2  0.7219     -.7237     -.3856E-3  -.1438E-3  0.2678E-4  -.1706E-3
  5.111     -.2303E-2  0.6827     -.6847     -.3643E-3  -.1661E-3  0.3094E-4  -.1970E-3
  5.257     -.2478E-2  0.6405     -.6426     -.3413E-3  -.1918E-3  0.3574E-4  -.2275E-3
  5.403     -.2685E-2  0.5963     -.5987     -.3173E-3  -.2214E-3  0.4127E-4  -.2627E-3
  5.549     -.2933E-2  0.5515     -.5541     -.2928E-3  -.2556E-3  0.4763E-4  -.3032E-3
  5.695     -.3226E-2  0.5071     -.5101     -.2686E-3  -.2949E-3  0.5496E-4  -.3498E-3
  5.841     -.3574E-2  0.4640     -.4673     -.2449E-3  -.3400E-3  0.6339E-4  -.4034E-3
  5.987     -.3985E-2  0.4229     -.4267     -.2222E-3  -.3919E-3  0.7307E-4  -.4650E-3
  6.133     -.4468E-2  0.3844     -.3887     -.2009E-3  -.4514E-3  0.8418E-4  -.5356E-3
  6.279     -.5034E-2  0.3489     -.3537     -.1810E-3  -.5197E-3  0.9690E-4  -.6166E-3
  6.425     -.5693E-2  0.3166     -.3221     -.1627E-3  -.5977E-3  0.1115E-3  -.7092E-3
  6.571     -.6460E-2  0.2876     -.2940     -.1461E-3  -.6868E-3  0.1281E-3  -.8149E-3
  6.717     -.7346E-2  0.2622     -.2694     -.1312E-3  -.7884E-3  0.1471E-3  -.9355E-3
  6.863     -.8367E-2  0.2401     -.2484     -.1180E-3  -.9039E-3  0.1686E-3  -.1073E-2
  7.009     -.9538E-2  0.2214     -.2309     -.1064E-3  -.1035E-2  0.1931E-3  -.1228E-2
  7.155     -.1088E-1  0.2061     -.2168     -.9628E-4  -.1183E-2  0.2208E-3  -.1404E-2
  7.302     -.1241E-1  0.1938     -.2061     -.8763E-4  -.1350E-2  0.2519E-3  -.1602E-2
  7.448     -.1414E-1  0.1846     -.1987     -.8034E-4  -.1537E-2  0.2869E-3  -.1824E-2
  7.594     -.1610E-1  0.1783     -.1943     -.7430E-4  -.1746E-2  0.3260E-3  -.2072E-2
  7.740     -.1830E-1  0.1747     -.1930     -.6942E-4  -.1978E-2  0.3695E-3  -.2348E-2
  7.886     -.2077E-1  0.1738     -.1945     -.6561E-4  -.2235E-2  0.4175E-3  -.2652E-2
  8.032     -.2352E-1  0.1753     -.1988     -.6276E-4  -.2516E-2  0.4702E-3  -.2986E-2
  8.178     -.2657E-1  0.1792     -.2057     -.6080E-4  -.2822E-2  0.5277E-3  -.3349E-2
  8.324     -.2993E-1  0.1851     -.2150     -.5963E-4  -.3152E-2  0.5896E-3  -.3741E-2
  8.470     -.3360E-1  0.1930     -.2265     -.5918E-4  -.3504E-2  0.6559E-3  -.4160E-2
  8.616     -.3758E-1  0.2026     -.2401     -.5940E-4  -.3876E-2  0.7258E-3  -.4602E-2
  8.762     -.4185E-1  0.2136     -.2554     -.6022E-4  -.4263E-2  0.7989E-3  -.5062E-2
  8.908     -.4641E-1  0.2259     -.2722     -.6164E-4  -.4660E-2  0.8739E-3  -.5534E-2
  9.054     -.5121E-1  0.2390     -.2901     -.6365E-4  -.5061E-2  0.9497E-3  -.6011E-2
  9.200     -.5622E-1  0.2526     -.3088     -.6628E-4  -.5457E-2  0.1025E-2  -.6481E-2
  9.346     -.6137E-1  0.2665     -.3278     -.6962E-4  -.5838E-2  0.1098E-2  -.6936E-2
  9.492     -.6661E-1  0.2802     -.3467     -.7378E-4  -.6196E-2  0.1166E-2  -.7362E-2
  9.638     -.7184E-1  0.2934     -.3651     -.7890E-4  -.6520E-2  0.1228E-2  -.7748E-2
  9.784     -.7701E-1  0.3058     -.3827     -.8517E-4  -.6799E-2  0.1282E-2  -.8081E-2
  9.930     -.8201E-1  0.3170     -.3990     -.9279E-4  -.7025E-2  0.1327E-2  -.8351E-2
  10.08     -.8678E-1  0.3270     -.4136     -.1020E-3  -.7189E-2  0.1359E-2  -.8549E-2
  10.22     -.9123E-1  0.3353     -.4264     -.1129E-3  -.7286E-2  0.1380E-2  -.8666E-2
  10.37     -.9531E-1  0.3420     -.4372     -.1258E-3  -.7312E-2  0.1387E-2  -.8699E-2
  10.51     -.9896E-1  0.3469     -.4458     -.1409E-3  -.7267E-2  0.1381E-2  -.8648E-2
  10.66     -.1021     0.3501     -.4521     -.1582E-3  -.7152E-2  0.1361E-2  -.8514E-2
  10.81     -.1048     0.3516     -.4563     -.1781E-3  -.6973E-2  0.1329E-2  -.8302E-2
  10.95     -.1070     0.3517     -.4585     -.2006E-3  -.6735E-2  0.1286E-2  -.8021E-2
  11.10     -.1088     0.3504     -.4589     -.2260E-3  -.6447E-2  0.1234E-2  -.7681E-2
  11.24     -.1101     0.3481     -.4579     -.2546E-3  -.6119E-2  0.1173E-2  -.7292E-2
  11.39     -.1110     0.3452     -.4559     -.2868E-3  -.5760E-2  0.1107E-2  -.6867E-2
  11.54     -.1115     0.3420     -.4532     -.3231E-3  -.5382E-2  0.1036E-2  -.6418E-2
  11.68     -.1118     0.3390     -.4504     -.3642E-3  -.4992E-2  0.9635E-3  -.5956E-2
  11.83     -.1118     0.3366     -.4480     -.4108E-3  -.4600E-2  0.8897E-3  -.5490E-2
  11.97     -.1118     0.3353     -.4466     -.4637E-3  -.4214E-2  0.8166E-3  -.5030E-2
  12.12     -.1116     0.3356     -.4467     -.5240E-3  -.3838E-2  0.7453E-3  -.4584E-2
  12.27     -.1114     0.3378     -.4486     -.5928E-3  -.3479E-2  0.6768E-3  -.4156E-2
  12.41     -.1112     0.3424     -.4529     -.6711E-3  -.3140E-2  0.6119E-3  -.3752E-2
  12.56     -.1111     0.3497     -.4600     -.7603E-3  -.2823E-2  0.5512E-3  -.3374E-2
  12.70     -.1110     0.3600     -.4702     -.8617E-3  -.2531E-2  0.4949E-3  -.3026E-2
  12.85     -.1110     0.3735     -.4836     -.9768E-3  -.2264E-2  0.4435E-3  -.2707E-2
  13.00     -.1111     0.3906     -.5005     -.1107E-2  -.2022E-2  0.3970E-3  -.2419E-2
  13.14     -.1110     0.4113     -.5211     -.1254E-2  -.1806E-2  0.3555E-3  -.2161E-2
  13.29     -.1110     0.4357     -.5453     -.1420E-2  -.1615E-2  0.3191E-3  -.1934E-2
  13.43     -.1108     0.4641     -.5732     -.1605E-2  -.1448E-2  0.2877E-3  -.1736E-2
  13.58     -.1104     0.4964     -.6049     -.1813E-2  -.1306E-2  0.2614E-3  -.1567E-2
  13.73     -.1098     0.5327     -.6404     -.2044E-2  -.1187E-2  0.2404E-3  -.1427E-2
  13.87     -.1089     0.5730     -.6796     -.2301E-2  -.1091E-2  0.2248E-3  -.1316E-2
  14.02     -.1077     0.6174     -.7225     -.2585E-2  -.1020E-2  0.2152E-3  -.1235E-2
  14.16     -.1061     0.6658     -.7690     -.2897E-2  -.9736E-3  0.2119E-3  -.1186E-2
  14.31     -.1042     0.7183     -.8192     -.3240E-2  -.9534E-3  0.2160E-3  -.1169E-2
  14.46     -.1018     0.7747     -.8729     -.3614E-2  -.9621E-3  0.2284E-3  -.1191E-2
  14.60     -.9905E-1  0.8349     -.9299     -.4019E-2  -.1003E-2  0.2507E-3  -.1254E-2
  14.75     -.9580E-1  0.8988     -.9902     -.4456E-2  -.1081E-2  0.2850E-3  -.1366E-2
  14.90     -.9207E-1  0.9662     -1.053     -.4923E-2  -.1202E-2  0.3335E-3  -.1536E-2
  15.04     -.8787E-1   1.037     -1.119     -.5419E-2  -.1374E-2  0.3996E-3  -.1774E-2
  15.19     -.8323E-1   1.110     -1.187     -.5941E-2  -.1607E-2  0.4869E-3  -.2094E-2
  15.33     -.7824E-1   1.185     -1.257     -.6483E-2  -.1912E-2  0.6002E-3  -.2512E-2
  15.48     -.7304E-1   1.262     -1.328     -.7039E-2  -.2303E-2  0.7448E-3  -.3048E-2
  15.63     -.6787E-1   1.339     -1.399     -.7603E-2  -.2797E-2  0.9270E-3  -.3724E-2
  15.77     -.6304E-1   1.415     -1.470     -.8163E-2  -.3411E-2  0.1154E-2  -.4565E-2
  15.92     -.5897E-1   1.490     -1.540     -.8709E-2  -.4167E-2  0.1434E-2  -.5601E-2
  16.06     -.5612E-1   1.562     -1.609     -.9228E-2  -.5087E-2  0.1776E-2  -.6862E-2
  16.21     -.5504E-1   1.629     -1.674     -.9707E-2  -.6194E-2  0.2188E-2  -.8382E-2
  16.36     -.5626E-1   1.690     -1.736     -.1013E-1  -.7513E-2  0.2681E-2  -.1019E-1
  16.50     -.6029E-1   1.744     -1.794     -.1049E-1  -.9069E-2  0.3263E-2  -.1233E-1
  16.65     -.6760E-1   1.789     -1.846     -.1077E-1  -.1088E-1  0.3944E-2  -.1483E-1
  16.79     -.7850E-1   1.826     -1.893     -.1097E-1  -.1298E-1  0.4732E-2  -.1771E-1
  16.94     -.9319E-1   1.852     -1.934     -.1106E-1  -.1537E-1  0.5632E-2  -.2100E-1
  17.09     -.1117      1.867     -1.968     -.1106E-1  -.1806E-1  0.6650E-2  -.2471E-1
  17.23     -.1339      1.873     -1.996     -.1095E-1  -.2106E-1  0.7786E-2  -.2885E-1
  17.38     -.1596      1.867     -2.016     -.1074E-1  -.2437E-1  0.9037E-2  -.3340E-1
  17.52     -.1884      1.853     -2.030     -.1044E-1  -.2795E-1  0.1040E-1  -.3835E-1
  17.67     -.2198      1.829     -2.038     -.1004E-1  -.3179E-1  0.1186E-1  -.4365E-1
  17.82     -.2534      1.797     -2.041     -.9574E-2  -.3584E-1  0.1339E-1  -.4924E-1
  17.96     -.2887      1.758     -2.038     -.9042E-2  -.4003E-1  0.1499E-1  -.5502E-1
  18.11     -.3254      1.713     -2.030     -.8460E-2  -.4430E-1  0.1661E-1  -.6091E-1
  18.25     -.3630      1.664     -2.020     -.7846E-2  -.4853E-1  0.1823E-1  -.6676E-1
  18.40     -.4013      1.612     -2.006     -.7215E-2  -.5264E-1  0.1979E-1  -.7244E-1
  18.55     -.4400      1.557     -1.990     -.6584E-2  -.5651E-1  0.2127E-1  -.7778E-1
  18.69     -.4789      1.501     -1.974     -.5966E-2  -.6002E-1  0.2262E-1  -.8264E-1
  18.84     -.5179      1.444     -1.956     -.5375E-2  -.6306E-1  0.2378E-1  -.8684E-1
  18.98     -.5570      1.386     -1.938     -.4823E-2  -.6552E-1  0.2473E-1  -.9026E-1
  19.13     -.5959      1.329     -1.921     -.4317E-2  -.6733E-1  0.2543E-1  -.9276E-1
  19.28     -.6346      1.272     -1.903     -.3863E-2  -.6841E-1  0.2587E-1  -.9428E-1
  19.42     -.6730      1.216     -1.886     -.3462E-2  -.6875E-1  0.2602E-1  -.9477E-1
  19.57     -.7111      1.161     -1.869     -.3116E-2  -.6834E-1  0.2588E-1  -.9422E-1
  19.71     -.7489      1.107     -1.853     -.2820E-2  -.6721E-1  0.2548E-1  -.9269E-1
  19.86     -.7863      1.053     -1.837     -.2570E-2  -.6543E-1  0.2484E-1  -.9027E-1
  20.01     -.8234      1.000     -1.821     -.2361E-2  -.6309E-1  0.2399E-1  -.8707E-1
  20.15     -.8601     0.9481     -1.806     -.2183E-2  -.6028E-1  0.2296E-1  -.8324E-1
  20.30     -.8965     0.8970     -1.791     -.2030E-2  -.5712E-1  0.2180E-1  -.7892E-1
  20.44     -.9326     0.8469     -1.778     -.1895E-2  -.5373E-1  0.2056E-1  -.7429E-1
  20.59     -.9685     0.7978     -1.765     -.1770E-2  -.5020E-1  0.1928E-1  -.6948E-1
  20.74     -1.004     0.7498     -1.752     -.1648E-2  -.4666E-1  0.1799E-1  -.6464E-1
  20.88     -1.040     0.7031     -1.741     -.1524E-2  -.4317E-1  0.1673E-1  -.5989E-1
  21.03     -1.075     0.6575     -1.731     -.1392E-2  -.3981E-1  0.1552E-1  -.5533E-1
  21.17     -1.109     0.6132     -1.721     -.1248E-2  -.3664E-1  0.1439E-1  -.5104E-1
  21.32     -1.143     0.5700     -1.712     -.1089E-2  -.3370E-1  0.1336E-1  -.4707E-1
  21.47     -1.175     0.5280     -1.703     -.9100E-3  -.3102E-1  0.1243E-1  -.4346E-1
  21.61     -1.207     0.4870     -1.693     -.7094E-3  -.2861E-1  0.1162E-1  -.4023E-1
  21.76     -1.237     0.4469     -1.684     -.4849E-3  -.2648E-1  0.1092E-1  -.3740E-1
  21.90     -1.266     0.4076     -1.673     -.2347E-3  -.2463E-1  0.1033E-1  -.3496E-1
  22.05     -1.292     0.3692     -1.661     0.4221E-4  -.2305E-1  0.9858E-2  -.3291E-1
  22.20     -1.317     0.3313     -1.648     0.3465E-3  -.2172E-1  0.9491E-2  -.3121E-1
  22.34     -1.339     0.2941     -1.634     0.6781E-3  -.2063E-1  0.9225E-2  -.2986E-1
  22.49     -1.359     0.2573     -1.617     0.1036E-2  -.1977E-1  0.9053E-2  -.2882E-1
  22.63     -1.376     0.2211     -1.598     0.1420E-2  -.1910E-1  0.8967E-2  -.2807E-1
  22.78     -1.391     0.1853     -1.578     0.1826E-2  -.1861E-1  0.8957E-2  -.2757E-1
  22.93     -1.403     0.1500     -1.555     0.2252E-2  -.1828E-1  0.9014E-2  -.2730E-1
  23.07     -1.413     0.1153     -1.531     0.2693E-2  -.1809E-1  0.9126E-2  -.2722E-1
  23.22     -1.420     0.8134E-1  -1.505     0.3143E-2  -.1800E-1  0.9283E-2  -.2729E-1
  23.36     -1.425     0.4821E-1  -1.477     0.3596E-2  -.1800E-1  0.9470E-2  -.2747E-1
  23.51     -1.427     0.1614E-1  -1.448     0.4043E-2  -.1806E-1  0.9675E-2  -.2774E-1
  23.66     -1.428     -.1467E-1  -1.417     0.4476E-2  -.1815E-1  0.9883E-2  -.2803E-1
  23.80     -1.426     -.4396E-1  -1.386     0.4886E-2  -.1825E-1  0.1008E-1  -.2833E-1
  23.95     -1.421     -.7153E-1  -1.355     0.5264E-2  -.1833E-1  0.1025E-1  -.2859E-1
  24.10     -1.415     -.9718E-1  -1.324     0.5603E-2  -.1838E-1  0.1039E-1  -.2877E-1
  24.24     -1.407     -.1208     -1.292     0.5896E-2  -.1836E-1  0.1048E-1  -.2884E-1
  24.39     -1.398     -.1422     -1.262     0.6138E-2  -.1827E-1  0.1051E-1  -.2878E-1
  24.53     -1.386     -.1615     -1.231     0.6328E-2  -.1810E-1  0.1048E-1  -.2858E-1
  24.68     -1.374     -.1787     -1.202     0.6464E-2  -.1784E-1  0.1039E-1  -.2823E-1
  24.83     -1.360     -.1940     -1.173     0.6550E-2  -.1749E-1  0.1023E-1  -.2772E-1
  24.97     -1.346     -.2077     -1.145     0.6592E-2  -.1706E-1  0.1001E-1  -.2707E-1
  25.12     -1.331     -.2199     -1.118     0.6594E-2  -.1655E-1  0.9745E-2  -.2630E-1
  25.26     -1.316     -.2310     -1.092     0.6565E-2  -.1598E-1  0.9432E-2  -.2541E-1
  25.41     -1.301     -.2412     -1.066     0.6512E-2  -.1535E-1  0.9082E-2  -.2444E-1
  25.56     -1.286     -.2508     -1.042     0.6445E-2  -.1469E-1  0.8703E-2  -.2339E-1
  25.70     -1.271     -.2601     -1.018     0.6368E-2  -.1400E-1  0.8304E-2  -.2230E-1
  25.85     -1.257     -.2690     -.9945     0.6290E-2  -.1329E-1  0.7892E-2  -.2118E-1
  25.99     -1.244     -.2778     -.9720     0.6214E-2  -.1257E-1  0.7473E-2  -.2005E-1
  26.14     -1.231     -.2865     -.9503     0.6142E-2  -.1185E-1  0.7051E-2  -.1891E-1
  26.29     -1.218     -.2950     -.9290     0.6078E-2  -.1114E-1  0.6630E-2  -.1777E-1
  26.43     -1.205     -.3031     -.9083     0.6020E-2  -.1043E-1  0.6214E-2  -.1664E-1
  26.58     -1.193     -.3108     -.8878     0.5966E-2  -.9734E-2  0.5805E-2  -.1554E-1
  26.72     -1.179     -.3177     -.8674     0.5916E-2  -.9053E-2  0.5404E-2  -.1446E-1
  26.87     -1.165     -.3238     -.8469     0.5864E-2  -.8389E-2  0.5014E-2  -.1340E-1
  27.02     -1.149     -.3287     -.8261     0.5808E-2  -.7746E-2  0.4636E-2  -.1238E-1
  27.16     -1.131     -.3322     -.8046     0.5742E-2  -.7127E-2  0.4272E-2  -.1140E-1
  27.31     -1.111     -.3341     -.7822     0.5665E-2  -.6532E-2  0.3922E-2  -.1045E-1
  27.45     -1.087     -.3342     -.7586     0.5571E-2  -.5966E-2  0.3588E-2  -.9554E-2
  27.60     -1.061     -.3323     -.7338     0.5460E-2  -.5428E-2  0.3271E-2  -.8700E-2
  27.75     -1.031     -.3285     -.7076     0.5330E-2  -.4922E-2  0.2972E-2  -.7894E-2
  27.89     -.9977     -.3228     -.6801     0.5181E-2  -.4447E-2  0.2691E-2  -.7138E-2
  28.04     -.9615     -.3153     -.6512     0.5015E-2  -.4004E-2  0.2428E-2  -.6432E-2
  28.18     -.9226     -.3062     -.6212     0.4835E-2  -.3594E-2  0.2184E-2  -.5778E-2
  28.33     -.8816     -.2958     -.5905     0.4643E-2  -.3215E-2  0.1958E-2  -.5174E-2
  28.48     -.8391     -.2844     -.5592     0.4444E-2  -.2868E-2  0.1751E-2  -.4619E-2
  28.62     -.7959     -.2722     -.5279     0.4242E-2  -.2551E-2  0.1560E-2  -.4112E-2
  28.77     -.7526     -.2597     -.4970     0.4042E-2  -.2264E-2  0.1387E-2  -.3651E-2
  28.91     -.7101     -.2471     -.4668     0.3849E-2  -.2004E-2  0.1230E-2  -.3234E-2
  29.06     -.6691     -.2348     -.4380     0.3666E-2  -.1769E-2  0.1088E-2  -.2858E-2
  29.21     -.6302     -.2230     -.4107     0.3497E-2  -.1560E-2  0.9611E-3  -.2521E-2
  29.35     -.5938     -.2119     -.3853     0.3342E-2  -.1372E-2  0.8472E-3  -.2219E-2
  29.50     -.5604     -.2015     -.3621     0.3204E-2  -.1205E-2  0.7456E-3  -.1951E-2
  29.64     -.5301     -.1919     -.3413     0.3083E-2  -.1058E-2  0.6553E-3  -.1713E-2
  29.79     -.5029     -.1831     -.3228     0.2977E-2  -.9268E-3  0.5754E-3  -.1502E-2
  29.94     -.4789     -.1751     -.3067     0.2886E-2  -.8115E-3  0.5048E-3  -.1316E-2
  30.08     -.4578     -.1676     -.2930     0.2806E-2  -.7101E-3  0.4426E-3  -.1153E-2
  30.23     -.4392     -.1605     -.2814     0.2736E-2  -.6210E-3  0.3880E-3  -.1009E-2
  30.37     -.4230     -.1537     -.2719     0.2671E-2  -.5429E-3  0.3400E-3  -.8829E-3
  30.52     -.4086     -.1469     -.2643     0.2608E-2  -.4746E-3  0.2979E-3  -.7725E-3
  30.67     -.3956     -.1399     -.2583     0.2545E-2  -.4148E-3  0.2611E-3  -.6758E-3
  30.81     -.3839     -.1326     -.2537     0.2479E-2  -.3625E-3  0.2288E-3  -.5913E-3
  30.96     -.3729     -.1249     -.2503     0.2408E-2  -.3168E-3  0.2005E-3  -.5173E-3
  31.10     -.3625     -.1168     -.2480     0.2330E-2  -.2768E-3  0.1758E-3  -.4526E-3
  31.25     -.3524     -.1081     -.2466     0.2246E-2  -.2419E-3  0.1541E-3  -.3960E-3
  31.40     -.3428     -.9896E-1  -.2459     0.2155E-2  -.2114E-3  0.1351E-3  -.3464E-3
  31.54     -.3334     -.8947E-1  -.2460     0.2058E-2  -.1847E-3  0.1184E-3  -.3031E-3
  31.69     -.3243     -.7975E-1  -.2465     0.1958E-2  -.1613E-3  0.1038E-3  -.2651E-3
  31.83     -.3157     -.6997E-1  -.2476     0.1855E-2  -.1409E-3  0.9099E-4  -.2319E-3
  31.98     -.3077     -.6032E-1  -.2491     0.1752E-2  -.1231E-3  0.7975E-4  -.2028E-3
  32.13     -.3002     -.5099E-1  -.2509     0.1650E-2  -.1075E-3  0.6990E-4  -.1774E-3
  32.27     -.2935     -.4217E-1  -.2529     0.1552E-2  -.9385E-4  0.6128E-4  -.1551E-3
  32.42     -.2876     -.3403E-1  -.2551     0.1460E-2  -.8197E-4  0.5376E-4  -.1357E-3
  32.56     -.2825     -.2671E-1  -.2572     0.1374E-2  -.7163E-4  0.4719E-4  -.1188E-3
  32.71     -.2783     -.2034E-1  -.2592     0.1295E-2  -.6264E-4  0.4149E-4  -.1041E-3
  32.86     -.2747     -.1498E-1  -.2610     0.1225E-2  -.5484E-4  0.3655E-4  -.9139E-4
  33.00     -.2719     -.1069E-1  -.2624     0.1162E-2  -.4809E-4  0.3229E-4  -.8038E-4
  33.15     -.2697     -.7454E-2  -.2633     0.1106E-2  -.4228E-4  0.2865E-4  -.7093E-4
  33.29     -.2679     -.5247E-2  -.2637     0.1058E-2  -.3730E-4  0.2555E-4  -.6286E-4
  33.44     -.2665     -.4002E-2  -.2635     0.1017E-2  -.3306E-4  0.2296E-4  -.5602E-4
  33.59     -.2653     -.3628E-2  -.2627     0.9821E-3  -.2948E-4  0.2081E-4  -.5029E-4
  33.73     -.2643     -.4020E-2  -.2613     0.9522E-3  -.2649E-4  0.1908E-4  -.4558E-4
  33.88     -.2634     -.5063E-2  -.2593     0.9268E-3  -.2405E-4  0.1774E-4  -.4178E-4
  34.03     -.2625     -.6645E-2  -.2568     0.9054E-3  -.2209E-4  0.1675E-4  -.3884E-4
  34.17     -.2616     -.8658E-2  -.2538     0.8875E-3  -.2059E-4  0.1611E-4  -.3670E-4
  34.32     -.2606     -.1101E-1  -.2504     0.8726E-3  -.1952E-4  0.1580E-4  -.3533E-4
  34.46     -.2595     -.1363E-1  -.2467     0.8606E-3  -.1886E-4  0.1583E-4  -.3468E-4
  34.61     -.2584     -.1646E-1  -.2428     0.8514E-3  -.1859E-4  0.1618E-4  -.3477E-4
  34.76     -.2575     -.1948E-1  -.2388     0.8451E-3  -.1871E-4  0.1687E-4  -.3558E-4
  34.90     -.2566     -.2268E-1  -.2348     0.8422E-3  -.1922E-4  0.1792E-4  -.3715E-4
  35.05     -.2560     -.2608E-1  -.2308     0.8430E-3  -.2015E-4  0.1935E-4  -.3950E-4
  35.19     -.2559     -.2971E-1  -.2270     0.8480E-3  -.2150E-4  0.2119E-4  -.4269E-4
  35.34     -.2563     -.3363E-1  -.2236     0.8580E-3  -.2330E-4  0.2349E-4  -.4679E-4
  35.49     -.2575     -.3788E-1  -.2205     0.8735E-3  -.2560E-4  0.2628E-4  -.5188E-4
  35.63     -.2596     -.4254E-1  -.2179     0.8953E-3  -.2845E-4  0.2962E-4  -.5807E-4
  35.78     -.2627     -.4768E-1  -.2160     0.9240E-3  -.3190E-4  0.3360E-4  -.6550E-4
  35.92     -.2671     -.5335E-1  -.2147     0.9602E-3  -.3603E-4  0.3830E-4  -.7433E-4
  36.07     -.2727     -.5962E-1  -.2141     0.1004E-2  -.4093E-4  0.4380E-4  -.8473E-4
  36.22     -.2798     -.6655E-1  -.2143     0.1057E-2  -.4670E-4  0.5024E-4  -.9694E-4
  36.36     -.2883     -.7417E-1  -.2152     0.1119E-2  -.5346E-4  0.5775E-4  -.1112E-3
  36.51     -.2982     -.8251E-1  -.2169     0.1189E-2  -.6135E-4  0.6649E-4  -.1278E-3
  36.65     -.3096     -.9157E-1  -.2193     0.1269E-2  -.7056E-4  0.7664E-4  -.1472E-3
  36.80     -.3224     -.1014     -.2224     0.1357E-2  -.8126E-4  0.8841E-4  -.1697E-3
  36.95     -.3365     -.1118     -.2261     0.1454E-2  -.9368E-4  0.1021E-3  -.1957E-3
  37.09     -.3518     -.1229     -.2304     0.1560E-2  -.1081E-3  0.1179E-3  -.2260E-3
  37.24     -.3681     -.1346     -.2352     0.1673E-2  -.1248E-3  0.1362E-3  -.2610E-3
  37.38     -.3852     -.1467     -.2403     0.1793E-2  -.1442E-3  0.1574E-3  -.3015E-3
  37.53     -.4030     -.1591     -.2458     0.1919E-2  -.1666E-3  0.1819E-3  -.3485E-3
  37.68     -.4211     -.1717     -.2514     0.2050E-2  -.1925E-3  0.2103E-3  -.4028E-3
  37.82     -.4392     -.1842     -.2572     0.2184E-2  -.2225E-3  0.2431E-3  -.4656E-3
  37.97     -.4572     -.1966     -.2629     0.2321E-2  -.2572E-3  0.2811E-3  -.5383E-3
  38.11     -.4746     -.2086     -.2685     0.2459E-2  -.2973E-3  0.3250E-3  -.6223E-3
  38.26     -.4914     -.2201     -.2739     0.2597E-2  -.3437E-3  0.3757E-3  -.7194E-3
  38.41     -.5073     -.2309     -.2792     0.2734E-2  -.3974E-3  0.4343E-3  -.8317E-3
  38.55     -.5222     -.2409     -.2841     0.2872E-2  -.4594E-3  0.5020E-3  -.9614E-3
  38.70     -.5361     -.2502     -.2889     0.3009E-2  -.5310E-3  0.5803E-3  -.1111E-2
  38.84     -.5491     -.2587     -.2935     0.3148E-2  -.6138E-3  0.6707E-3  -.1284E-2
  38.99     -.5613     -.2665     -.2981     0.3290E-2  -.7094E-3  0.7750E-3  -.1484E-2
  39.14     -.5730     -.2738     -.3026     0.3438E-2  -.8197E-3  0.8955E-3  -.1715E-2
  39.28     -.5846     -.2808     -.3074     0.3594E-2  -.9471E-3  0.1034E-2  -.1982E-2
  39.43     -.5964     -.2876     -.3126     0.3764E-2  -.1094E-2  0.1195E-2  -.2289E-2
  39.57     -.6089     -.2946     -.3183     0.3949E-2  -.1264E-2  0.1380E-2  -.2643E-2
  39.72     -.6223     -.3019     -.3246     0.4154E-2  -.1459E-2  0.1592E-2  -.3051E-2
  39.87     -.6371     -.3098     -.3317     0.4383E-2  -.1684E-2  0.1838E-2  -.3522E-2
  40.01     -.6534     -.3185     -.3396     0.4638E-2  -.1943E-2  0.2120E-2  -.4063E-2
  40.16     -.6715     -.3281     -.3483     0.4923E-2  -.2242E-2  0.2444E-2  -.4686E-2
  40.30     -.6912     -.3387     -.3578     0.5239E-2  -.2584E-2  0.2817E-2  -.5401E-2
  40.45     -.7127     -.3503     -.3680     0.5588E-2  -.2978E-2  0.3245E-2  -.6223E-2
  40.60     -.7356     -.3629     -.3786     0.5971E-2  -.3430E-2  0.3735E-2  -.7165E-2
  40.74     -.7597     -.3765     -.3896     0.6388E-2  -.3948E-2  0.4297E-2  -.8245E-2
  40.89     -.7846     -.3909     -.4006     0.6837E-2  -.4541E-2  0.4939E-2  -.9480E-2
  41.03     -.8100     -.4059     -.4114     0.7318E-2  -.5220E-2  0.5673E-2  -.1089E-1
  41.18     -.8353     -.4214     -.4218     0.7829E-2  -.5994E-2  0.6510E-2  -.1250E-1
  41.33     -.8601     -.4371     -.4314     0.8368E-2  -.6877E-2  0.7462E-2  -.1434E-1
  41.47     -.8840     -.4528     -.4401     0.8931E-2  -.7882E-2  0.8545E-2  -.1643E-1
  41.62     -.9064     -.4683     -.4476     0.9516E-2  -.9024E-2  0.9773E-2  -.1880E-1
  41.76     -.9272     -.4835     -.4538     0.1012E-1  -.1032E-1  0.1116E-1  -.2148E-1
  41.91     -.9459     -.4982     -.4584     0.1075E-1  -.1178E-1  0.1273E-1  -.2451E-1
  42.06     -.9623     -.5121     -.4616     0.1139E-1  -.1343E-1  0.1450E-1  -.2793E-1
  42.20     -.9763     -.5253     -.4631     0.1204E-1  -.1528E-1  0.1648E-1  -.3176E-1
  42.35     -.9878     -.5376     -.4630     0.1271E-1  -.1736E-1  0.1870E-1  -.3606E-1
  42.49     -.9969     -.5490     -.4613     0.1341E-1  -.1968E-1  0.2117E-1  -.4086E-1
  42.64     -1.003     -.5595     -.4581     0.1412E-1  -.2226E-1  0.2392E-1  -.4618E-1
  42.79     -1.008     -.5692     -.4535     0.1486E-1  -.2512E-1  0.2696E-1  -.5208E-1
  42.93     -1.010     -.5781     -.4476     0.1562E-1  -.2826E-1  0.3030E-1  -.5856E-1
  43.08     -1.011     -.5864     -.4406     0.1642E-1  -.3170E-1  0.3395E-1  -.6566E-1
  43.23     -1.009     -.5942     -.4325     0.1725E-1  -.3544E-1  0.3792E-1  -.7336E-1
  43.37     -1.007     -.6016     -.4236     0.1813E-1  -.3947E-1  0.4220E-1  -.8167E-1
  43.52     -1.004     -.6088     -.4141     0.1905E-1  -.4378E-1  0.4677E-1  -.9055E-1
  43.66     -.9999     -.6159     -.4040     0.2001E-1  -.4833E-1  0.5161E-1  -.9993E-1
  43.81     -.9956     -.6230     -.3935     0.2100E-1  -.5308E-1  0.5666E-1  -.1097   
  43.96     -.9911     -.6302     -.3829     0.2203E-1  -.5798E-1  0.6189E-1  -.1199   
  44.10     -.9866     -.6374     -.3723     0.2307E-1  -.6294E-1  0.6719E-1  -.1301   
  44.25     -.9823     -.6446     -.3618     0.2412E-1  -.6787E-1  0.7248E-1  -.1404   
  44.39     -.9781     -.6517     -.3516     0.2515E-1  -.7268E-1  0.7766E-1  -.1503   
  44.54     -.9741     -.6585     -.3418     0.2613E-1  -.7723E-1  0.8259E-1  -.1598   
  44.69     -.9702     -.6647     -.3325     0.2704E-1  -.8141E-1  0.8716E-1  -.1686   
  44.83     -.9662     -.6701     -.3239     0.2785E-1  -.8510E-1  0.9122E-1  -.1763   
  44.98     -.9620     -.6745     -.3160     0.2854E-1  -.8819E-1  0.9467E-1  -.1829   
  45.12     -.9575     -.6776     -.3089     0.2907E-1  -.9057E-1  0.9740E-1  -.1880   
  45.27     -.9526     -.6793     -.3027     0.2943E-1  -.9218E-1  0.9932E-1  -.1915   
  45.42     -.9472     -.6793     -.2975     0.2961E-1  -.9297E-1  0.1004     -.1934   
  45.56     -.9414     -.6778     -.2932     0.2959E-1  -.9291E-1  0.1006     -.1935   
  45.71     -.9351     -.6746     -.2899     0.2938E-1  -.9204E-1  0.9988E-1  -.1919   
  45.85     -.9285     -.6699     -.2875     0.2899E-1  -.9040E-1  0.9837E-1  -.1888   
  46.00     -.9217     -.6639     -.2862     0.2844E-1  -.8806E-1  0.9611E-1  -.1842   
  46.15     -.9150     -.6570     -.2858     0.2774E-1  -.8513E-1  0.9319E-1  -.1783   
  46.29     -.9085     -.6492     -.2862     0.2693E-1  -.8171E-1  0.8975E-1  -.1715   
  46.44     -.9026     -.6411     -.2876     0.2603E-1  -.7793E-1  0.8591E-1  -.1638   
  46.58     -.8974     -.6328     -.2897     0.2508E-1  -.7390E-1  0.8179E-1  -.1557   
  46.73     -.8931     -.6247     -.2925     0.2409E-1  -.6976E-1  0.7752E-1  -.1473   
  46.88     -.8899     -.6169     -.2960     0.2311E-1  -.6560E-1  0.7323E-1  -.1388   
  47.02     -.8878     -.6098     -.3001     0.2214E-1  -.6152E-1  0.6902E-1  -.1305   
  47.17     -.8868     -.6033     -.3047     0.2121E-1  -.5759E-1  0.6496E-1  -.1226   
  47.31     -.8869     -.5975     -.3097     0.2033E-1  -.5388E-1  0.6113E-1  -.1150   
  47.46     -.8880     -.5925     -.3151     0.1951E-1  -.5043E-1  0.5757E-1  -.1080   
  47.61     -.8899     -.5881     -.3206     0.1874E-1  -.4725E-1  0.5429E-1  -.1015   
  47.75     -.8924     -.5842     -.3262     0.1803E-1  -.4435E-1  0.5132E-1  -.9567E-1
  47.90     -.8951     -.5806     -.3319     0.1737E-1  -.4173E-1  0.4862E-1  -.9035E-1
  48.04     -.8978     -.5771     -.3374     0.1675E-1  -.3936E-1  0.4619E-1  -.8555E-1
  48.19     -.9001     -.5736     -.3426     0.1616E-1  -.3722E-1  0.4399E-1  -.8121E-1
  48.34     -.9018     -.5699     -.3474     0.1559E-1  -.3528E-1  0.4198E-1  -.7726E-1
  48.48     -.9026     -.5658     -.3518     0.1505E-1  -.3351E-1  0.4014E-1  -.7365E-1
  48.63     -.9024     -.5613     -.3556     0.1451E-1  -.3188E-1  0.3842E-1  -.7030E-1
  48.77     -.9012     -.5563     -.3588     0.1397E-1  -.3037E-1  0.3681E-1  -.6718E-1
  48.92     -.8989     -.5509     -.3615     0.1344E-1  -.2896E-1  0.3528E-1  -.6425E-1
  49.07     -.8958     -.5452     -.3635     0.1293E-1  -.2765E-1  0.3384E-1  -.6149E-1
  49.21     -.8923     -.5396     -.3651     0.1243E-1  -.2643E-1  0.3248E-1  -.5892E-1
  49.36     -.8886     -.5341     -.3664     0.1196E-1  -.2532E-1  0.3122E-1  -.5654E-1
  49.50     -.8852     -.5293     -.3674     0.1153E-1  -.2432E-1  0.3009E-1  -.5440E-1
  49.65     -.8828     -.5255     -.3684     0.1116E-1  -.2345E-1  0.2909E-1  -.5254E-1
  49.80     -.8817     -.5230     -.3695     0.1086E-1  -.2273E-1  0.2828E-1  -.5101E-1
  49.94     -.8825     -.5223     -.3708     0.1065E-1  -.2219E-1  0.2768E-1  -.4987E-1
  50.09     -.8855     -.5235     -.3726     0.1054E-1  -.2185E-1  0.2732E-1  -.4918E-1
  50.23     -.8911     -.5269     -.3747     0.1053E-1  -.2174E-1  0.2724E-1  -.4897E-1
  50.38     -.8994     -.5327     -.3774     0.1063E-1  -.2186E-1  0.2745E-1  -.4931E-1
  50.53     -.9105     -.5408     -.3805     0.1086E-1  -.2224E-1  0.2799E-1  -.5023E-1
  50.67     -.9242     -.5513     -.3841     0.1121E-1  -.2289E-1  0.2886E-1  -.5175E-1
  50.82     -.9403     -.5640     -.3880     0.1167E-1  -.2381E-1  0.3009E-1  -.5390E-1
  50.96     -.9583     -.5785     -.3920     0.1225E-1  -.2502E-1  0.3167E-1  -.5669E-1
  51.11     -.9779     -.5947     -.3961     0.1294E-1  -.2650E-1  0.3360E-1  -.6011E-1
  51.26     -.9983     -.6120     -.4001     0.1372E-1  -.2825E-1  0.3588E-1  -.6413E-1
  51.40     -1.019     -.6300     -.4036     0.1458E-1  -.3024E-1  0.3846E-1  -.6870E-1
  51.55     -1.039     -.6482     -.4067     0.1551E-1  -.3246E-1  0.4133E-1  -.7378E-1
  51.69     -1.059     -.6661     -.4090     0.1648E-1  -.3485E-1  0.4442E-1  -.7927E-1
  51.84     -1.076     -.6831     -.4105     0.1748E-1  -.3737E-1  0.4768E-1  -.8506E-1
  51.99     -1.091     -.6986     -.4111     0.1848E-1  -.3996E-1  0.5104E-1  -.9100E-1
  52.13     -1.103     -.7121     -.4106     0.1945E-1  -.4256E-1  0.5439E-1  -.9695E-1
  52.28     -1.112     -.7232     -.4091     0.2036E-1  -.4507E-1  0.5764E-1  -.1027   
  52.42     -1.117     -.7313     -.4066     0.2119E-1  -.4742E-1  0.6069E-1  -.1081   
  52.57     -1.117     -.7361     -.4030     0.2190E-1  -.4952E-1  0.6341E-1  -.1129   
  52.72     -1.114     -.7374     -.3986     0.2247E-1  -.5129E-1  0.6572E-1  -.1170   
  52.86     -1.106     -.7350     -.3934     0.2288E-1  -.5265E-1  0.6751E-1  -.1202   
  53.01     -1.093     -.7288     -.3875     0.2311E-1  -.5355E-1  0.6871E-1  -.1223   
  53.16     -1.077     -.7189     -.3812     0.2315E-1  -.5395E-1  0.6928E-1  -.1232   
  53.30     -1.057     -.7055     -.3744     0.2301E-1  -.5383E-1  0.6919E-1  -.1230   
  53.45     -1.034     -.6889     -.3675     0.2268E-1  -.5320E-1  0.6845E-1  -.1217   
  53.59     -1.008     -.6696     -.3605     0.2219E-1  -.5209E-1  0.6711E-1  -.1192   
  53.74     -.9802     -.6481     -.3537     0.2156E-1  -.5055E-1  0.6523E-1  -.1158   
  53.89     -.9510     -.6248     -.3470     0.2081E-1  -.4866E-1  0.6291E-1  -.1116   
  54.03     -.9212     -.6005     -.3407     0.1999E-1  -.4649E-1  0.6024E-1  -.1067   
  54.18     -.8913     -.5755     -.3349     0.1911E-1  -.4412E-1  0.5735E-1  -.1015   
  54.32     -.8620     -.5506     -.3296     0.1821E-1  -.4166E-1  0.5435E-1  -.9601E-1
  54.47     -.8338     -.5261     -.3250     0.1732E-1  -.3917E-1  0.5135E-1  -.9052E-1
  54.62     -.8073     -.5026     -.3212     0.1649E-1  -.3675E-1  0.4845E-1  -.8520E-1
  54.76     -.7830     -.4804     -.3184     0.1572E-1  -.3445E-1  0.4574E-1  -.8019E-1
  54.91     -.7614     -.4599     -.3165     0.1504E-1  -.3234E-1  0.4331E-1  -.7565E-1
  55.05     -.7427     -.4414     -.3158     0.1448E-1  -.3047E-1  0.4122E-1  -.7169E-1
  55.20     -.7276     -.4252     -.3164     0.1404E-1  -.2888E-1  0.3953E-1  -.6841E-1
  55.35     -.7163     -.4115     -.3186     0.1376E-1  -.2760E-1  0.3829E-1  -.6589E-1
  55.49     -.7094     -.4006     -.3224     0.1363E-1  -.2666E-1  0.3753E-1  -.6419E-1
  55.64     -.7072     -.3928     -.3281     0.1368E-1  -.2607E-1  0.3730E-1  -.6338E-1
  55.78     -.7102     -.3882     -.3360     0.1391E-1  -.2587E-1  0.3763E-1  -.6350E-1
  55.93     -.7190     -.3871     -.3462     0.1434E-1  -.2605E-1  0.3854E-1  -.6459E-1
  56.08     -.7339     -.3897     -.3591     0.1498E-1  -.2665E-1  0.4005E-1  -.6670E-1
  56.22     -.7553     -.3962     -.3749     0.1583E-1  -.2766E-1  0.4221E-1  -.6987E-1
  56.37     -.7837     -.4068     -.3938     0.1692E-1  -.2911E-1  0.4502E-1  -.7414E-1
  56.51     -.8192     -.4215     -.4159     0.1824E-1  -.3100E-1  0.4853E-1  -.7953E-1
  56.66     -.8622     -.4406     -.4414     0.1981E-1  -.3335E-1  0.5274E-1  -.8609E-1
  56.81     -.9126     -.4638     -.4704     0.2163E-1  -.3616E-1  0.5768E-1  -.9384E-1
  56.95     -.9704     -.4912     -.5029     0.2370E-1  -.3944E-1  0.6335E-1  -.1028   
  57.10     -1.035     -.5227     -.5387     0.2603E-1  -.4318E-1  0.6976E-1  -.1129   
  57.24     -1.107     -.5578     -.5778     0.2861E-1  -.4737E-1  0.7690E-1  -.1243   
  57.39     -1.185     -.5963     -.6198     0.3142E-1  -.5199E-1  0.8473E-1  -.1367   
  57.54     -1.268     -.6377     -.6645     0.3445E-1  -.5702E-1  0.9321E-1  -.1502   
  57.68     -1.355     -.6814     -.7113     0.3767E-1  -.6239E-1  0.1023     -.1646   
  57.83     -1.446     -.7269     -.7599     0.4104E-1  -.6805E-1  0.1118     -.1798   
  57.97     -1.539     -.7735     -.8095     0.4453E-1  -.7392E-1  0.1216     -.1955   
  58.12     -1.632     -.8205     -.8597     0.4807E-1  -.7990E-1  0.1317     -.2115   
  58.27     -1.725     -.8671     -.9098     0.5162E-1  -.8587E-1  0.1417     -.2275   
  58.41     -1.817     -.9128     -.9592     0.5509E-1  -.9172E-1  0.1515     -.2432   
  58.56     -1.906     -.9569     -1.007     0.5843E-1  -.9731E-1  0.1609     -.2582   
  58.70429   -1.99118   -0.99881   -1.05394    0.06157   -0.10250    0.16958   -0.27208
  58.85032   -2.07209   -1.03817   -1.09836    0.06444   -0.10717    0.17742   -0.28459
  58.99635   -2.14806   -1.07464   -1.14039    0.06698   -0.11120    0.18418   -0.29539
  59.14238   -2.21872   -1.10801   -1.17984    0.06913   -0.11450    0.18970   -0.30420
  59.28841   -2.28393   -1.13820   -1.21660    0.07087   -0.11698    0.19385   -0.31083
  59.43444   -2.34372   -1.16524   -1.25065    0.07216   -0.11862    0.19655   -0.31517
  59.58047   -2.39828   -1.18927   -1.28200    0.07299   -0.11941    0.19777   -0.31719
  59.72650   -2.44788   -1.21054   -1.31072    0.07337   -0.11938    0.19758   -0.31696
  59.87254   -2.49288   -1.22936   -1.33685    0.07332   -0.11860    0.19606   -0.31466
  60.01856   -2.53361   -1.24612   -1.36037    0.07288   -0.11717    0.19338   -0.31054
  60.16459   -2.57037   -1.26124   -1.38122    0.07209   -0.11522    0.18973   -0.30495
  60.31062   -2.60334   -1.27511   -1.39924    0.07101   -0.11291    0.18536   -0.29827
  60.45665   -2.63255   -1.28811   -1.41412    0.06969   -0.11040    0.18053   -0.29093
  60.60268   -2.65784   -1.30053   -1.42551    0.06820   -0.10787    0.17550   -0.28337
  60.74871   -2.67889   -1.31254   -1.43294    0.06659   -0.10548    0.17053   -0.27601
  60.89474   -2.69519   -1.32421   -1.43588    0.06489   -0.10339    0.16585   -0.26924
  61.04078   -2.70608   -1.33545   -1.43380    0.06316   -0.10175    0.16168   -0.26343
  61.18681   -2.71086   -1.34605   -1.42621    0.06140   -0.10068    0.15816   -0.25884
  61.33     -2.709     -1.356     -1.413     0.5962E-1  -.1003     0.1554     -.2557   
  61.48     -2.699     -1.364     -1.393     0.5782E-1  -.1006     0.1535     -.2542   
  61.62     -2.681     -1.370     -1.367     0.5595E-1  -.1018     0.1525     -.2543   
  61.77     -2.655     -1.374     -1.335     0.5399E-1  -.1037     0.1523     -.2560   
  61.92     -2.620     -1.375     -1.297     0.5187E-1  -.1065     0.1528     -.2593   
  62.06     -2.576     -1.373     -1.253     0.4953E-1  -.1101     0.1540     -.2641   
  62.21     -2.524     -1.366     -1.204     0.4688E-1  -.1145     0.1556     -.2701   
  62.36     -2.464     -1.356     -1.152     0.4384E-1  -.1196     0.1575     -.2772   
  62.50     -2.396     -1.341     -1.096     0.4031E-1  -.1255     0.1595     -.2850   
  62.65     -2.322     -1.321     -1.037     0.3619E-1  -.1321     0.1613     -.2934   
  62.79     -2.243     -1.297     -.9776     0.3140E-1  -.1393     0.1629     -.3022   
  62.94     -2.159     -1.268     -.9171     0.2582E-1  -.1472     0.1639     -.3111   
  63.09     -2.072     -1.234     -.8567     0.1937E-1  -.1558     0.1642     -.3200   
  63.23     -1.982     -1.197     -.7973     0.1196E-1  -.1651     0.1638     -.3288   
  63.38     -1.891     -1.156     -.7393     0.3510E-2  -.1752     0.1624     -.3376   
  63.52     -1.800     -1.111     -.6834     -.6037E-2  -.1861     0.1602     -.3463   
  63.67     -1.710     -1.063     -.6300     -.1674E-1  -.1979     0.1570     -.3549   
  63.82     -1.621     -1.013     -.5793     -.2862E-1  -.2107     0.1530     -.3637   
  63.96     -1.535     -.9616     -.5316     -.4169E-1  -.2247     0.1480     -.3727   
  64.11     -1.451     -.9084     -.4871     -.5594E-1  -.2398     0.1424     -.3821   
  64.25345   -1.37138   -0.85444   -0.44562   -0.07132   -0.25602    0.13598   -0.39200
  64.39948   -1.29534   -0.80026   -0.40734   -0.08774   -0.27341    0.12903   -0.40244
  64.54551   -1.22359   -0.74639   -0.37215   -0.10506   -0.29185    0.12162   -0.41347
  64.69154   -1.15635   -0.69330   -0.33996   -0.12308   -0.31115    0.11388   -0.42503
  64.83758   -1.09369   -0.64147   -0.31064   -0.14158   -0.33107    0.10592   -0.43699
  64.98360   -1.03557   -0.59129   -0.28404   -0.16024   -0.35124    0.09788   -0.44912
  65.12964   -0.98178   -0.54311   -0.25996   -0.17870   -0.37122    0.08986   -0.46108
  65.27567   -0.93200   -0.49722   -0.23822   -0.19656   -0.39047    0.08198   -0.47244
  65.42169   -0.88577   -0.45382   -0.21860   -0.21335   -0.40839    0.07432   -0.48271
  65.56773   -0.84256   -0.41305   -0.20088   -0.22864   -0.42433    0.06698   -0.49131
  65.71     -.8018     -.3750     -.1848     -.2419     -.4377     0.6002E-1  -.4977   
  65.86     -.7627     -.3396     -.1702     -.2529     -.4478     0.5349E-1  -.5013   
  66.01     -.7249     -.3069     -.1569     -.2611     -.4541     0.4743E-1  -.5016   
  66.15     -.6877     -.2768     -.1446     -.2663     -.4564     0.4185E-1  -.4983   
  66.30     -.6507     -.2491     -.1332     -.2683     -.4544     0.3677E-1  -.4911   
  66.44     -.6137     -.2238     -.1226     -.2673     -.4480     0.3218E-1  -.4801   
  66.59     -.5765     -.2006     -.1126     -.2632     -.4374     0.2806E-1  -.4654   
  66.74     -.5391     -.1795     -.1032     -.2563     -.4229     0.2440E-1  -.4473   
  66.88     -.5016     -.1603     -.9434E-1  -.2470     -.4051     0.2116E-1  -.4262   
  67.03     -.4644     -.1428     -.8595E-1  -.2356     -.3845     0.1830E-1  -.4028   
  67.17     -.4276     -.1270     -.7804E-1  -.2226     -.3617     0.1581E-1  -.3775   
  67.32     -.3917     -.1127     -.7061E-1  -.2084     -.3374     0.1363E-1  -.3511   
  67.47     -.3569     -.9974E-1  -.6364E-1  -.1935     -.3124     0.1175E-1  -.3241   
  67.61     -.3236     -.8813E-1  -.5716E-1  -.1783     -.2871     0.1011E-1  -.2972   
  67.76     -.2919     -.7770E-1  -.5115E-1  -.1631     -.2621     0.8699E-2  -.2708   
  67.90     -.2622     -.6838E-1  -.4562E-1  -.1482     -.2378     0.7482E-2  -.2452   
  68.05     -.2346     -.6007E-1  -.4055E-1  -.1340     -.2145     0.6435E-2  -.2209   
  68.20     -.2090     -.5268E-1  -.3594E-1  -.1204     -.1926     0.5535E-2  -.1981   
  68.34     -.1856     -.4612E-1  -.3177E-1  -.1077     -.1721     0.4761E-2  -.1768   
  68.49     -.1643     -.4033E-1  -.2800E-1  -.9595E-1  -.1531     0.4096E-2  -.1572   
  68.63     -.1450     -.3521E-1  -.2463E-1  -.8515E-1  -.1358     0.3525E-2  -.1393   
  68.78     -.1276     -.3070E-1  -.2162E-1  -.7532E-1  -.1200     0.3034E-2  -.1230   
  68.93     -.1121     -.2675E-1  -.1894E-1  -.6642E-1  -.1058     0.2613E-2  -.1084   
  69.07     -.9826E-1  -.2328E-1  -.1656E-1  -.5843E-1  -.9299E-1  0.2251E-2  -.9524E-1
  69.22     -.8597E-1  -.2024E-1  -.1446E-1  -.5127E-1  -.8157E-1  0.1939E-2  -.8351E-1
  69.36     -.7510E-1  -.1758E-1  -.1261E-1  -.4491E-1  -.7142E-1  0.1671E-2  -.7309E-1
  69.51     -.6551E-1  -.1527E-1  -.1098E-1  -.3926E-1  -.6242E-1  0.1441E-2  -.6386E-1
  69.66     -.5708E-1  -.1325E-1  -.9559E-2  -.3427E-1  -.5447E-1  0.1243E-2  -.5571E-1
  69.80     -.4968E-1  -.1149E-1  -.8310E-2  -.2988E-1  -.4748E-1  0.1072E-2  -.4855E-1
  69.95     -.4320E-1  -.9959E-2  -.7219E-2  -.2602E-1  -.4133E-1  0.9247E-3  -.4226E-1
  70.09     -.3753E-1  -.8630E-2  -.6267E-2  -.2263E-1  -.3595E-1  0.7979E-3  -.3674E-1
  70.24     -.3258E-1  -.7475E-2  -.5437E-2  -.1967E-1  -.3124E-1  0.6886E-3  -.3193E-1
  70.39     -.2827E-1  -.6472E-2  -.4714E-2  -.1708E-1  -.2712E-1  0.5944E-3  -.2772E-1
  70.53     -.2451E-1  -.5603E-2  -.4086E-2  -.1483E-1  -.2354E-1  0.5132E-3  -.2405E-1
  70.68     -.2125E-1  -.4849E-2  -.3540E-2  -.1286E-1  -.2041E-1  0.4431E-3  -.2086E-1
  70.82     -.1841E-1  -.4196E-2  -.3066E-2  -.1115E-1  -.1770E-1  0.3826E-3  -.1808E-1
  70.97     -.1594E-1  -.3630E-2  -.2655E-2  -.9660E-2  -.1533E-1  0.3304E-3  -.1566E-1
  71.12     -.1381E-1  -.3140E-2  -.2298E-2  -.8368E-2  -.1328E-1  0.2854E-3  -.1357E-1
  71.26     -.1195E-1  -.2716E-2  -.1988E-2  -.7246E-2  -.1150E-1  0.2465E-3  -.1175E-1
  71.41     -.1034E-1  -.2349E-2  -.1720E-2  -.6273E-2  -.9955E-2  0.2129E-3  -.1017E-1
  71.55     -.8948E-2  -.2031E-2  -.1488E-2  -.5429E-2  -.8615E-2  0.1839E-3  -.8799E-2
  71.70     -.7741E-2  -.1756E-2  -.1287E-2  -.4698E-2  -.7455E-2  0.1589E-3  -.7613E-2
  71.85     -.6696E-2  -.1518E-2  -.1113E-2  -.4064E-2  -.6449E-2  0.1372E-3  -.6586E-2
  71.99     -.5791E-2  -.1312E-2  -.9627E-3  -.3516E-2  -.5578E-2  0.1186E-3  -.5697E-2
  72.14     -.5008E-2  -.1134E-2  -.8324E-3  -.3041E-2  -.4825E-2  0.1024E-3  -.4927E-2
  72.29     -.4330E-2  -.9806E-3  -.7197E-3  -.2630E-2  -.4172E-2  0.8850E-4  -.4261E-2
  72.43     -.3744E-2  -.8476E-3  -.6222E-3  -.2274E-2  -.3608E-2  0.7647E-4  -.3684E-2
  72.58     -.3236E-2  -.7326E-3  -.5379E-3  -.1966E-2  -.3119E-2  0.6607E-4  -.3185E-2
  72.72     -.2798E-2  -.6332E-3  -.4650E-3  -.1700E-2  -.2697E-2  0.5708E-4  -.2754E-2
  72.87     -.2419E-2  -.5473E-3  -.4019E-3  -.1469E-2  -.2331E-2  0.4932E-4  -.2380E-2
# 
# 03/22/2016 at 14:18 YPP_PH @ anomaly [start]
# 03/22/2016 at 14:18                  [end]
#
# .-Input file : yambo.in
# | electrons                    # [R] Electrons (and holes)
# | eliashberg                   # [R] Eliashberg
# | BoseTemp= 0.000000     eV    # Bosonic Temperature
# | PhBroad=0.1000E-2      eV    # Phonon broadening (Eliashberg & DOS)
# | PhStps=  500                 # Energy steps
# | %QPkrange                    #  generalized Kpoint/Band indices
# |   1|  1|  2|  4|
# |   7|  7|  5|  6|
# | %
