#  __      __   ______   __       __  _______    ______               
# |  \    /  \ /      \ |  \     /  \|       \  /      \              
#  \$$\  /  $$|  $$$$$$\| $$\   /  $$| $$$$$$$\|  $$$$$$\             
#   \$$\/  $$ | $$__| $$| $$$\ /  $$$| $$__/ $$| $$  | $$             
#    \$$  $$  | $$    $$| $$$$\  $$$$| $$    $$| $$  | $$             
#     \$$$$   | $$$$$$$$| $$\$$ $$ $$| $$$$$$$\| $$  | $$             
#     | $$    | $$  | $$| $$ \$$$| $$| $$__/ $$| $$__/ $$             
#     | $$    | $$  | $$| $$  \$ | $$| $$    $$ \$$    $$             
#      \$$     \$$   \$$ \$$      \$$ \$$$$$$$   \$$$$$$              
#                                                                     
# Version 5.2.0 Revision 22506 Hash (prev commit) baac8a203           
#                Branch is fixes-issue-540                            
#         MPI+OpenMP+SLK+SLEPC+HDF5_MPI_IO Build                      
#                http://www.yambo-code.org                            
#
# Polarizability  ( -<<X>> ) @ Q(1):   1.00000000      0.00000000      0.00000000    [q->0 direction]
#
# Polarizability units: length
#
# [GEN] GF Energies                               : Slater exchange(X)+Perdew & Zunger(C)
# [GEN] Green`s Function                          : Retarded
#
# [GEN] Gauge                                     : Length
# [GEN] [r,Vnl] included                          : yes
#
# DIP band range                                  :  11  15
# DIP band range limits                           :  13  14
# DIP e/h energy range                            :  -1.00000000     -1.00000000    [eV]
# RL vectors in the sum                           :   8845
# [r,Vnl] included                                : yes
# Bands ordered                                   : yes
# Direct v evaluation                             : no
# Approach used                                   : G-space v
# Dipoles computed                                : R V P
# Wavefunctions                                   : Slater exchange(X)+Perdew & Zunger(C)
#
#
# [K] Identifier                                  :   9826
# [K] Dimension                                   :   54
# [K] Bands                                       :  11  15
# [K] Exchange res                                : yes
# [K] Correlation res                             : no
# [K] Kernel`s coupling                           : no
# [K] Exchange cpl                                : no
# [K] Correlation cpl                             : no
# [K] W interaction is bare                       : no
# [K] ALDA kernel in R-space                      : no
# [K] RL vectors exchange                         :  109
# [K] E/h energy range                            :  -1.00000000     -1.00000000    [eV]
# [K] Coupling range                              :   100.000000      100.000000    [o/o]
# [X] Response Kind                               : BAR
#
#
#    E[1] [eV]          Im(alpha)          Re(alpha)          Im(alpha_o)        Re(alpha_o)
#
       -1.000000          -0.348125           14.31734          -0.437489           15.43100
       -0.976000          -0.329774           14.15555          -0.412571           15.22836
       -0.952000          -0.312589           14.00220          -0.389420           15.03712
       -0.928000          -0.296463           13.85677          -0.367858           14.85648
       -0.904000          -0.281302           13.71878          -0.347729           14.68574
       -0.880000          -0.267020           13.58780          -0.328898           14.52426
       -0.856000          -0.253540           13.46343          -0.311242           14.37145
       -0.832000          -0.240795           13.34531          -0.294654           14.22679
       -0.808000          -0.228723           13.23310          -0.279036           14.08979
       -0.784000          -0.217268           13.12650          -0.264304           13.96001
       -0.760000          -0.206380           13.02522          -0.250380           13.83705
       -0.736000          -0.196014           12.92902          -0.237194           13.72055
       -0.712000          -0.186128           12.83764          -0.224685           13.61018
       -0.688000          -0.176685           12.75088          -0.212797           13.50562
       -0.664000          -0.167651           12.66853          -0.201477           13.40660
       -0.640000          -0.158993           12.59040          -0.190680           13.31285
       -0.616000          -0.150684           12.51632          -0.180364           13.22414
       -0.592000          -0.142697           12.44614          -0.170490           13.14024
       -0.568000          -0.135007           12.37970          -0.161023           13.06097
       -0.544000          -0.127593           12.31687          -0.151931           12.98612
       -0.520000          -0.120433           12.25753          -0.143183           12.91554
       -0.496000          -0.113507           12.20155          -0.134754           12.84906
       -0.472000          -0.106799           12.14883          -0.126618           12.78653
       -0.448000          -0.100292           12.09927          -0.118750           12.72784
       -0.424000          -0.093969           12.05277          -0.111130           12.67284
       -0.400000          -0.087817           12.00926          -0.103738           12.62143
       -0.376000          -0.081821           11.96867          -0.096555           12.57351
       -0.352000          -0.075969           11.93089          -0.089562           12.52897
       -0.328000          -0.070249           11.89590          -0.082744           12.48774
       -0.304000          -0.064648           11.86360          -0.076085           12.44974
       -0.280000          -0.059157           11.83397          -0.069569           12.41488
       -0.256000          -0.053765           11.80693          -0.063184           12.38311
       -0.232000          -0.048461           11.78246          -0.056916           12.35437
       -0.208000          -0.043237           11.76051          -0.050753           12.32860
       -0.184000          -0.038084           11.74104          -0.044681           12.30576
       -0.160000          -0.032991           11.72403          -0.038690           12.28580
       -0.136000          -0.027952           11.70943          -0.032767           12.26870
       -0.112000          -0.022957           11.69724          -0.026903           12.25442
       -0.088000          -0.017998           11.68744          -0.021087           12.24293
       -0.064000          -0.013068           11.68000          -0.015308           12.23422
       -0.040000          -0.008158           11.67492          -0.009555           12.22827
       -0.016000          -0.003261           11.67219          -0.003820           12.22507
        0.008000           0.001630           11.67180           0.001910           12.22461
        0.032000           0.006525           11.67375           0.007642           12.22690
        0.056000           0.011429           11.67805           0.013388           12.23193
        0.080000           0.016352           11.68470           0.019157           12.23972
        0.104000           0.021300           11.69372           0.024960           12.25028
        0.128000           0.026282           11.70511           0.030807           12.26363
        0.152000           0.031306           11.71889           0.036708           12.27979
        0.176000           0.036380           11.73510           0.042675           12.29879
        0.200000           0.041512           11.75374           0.048719           12.32066
        0.224000           0.046712           11.77487           0.054851           12.34545
        0.248000           0.051988           11.79849           0.061083           12.37319
        0.272000           0.057349           11.82467           0.067427           12.40395
        0.296000           0.062806           11.85343           0.073897           12.43777
        0.320000           0.068369           11.88483           0.080507           12.47472
        0.344000           0.074048           11.91892           0.087271           12.51487
        0.368000           0.079855           11.95576           0.094203           12.55829
        0.392000           0.085801           11.99542           0.101321           12.60507
        0.416000           0.091900           12.03794           0.108642           12.65531
        0.440000           0.098164           12.08343           0.116184           12.70910
        0.464000           0.104609           12.13196           0.123966           12.76655
        0.488000           0.111248           12.18362           0.132011           12.82779
        0.512000           0.118099           12.23850           0.140340           12.89293
        0.536000           0.125179           12.29671           0.148978           12.96213
        0.560000           0.132506           12.35837           0.157952           13.03553
        0.584000           0.140102           12.42358           0.167291           13.11331
        0.608000           0.147987           12.49251           0.177025           13.19565
        0.632000           0.156186           12.56527           0.187190           13.28273
        0.656000           0.164724           12.64203           0.197822           13.37477
        0.680000           0.173630           12.72295           0.208963           13.47201
        0.704000           0.182933           12.80822           0.220656           13.57469
        0.728000           0.192667           12.89803           0.232952           13.68309
        0.752000           0.202869           12.99261           0.245906           13.79752
        0.776000           0.213578           13.09216           0.259576           13.91828
        0.800000           0.224838           13.19696           0.274031           14.04574
        0.824000           0.236699           13.30727           0.289344           14.18029
        0.848000           0.249213           13.42338           0.305599           14.32235
        0.872000           0.262441           13.54563           0.322888           14.47239
        0.896000           0.276448           13.67436           0.341315           14.63092
        0.920000           0.291307           13.80997           0.360996           14.79850
        0.944000           0.307101           13.95286           0.382064           14.97576
        0.968000           0.323921           14.10352           0.404667           15.16339
        0.992000           0.341871           14.26243           0.428975           15.36213
        1.016000           0.361067           14.43018           0.455180           15.57285
        1.040000           0.381640           14.60736           0.483504           15.79649
        1.064000           0.403737           14.79467           0.514198           16.03408
        1.088000           0.427530           14.99285           0.547556           16.28682
        1.112000           0.453210           15.20276           0.583913           16.55602
        1.136000           0.480997           15.42533           0.623664           16.84317
        1.160000           0.511146           15.66159           0.667265           17.14996
        1.184000           0.543950           15.91274           0.715256           17.47830
        1.208000           0.579749           16.18007           0.768272           17.83037
        1.232000           0.618937           16.46510           0.827066           18.20867
        1.256000           0.661978           16.76948           0.892539           18.61605
        1.280000           0.709416           17.09514           0.965775           19.05584
        1.304000           0.761895           17.44426           1.048082           19.53189
        1.328000           0.820184           17.81934           1.141063           20.04869
        1.352000           0.885198           18.22326           1.246683           20.61152
        1.376000           0.958044           18.65938           1.367383           21.22664
        1.400000           1.040065           19.13155           1.506218           21.90148
        1.424000           1.132905           19.64434           1.667062           22.64498
        1.448000           1.238592           20.20309           1.854870           23.46793
        1.472000           1.359651           20.81415           2.076072           24.38352
        1.496000           1.499256           21.48509           2.339120           25.40798
        1.520000           1.661449           22.22505           2.655309           26.56154
        1.544000           1.851426           23.04509           3.039983           27.86964
        1.568000           2.075959           23.95876           3.514395           29.36470
        1.592000           2.344010           24.98284           4.108639           31.08851
        1.616000           2.667623           26.13829           4.866376           33.09571
        1.640000           3.063281           27.45159           5.852774           35.45856
        1.664000           3.553999           28.95665           7.168236           38.27371
        1.688000           4.172678           30.69744           8.973342           41.67122
        1.712000           4.967530           32.73167           11.53584           45.82447
        1.736000           6.011383           35.13605           15.32396           50.95417
        1.760000           7.417991           38.01346           21.19901           57.29422
        1.784000           9.372108           41.50222           30.81844           64.88986
        1.808000           12.18735           45.78477           47.38876           72.71146
        1.832000           16.42283           51.08348           76.05585           75.28056
        1.856000           23.12694           57.59179           116.3103           54.97358
        1.880000           34.33807           65.12898           134.0952          -2.183248
        1.904000           53.88059           71.69942           102.7887          -48.93534
        1.928000           86.43689           68.56109           64.90923          -58.79379
        1.952000           122.4959           34.92806           40.85651          -53.29309
        1.976000           119.7727          -23.04447           27.08972          -45.26316
        2.000000           82.47717          -52.64515           18.98028          -38.03823
        2.024000           51.33714          -53.97541           13.93855          -32.10033
        2.048000           32.90481          -47.06886           10.63576          -27.29600
        2.072000           22.30930          -39.58211           8.372203          -23.38634
        2.096000           15.94137          -33.18176           6.761075          -20.16553
        2.120000           11.89911          -27.97387           5.577541          -17.47552
        2.144000           9.202362          -23.75404           4.684821          -15.19839
        2.168000           7.325749          -20.30264           3.996274          -13.24636
        2.192000           5.973008          -17.44192           3.455044          -11.55354
        2.216000           4.968822          -15.03760           3.022682          -10.06992
        2.240000           4.204772          -12.98984           2.672471          -8.757018
        2.264000           3.611208          -11.22405           2.385404          -7.584822
        2.288000           3.141869          -9.684046           2.147678          -6.529635
        2.312000           2.765123          -8.326941           1.949085          -5.572523
        2.336000           2.458789          -7.119548           1.781955          -4.698171
        2.360000           2.206954          -6.035842           1.640431          -3.894045
        2.384000           1.997983          -5.055181           1.519996          -3.149806
        2.408000           1.823221          -4.160970           1.417119          -2.456825
        2.432000           1.676122          -3.339713           1.329015          -1.807828
        2.456000           1.551674          -2.580333           1.253466          -1.196631
        2.480000           1.445992          -1.873618           1.188698          -0.617930
        2.504000           1.356031          -1.211846           1.133279          -0.067118
        2.528000           1.279386          -0.588458           1.086052           0.459837
        2.552000           1.214143           0.002151           1.046079           0.966485
        2.576000           1.158770           0.564834           1.012600           1.456016
        2.600000           1.112036           1.103819           0.985005           1.931280
        2.624000           1.072951           1.622876           0.962803           2.394922
        2.648000           1.040721           2.125345           0.945610           2.849366
        2.672000           1.014712           2.614251           0.933136           3.296869
        2.696000           0.994428           3.092373           0.925168           3.739602
        2.720000           0.979485           3.562287           0.921569           4.179631
        2.744000           0.969602           4.026415           0.922273           4.618988
        2.768000           0.964588           4.487079           0.927279           5.059690
        2.792000           0.964335           4.946526           0.936656           5.503766
        2.816000           0.968817           5.406980           0.950542           5.953297
        2.840000           0.978086           5.870666           0.969153           6.410439
        2.864000           0.992276           6.339853           0.992783           6.877466
        2.888000           1.011608           6.816884           1.021827           7.356802
        2.912000           1.036396           7.304235           1.056783           7.851085
        2.936000           1.067063           7.804524           1.098281           8.363186
        2.960000           1.104160           8.320627           1.147107           8.896321
        2.984000           1.148381           8.855668           1.204238           9.454073
        3.008000           1.200605           9.413120           1.270887           10.04053
        3.032000           1.261931           9.996913           1.348570           10.66037
        3.056000           1.333738           10.61150           1.439180           11.31900
        3.080000           1.417763           11.26204           1.545113           12.02280
        3.104000           1.516205           11.95451           1.669416           12.77927
        3.128000           1.631874           12.69599           1.816012           13.59740
        3.152000           1.768396           13.49488           1.990010           14.48807
        3.176000           1.930507           14.36135           2.198164           15.46457
        3.200000           2.124498           15.30779           2.449536           16.54336
        3.224000           2.358850           16.34950           2.756529           17.74503
        3.248000           2.645246           17.50565           3.136469           19.09576
        3.272000           3.000135           18.80055           3.614144           20.62919
        3.296000           3.447331           20.26553           4.226062           22.38926
        3.320000           4.022361           21.94132           5.027683           24.43382
        3.344000           4.780192           23.88147           6.106517           26.83966
        3.368000           5.809531           26.15628           7.606663           29.70798
        3.392000           7.260515           28.85524           9.777085           33.16583
        3.416000           9.400538           32.07867           13.06945           37.34438
        3.440000           12.72517           35.87911           18.32778           42.25526
        3.464000           18.13034           40.00546           27.03272           47.30025
        3.488000           26.76497           43.10605           40.87285           50.08285
        3.512000           38.14082           42.36433           59.91751           45.91945
        3.536000           50.09079           36.44196           79.08868           26.41684
        3.560000           58.86621           22.46854           77.04396          -5.346114
        3.584000           55.68472           7.466750           55.95649          -20.29273
        3.607999           48.66021           0.201093           39.42553          -18.26523
        3.632000           41.02969          -3.329902           31.88435          -11.00237
        3.655999           34.08112          -0.903022           31.47376          -3.551003
        3.680000           32.64511           5.116670           37.01889           1.092772
        3.704000           37.32867           10.02381           46.06952          -0.184851
        3.728000           45.85238           10.29770           55.34866          -9.731994
        3.752000           54.81942           4.726706           54.77115          -28.51871
        3.776000           60.80344          -6.343819           40.05559          -40.18030
        3.800000           61.38691          -19.95686           26.05597          -40.07938
        3.824000           55.32304          -35.20115           17.38958          -35.98083
        3.848000           40.24990          -44.09223           12.30566          -31.58268
        3.872000           26.44714          -43.08038           9.198441          -27.73734
        3.896000           17.80632          -38.58307           7.192939          -24.50614
        3.920000           12.67900          -33.93913           5.834157          -21.78805
        3.944000           9.513133          -29.91674           4.877411          -19.47193
        3.967999           7.450901          -26.54915           4.184209          -17.46558
        3.992000           6.042138          -23.72362           3.672506          -15.69735
        4.015999           5.042473          -21.32256           3.291874          -14.11203
        4.040000           4.312331          -19.24963           3.010536          -12.66595
        4.064000           3.768379          -17.43063           2.808506          -11.32387
        4.088000           3.358825          -15.80820           2.673770          -10.05583
        4.112000           3.050757          -14.33766           2.600333          -8.835277
        4.136000           2.823089          -12.98283           2.587412          -7.636892
        4.160000           2.662800          -11.71362           2.639618          -6.435165
        4.184000           2.562818          -10.50348           2.768221          -5.202207
        4.208000           2.521178          -9.327875           2.993936          -3.905904
        4.232000           2.541048          -8.162266           3.352435          -2.506943
        4.256000           2.631818          -6.980675           3.904866          -0.956161
        4.280000           2.811636          -5.753390           4.758927           0.807949
        4.304000           3.112441          -4.444914           6.111775           2.854025
        4.328000           3.589855          -3.011100           8.340664           5.222140
        4.352000           4.342940          -1.397915           12.18178           7.757816
        4.375999           5.554951           0.452142           18.92802           9.450380
        4.400000           7.579298           2.560511           29.36981           6.540667
        4.423999           11.10281           4.734009           37.15648          -6.566736
        4.448000           17.26711           5.876155           31.36613          -21.28643
        4.472000           26.25306           2.274724           20.48819          -25.83163
        4.496000           31.10795          -9.846312           12.97091          -24.66041
        4.520000           24.63422          -20.78621           8.633302          -22.26728
        4.544000           15.85267          -23.24772           6.100533          -19.98857
        4.568000           10.14038          -21.85986           4.541842          -18.06351
        4.592000           6.858242          -19.78490           3.528754          -16.47066
        4.616000           4.924484          -17.87780           2.838105          -15.14509
        4.639999           3.721126          -16.27156           2.348038          -14.02684
        4.664000           2.930834          -14.93519           1.988624          -13.06895
        4.687999           2.387124          -13.81381           1.717836          -12.23611
        4.712000           1.998250          -12.85903           1.509305          -11.50176
        4.736000           1.711143          -12.03348           1.345944          -10.84592
        4.760000           1.493603          -11.30894           1.216316          -10.25316
        4.783999           1.325347          -10.66429           1.112624          -9.711460
        4.808000           1.193124          -10.08339           1.029441          -9.211152
        4.832000           1.088065          -9.553843           0.962992          -8.744403
        4.856000           1.004086          -9.065797           0.910672          -8.304533
        4.880000           0.936983          -8.611369           0.870769          -7.885812
        4.904000           0.883837          -8.183968           0.842305          -7.483012
        4.927999           0.842682          -7.778018           0.824964          -7.091245
        4.952000           0.812280          -7.388545           0.819112          -6.705607
        4.976000           0.792018          -7.011009           0.825917          -6.321032
        5.000000           0.781868          -6.640992           0.847591          -5.931869
# 
# 02/06/2024 at 12:07 yambo @ unimi-XPS-8930 [start]
# 02/06/2024 at 12:07                        [end]
#  
# Timing   [Min/Max/Average]: 02s/02s/02s
#
# .-Input file  yambo.in
# | optics                           # [R] Linear Response optical properties
# | bss                              # [R] BSE solver
# | bse                              # [R][BSE] Bethe Salpeter Equation.
# | BoseTemp= 0.000000         eV    # Bosonic Temperature
# | FFTGvecs=  8845            RL    # [FFT] Plane-waves
# | BS_nCPU_LinAlg_INV= 1            # [PARALLEL] CPUs for Linear Algebra (if -1 it is automatically set)
# | BS_nCPU_LinAlg_DIAGO= 1          # [PARALLEL] CPUs for Linear Algebra (if -1 it is automatically set)
# | X_Threads= 1                     # [OPENMP/X] Number of threads for response functions
# | DIP_Threads= 1                   # [OPENMP/X] Number of threads for dipoles
# | K_Threads= 1                     # [OPENMP/BSK] Number of threads for response functions
# | NonPDirs= "z"                    # [X/BSS] Non periodic chartesian directions (X,Y,Z,XY...)
# | BSKmod= "HARTREE"                # [BSE] IP/Hartree/HF/ALDA/SEX/BSfxc
# | BSEmod= "retarded"               # [BSE] resonant/retarded/coupling
# | BSSmod= "hdi"                    # [BSS] (h)aydock/(d)iagonalization/(s)lepc/(i)nversion/(t)ddft`
# | DipComputed= "R V P"             # [DIP] [default R P V; extra P2 Spin Orb]
# | BSENGexx= 109              RL    # [BSK] Exchange components
# | % BSEQptR
# |  1 | 3 |                             # [BSK] Transferred momenta range
# | %
# | % BSEBands
# |  11 | 15 |                           # [BSK] Bands range
# | %
# | % BEnRange
# | -1.000000 | 5.000000 |         eV    # [BSS] Energy range
# | %
# | % BDmRange
# |  0.050000 | 0.050000 |         eV    # [BSS] Damping range
# | %
# | BEnSteps= 251                    # [BSS] Energy steps
# | % BLongDir
# |  0.100000E-4 |  0.00000    |  0.00000    # [BSS] [cc] Electric Field
# | %
# | BSEprop= "abs jdos"              # [BSS] Can be any among abs/jdos/kerr/magn/dich/photolum/esrt
# | BSEdips= "none"                  # [BSS] Can be "trace/none" or "xy/xz/yz" to define off-diagonal rotation plane
# | BSSInvMode= "pf"                 # [BSS] Inversion solver modality `(f)ull/(p)erturbative`
# | BSEPSInvTrs= 0.010000            # [BSS EPS] Inversion treshold. Relative[o/o](>0)/Absolute(<0)
# | BSSInvPFratio= 1.000000          # [BSS] Inversion solver. Ratio between the number of frequencies solved pert/full
# | #WRbsWF                        # [BSS] Write to disk excitonic the WFs
# | BSHayTrs= 0.100000E-2            # [BSS] Relative [o/o] Haydock threshold. Strict(>0)/Average(<0)
# | BSPLInvTrs= 0.500000             # [BSS PL] Inversion treshold
