#                                                           
#  __  __   ________   ___ __ __    _______   ______        
# /_/\/_/\ /_______/\ /__//_//_/\ /_______/\ /_____/\       
# \ \ \ \ \\::: _  \ \\::\| \| \ \\::: _  \ \\:::_ \ \      
#  \:\_\ \ \\::(_)  \ \\:.      \ \\::(_)  \/_\:\ \ \ \     
#   \::::_\/ \:: __  \ \\:.\-/\  \ \\::  _  \ \\:\ \ \ \    
#     \::\ \  \:.\ \  \ \\. \  \  \ \\::(_)  \ \\:\_\ \ \   
#      \__\/   \__\/\__\/ \__\/ \__\/ \_______\/ \_____\/   
#                                                           
#                                                           
#        Version 4.3.0 Revision 15734 Hash 50fd1d2          
#                      MPI+SLK Build                        
#                http://www.yambo-code.org                  
#
# EELS @ Q(1)  [q->0 direction]:0.1000E-4  0.000     0.000   
#
#
# - Energies      are  Analyt. E
# - Wavefunctions are Slater exchange(X)+Perdew & Zunger(C)
#
# - The Green`s function is Retarded -
# - Using the Length Gauge -
# - [r,Vnl] *is* included -
#
#   BSK|Identifier              :1816
#      |Dimension               :54
#      |Bands                   :11 - 15
#      |Exchange           [res]: yes
#      |Correlation        [res]: yes
#      |Kernel`s coupling       : no
#      |Exchange           [cpl]: no
#      |Correlation        [cpl]: no
#      |W interaction is bare   : yes
#      |ALDA kernel in R-space  : no
#      |RL vectors    [exchange]:109
#      |RL vectors [correlation]:55
#      |E/h energy range    [ev]:-1.000000 - -1.000000
#      |Coupling range     [o/o]: 100.0000 -  100.0000
#    W |Interaction is diagonal : yes
#      |Matrix size             :0
#   RIM|RL components      [col]:0
#      |Random points      [col]:0
#
#    E/ev[1]      EEL-Im[2]    EEL-Re[3]    EELo-Im[4]   EELo-Re[5]
#
   -1.000       -.7711E-2    -.5738E-1    -.3914E-3    -.3607   
   -.9640       -.7161E-2    -.6271E-1    -.3769E-3    -.3609   
   -.9280       -.6659E-2    -.6766E-1    -.3625E-3    -.3612   
   -.8920       -.6197E-2    -.7227E-1    -.3481E-3    -.3615   
   -.8560       -.5771E-2    -.7656E-1    -.3337E-3    -.3617   
   -.8200       -.5376E-2    -.8056E-1    -.3194E-3    -.3619   
   -.7840       -.5008E-2    -.8428E-1    -.3051E-3    -.3622   
   -.7480       -.4663E-2    -.8775E-1    -.2909E-3    -.3624   
   -.7120       -.4340E-2    -.9098E-1    -.2767E-3    -.3626   
   -.6760       -.4035E-2    -.9399E-1    -.2625E-3    -.3628   
   -.6400       -.3746E-2    -.9678E-1    -.2483E-3    -.3630   
   -.6040       -.3472E-2    -.9937E-1    -.2342E-3    -.3631   
   -.5680       -.3212E-2    -.1018       -.2201E-3    -.3633   
   -.5320       -.2962E-2    -.1040       -.2060E-3    -.3634   
   -.4960       -.2723E-2    -.1060       -.1920E-3    -.3636   
   -.4600       -.2493E-2    -.1079       -.1780E-3    -.3637   
   -.4240       -.2271E-2    -.1096       -.1640E-3    -.3638   
   -.3880       -.2056E-2    -.1112       -.1500E-3    -.3640   
   -.3520       -.1847E-2    -.1126       -.1360E-3    -.3641   
   -.3160       -.1644E-2    -.1138       -.1221E-3    -.3642   
   -.2800       -.1446E-2    -.1149       -.1081E-3    -.3642   
   -.2440       -.1251E-2    -.1159       -.9419E-4    -.3643   
   -.2080       -.1061E-2    -.1167       -.8028E-4    -.3644   
   -.1720       -.8730E-3    -.1174       -.6637E-4    -.3644   
   -.1360       -.6876E-3    -.1180       -.5247E-4    -.3645   
   -.1000       -.5041E-3    -.1184       -.3858E-4    -.3645   
   -.6400E-1    -.3220E-3    -.1187       -.2469E-4    -.3645   
   -.2800E-1    -.1407E-3    -.1189       -.1080E-4    -.3645   
   0.8000E-2    0.4019E-4    -.1189       0.3086E-5    -.3645   
   0.4400E-1    0.2212E-3    -.1188       0.1697E-4    -.3645   
   0.8000E-1    0.4028E-3    -.1186       0.3086E-4    -.3645   
   0.1160       0.5855E-3    -.1182       0.4475E-4    -.3645   
   0.1520       0.7697E-3    -.1178       0.5865E-4    -.3645   
   0.1880       0.9561E-3    -.1171       0.7255E-4    -.3644   
   0.2240       0.1145E-2    -.1164       0.8646E-4    -.3643   
   0.2600       0.1337E-2    -.1155       0.1004E-3    -.3643   
   0.2960       0.1533E-2    -.1145       0.1143E-3    -.3642   
   0.3320       0.1734E-2    -.1133       0.1283E-3    -.3641   
   0.3680       0.1939E-2    -.1120       0.1422E-3    -.3640   
   0.4040       0.2151E-2    -.1105       0.1562E-3    -.3639   
   0.4400       0.2369E-2    -.1089       0.1702E-3    -.3638   
   0.4760       0.2594E-2    -.1071       0.1842E-3    -.3637   
   0.5120       0.2828E-2    -.1051       0.1982E-3    -.3635   
   0.5480       0.3072E-2    -.1030       0.2123E-3    -.3634   
   0.5840       0.3326E-2    -.1007       0.2264E-3    -.3632   
   0.6200       0.3593E-2    -.9825E-1    0.2405E-3    -.3631   
   0.6560       0.3873E-2    -.9557E-1    0.2546E-3    -.3629   
   0.6920       0.4168E-2    -.9268E-1    0.2688E-3    -.3627   
   0.7280       0.4481E-2    -.8958E-1    0.2830E-3    -.3625   
   0.7640       0.4813E-2    -.8624E-1    0.2972E-3    -.3623   
   0.8000       0.5168E-2    -.8266E-1    0.3114E-3    -.3621   
   0.8360       0.5548E-2    -.7882E-1    0.3257E-3    -.3618   
   0.8720       0.5956E-2    -.7469E-1    0.3401E-3    -.3616   
   0.9080       0.6398E-2    -.7026E-1    0.3544E-3    -.3613   
   0.9440       0.6877E-2    -.6550E-1    0.3689E-3    -.3611   
   0.9800       0.7399E-2    -.6039E-1    0.3833E-3    -.3608   
    1.016       0.7972E-2    -.5488E-1    0.3978E-3    -.3605   
    1.052       0.8604E-2    -.4895E-1    0.4124E-3    -.3602   
    1.088       0.9304E-2    -.4254E-1    0.4270E-3    -.3599   
    1.124       0.1009E-1    -.3561E-1    0.4416E-3    -.3596   
    1.160       0.1097E-1    -.2809E-1    0.4563E-3    -.3593   
    1.196       0.1197E-1    -.1990E-1    0.4710E-3    -.3590   
    1.232       0.1312E-1    -.1098E-1    0.4859E-3    -.3586   
    1.268       0.1443E-1    -.1232E-2    0.5007E-3    -.3583   
    1.304       0.1591E-1    0.9506E-2    0.5156E-3    -.3579   
    1.340       0.1765E-1    0.2142E-1    0.5306E-3    -.3575   
    1.376       0.1972E-1    0.3467E-1    0.5457E-3    -.3571   
    1.412       0.2222E-1    0.4952E-1    0.5608E-3    -.3567   
    1.448       0.2525E-1    0.6629E-1    0.5760E-3    -.3563   
    1.484       0.2900E-1    0.8538E-1    0.5912E-3    -.3559   
    1.520       0.3371E-1    0.1074       0.6065E-3    -.3555   
    1.556       0.3976E-1    0.1330       0.6219E-3    -.3550   
    1.592       0.4772E-1    0.1632       0.6374E-3    -.3546   
    1.628       0.5848E-1    0.1996       0.6530E-3    -.3541   
    1.664       0.7356E-1    0.2442       0.6686E-3    -.3536   
    1.700       0.9560E-1    0.3003       0.6843E-3    -.3532   
    1.736       0.1296       0.3725       0.7001E-3    -.3527   
    1.772       0.1858       0.4686       0.7160E-3    -.3521   
    1.808       0.2875       0.5995       0.7320E-3    -.3516   
    1.844       0.4932       0.7741       0.7480E-3    -.3511   
    1.880       0.9575       0.9375       0.7642E-3    -.3506   
    1.916        1.845       0.5940       0.7805E-3    -.3500   
    1.952        1.895       -.7428       0.7968E-3    -.3494   
    1.988       0.9988       -1.149       0.8133E-3    -.3488   
    2.024       0.5121       -.9928       0.8298E-3    -.3483   
    2.060       0.2975       -.8149       0.8465E-3    -.3477   
    2.096       0.1925       -.6801       0.8633E-3    -.3470   
    2.132       0.1350       -.5805       0.8802E-3    -.3464   
    2.168       0.1007       -.5048       0.8972E-3    -.3458   
    2.204       0.7869E-1    -.4453       0.9144E-3    -.3451   
    2.240       0.6393E-1    -.3969       0.9316E-3    -.3445   
    2.276       0.5365E-1    -.3565       0.9490E-3    -.3438   
    2.312       0.4628E-1    -.3218       0.9665E-3    -.3431   
    2.348       0.4093E-1    -.2913       0.9842E-3    -.3424   
    2.384       0.3701E-1    -.2639       0.1002E-2    -.3417   
    2.420       0.3416E-1    -.2388       0.1020E-2    -.3409   
    2.456       0.3215E-1    -.2153       0.1038E-2    -.3402   
    2.492       0.3083E-1    -.1930       0.1056E-2    -.3394   
    2.528       0.3012E-1    -.1713       0.1074E-2    -.3387   
    2.564       0.2996E-1    -.1500       0.1093E-2    -.3379   
    2.600       0.3038E-1    -.1286       0.1112E-2    -.3371   
    2.636       0.3141E-1    -.1067       0.1131E-2    -.3363   
    2.672       0.3319E-1    -.8389E-1    0.1149E-2    -.3355   
    2.708       0.3592E-1    -.5959E-1    0.1169E-2    -.3346   
    2.744       0.3995E-1    -.3312E-1    0.1188E-2    -.3338   
    2.780       0.4587E-1    -.3552E-2    0.1208E-2    -.3329   
    2.816       0.5468E-1    0.3054E-1    0.1227E-2    -.3321   
    2.852       0.6842E-1    0.7124E-1    0.1247E-2    -.3312   
    2.888       0.9118E-1    0.1217       0.1267E-2    -.3303   
    2.924       0.1321       0.1864       0.1287E-2    -.3293   
    2.960       0.2141       0.2696       0.1308E-2    -.3284   
    2.996       0.3979       0.3522       0.1329E-2    -.3275   
    3.032       0.7596       0.2477       0.1349E-2    -.3265   
    3.068       0.8223       -.2829       0.1371E-2    -.3255   
    3.104       0.4579       -.4628       0.1392E-2    -.3245   
    3.140       0.2515       -.3860       0.1413E-2    -.3235   
    3.176       0.1668       -.2897       0.1435E-2    -.3225   
    3.212       0.1387       -.2059       0.1457E-2    -.3214   
    3.248       0.1514       -.1334       0.1480E-2    -.3204   
    3.284       0.2191       -.9367E-1    0.1502E-2    -.3193   
    3.320       0.2827       -.1777       0.1525E-2    -.3182   
    3.356       0.1908       -.2477       0.1548E-2    -.3171   
    3.392       0.1131       -.2138       0.1571E-2    -.3160   
    3.428       0.7854E-1    -.1657       0.1595E-2    -.3149   
    3.464       0.6293E-1    -.1223       0.1619E-2    -.3137   
    3.500       0.5608E-1    -.8310E-1    0.1643E-2    -.3125   
    3.536       0.5447E-1    -.4588E-1    0.1668E-2    -.3113   
    3.572       0.5760E-1    -.8488E-2    0.1692E-2    -.3101   
    3.608       0.6739E-1    0.3114E-1    0.1717E-2    -.3089   
    3.644       0.9053E-1    0.7413E-1    0.1743E-2    -.3077   
    3.680       0.1447       0.1110       0.1769E-2    -.3064   
    3.716       0.2300       0.7739E-1    0.1795E-2    -.3051   
    3.752       0.1988       -.1455E-1    0.1822E-2    -.3038   
    3.788       0.1255       -.5294E-3    0.1848E-2    -.3025   
    3.824       0.9749E-1    0.4876E-1    0.1876E-2    -.3011   
    3.860       0.9881E-1    0.9611E-1    0.1903E-2    -.2998   
    3.896       0.1102       0.1264       0.1932E-2    -.2984   
    3.932       0.1115       0.1618       0.1960E-2    -.2970   
    3.968       0.1339       0.2060       0.1989E-2    -.2956   
    4.004       0.1602       0.2241       0.2018E-2    -.2941   
    4.040       0.1650       0.2619       0.2048E-2    -.2927   
    4.076       0.2003       0.3138       0.2079E-2    -.2912   
    4.112       0.2444       0.3687       0.2110E-2    -.2897   
    4.148       0.3621       0.4408       0.2141E-2    -.2881   
    4.184       0.5716       0.3524       0.2173E-2    -.2866   
    4.220       0.5109       0.1327       0.2205E-2    -.2850   
    4.256       0.3752       0.1823       0.2238E-2    -.2834   
    4.292       0.4045       0.3270       0.2272E-2    -.2818   
    4.328       0.6371       0.4238       0.2306E-2    -.2802   
    4.364       0.9952       0.1344       0.2341E-2    -.2785   
    4.400       0.7631       -.3596       0.2376E-2    -.2768   
    4.436       0.4019       -.3676       0.2412E-2    -.2751   
    4.472       0.2333       -.2521       0.2449E-2    -.2733   
    4.508       0.1563       -.1480       0.2487E-2    -.2715   
    4.544       0.1170       -.6403E-1    0.2525E-2    -.2697   
    4.580       0.9490E-1    0.5475E-2    0.2564E-2    -.2679   
    4.616       0.8174E-1    0.6546E-1    0.2604E-2    -.2660   
    4.652       0.7365E-1    0.1193       0.2645E-2    -.2641   
    4.688       0.6871E-1    0.1692       0.2686E-2    -.2622   
    4.724       0.6588E-1    0.2167       0.2729E-2    -.2603   
    4.760       0.6457E-1    0.2629       0.2773E-2    -.2583   
    4.796       0.6443E-1    0.3088       0.2817E-2    -.2563   
    4.832       0.6528E-1    0.3550       0.2863E-2    -.2542   
    4.868       0.6702E-1    0.4022       0.2909E-2    -.2522   
    4.904       0.6961E-1    0.4509       0.2957E-2    -.2501   
    4.940       0.7309E-1    0.5018       0.3006E-2    -.2479   
    4.976       0.7754E-1    0.5555       0.3056E-2    -.2457   
    5.012       0.8308E-1    0.6127       0.3108E-2    -.2435   
    5.048       0.8994E-1    0.6742       0.3161E-2    -.2413   
    5.084       0.9841E-1    0.7411       0.3215E-2    -.2390   
    5.120       0.1089       0.8145       0.3271E-2    -.2366   
    5.156       0.1221       0.8961       0.3329E-2    -.2342   
    5.192       0.1389       0.9878       0.3388E-2    -.2318   
    5.228       0.1606        1.092       0.3449E-2    -.2294   
    5.264       0.1895        1.214       0.3512E-2    -.2269   
    5.300       0.2289        1.357       0.3577E-2    -.2243   
    5.336       0.2850        1.531       0.3644E-2    -.2217   
    5.372       0.3685        1.747       0.3713E-2    -.2191   
    5.408       0.5006        2.023       0.3785E-2    -.2164   
    5.444       0.7269        2.387       0.3859E-2    -.2136   
    5.480        1.156        2.876       0.3935E-2    -.2108   
    5.516        2.076        3.474       0.4015E-2    -.2080   
    5.552        4.140        3.611       0.4098E-2    -.2050   
    5.588        6.416       0.7921       0.4183E-2    -.2021   
    5.624        4.371       -2.299       0.4273E-2    -.1990   
    5.660        2.207       -2.261       0.4366E-2    -.1959   
    5.696        1.242       -1.642       0.4463E-2    -.1927   
    5.732       0.8034       -1.111       0.4564E-2    -.1895   
    5.768       0.5837       -.6951       0.4670E-2    -.1862   
    5.804       0.4666       -.3577       0.4781E-2    -.1828   
    5.840       0.4051       -.6734E-1    0.4897E-2    -.1793   
    5.876       0.3787       0.1987       0.5019E-2    -.1757   
    5.912       0.3794       0.4577       0.5147E-2    -.1721   
    5.948       0.4067       0.7254       0.5282E-2    -.1683   
    5.984       0.4665        1.019       0.5425E-2    -.1645   
    6.020       0.5756        1.359       0.5576E-2    -.1605   
    6.056       0.7710        1.776       0.5736E-2    -.1564   
    6.092        1.141        2.311       0.5905E-2    -.1522   
    6.128        1.915        2.987       0.6086E-2    -.1479   
      6.1640       3.6810       3.5289       0.0063      -0.1435
    6.200        6.731        1.878       0.6484E-2    -.1389   
      6.2360       6.0802      -2.5356       0.0067      -0.1342
      6.2720       3.1428      -3.3567       0.0069      -0.1293
      6.3080       1.6761      -2.7122       0.0072      -0.1242
      6.3440       1.0241      -2.0702       0.0075      -0.1189
      6.3800       0.7010      -1.5739       0.0078      -0.1134
      6.4160       0.5232      -1.1894       0.0081      -0.1077
      6.4520       0.4176      -0.8795       0.0084      -0.1018
      6.4880       0.3517      -0.6190       0.0088      -0.0956
      6.5240       0.3096      -0.3910       0.0093      -0.0891
      6.5600       0.2827      -0.1845       0.0097      -0.0823
      6.5960       0.2665       0.0083       0.0103      -0.0751
     6.63200      0.25815      0.19341      0.01085     -0.06755
     6.66800      0.25608      0.37544      0.01151     -0.05955
     6.70400      0.25950      0.55828      0.01225     -0.05104
     6.74000      0.26802      0.74552      0.01309     -0.04198
     6.77600      0.28170      0.94063      0.01406     -0.03228
     6.81200      0.30093      1.14729      0.01517     -0.02184
     6.84800      0.32646      1.36954      0.01646     -0.01056
    6.884       0.3595        1.612       0.1797E-1    0.1705E-2
     6.92000      0.40197      1.88068      0.01977      0.01513
     6.95600      0.45643      2.18244      0.02192      0.02992
     6.99200      0.52684      2.52660      0.02454      0.04637
     7.02800      0.61905      2.92546      0.02776      0.06483
     7.06400      0.74211      3.39576      0.03179      0.08577
     7.10000      0.91040      3.96106      0.03694      0.10981
     7.13600      1.14784      4.65542      0.04367      0.13783
     7.17200      1.49649      5.52965      0.05269      0.17103
     7.20800      2.03530      6.66163      0.06517      0.21114
     7.24400      2.92514      8.17223      0.08314      0.26075
     7.28000      4.52849     10.23898      0.11031      0.32376
     7.31600      7.75773     13.01844      0.15400      0.40627
     7.35200     15.02373     15.74827      0.23017      0.51750
     7.38800     29.35158     10.98089      0.37759      0.66852
     7.42400     31.68895    -10.82758      0.69912      0.84691
     7.46000     16.93803    -18.57938      1.40841      0.81663
     7.49600      8.58761    -16.22638      2.00255     -0.22735
     7.53200      4.91043    -13.34499      1.24700     -1.06765
     7.56800      3.12049    -11.17069      0.62044     -1.01380
    7.604000     2.142805    -9.587725     0.343313    -0.834807
    7.640000     1.557494    -8.410695     0.213731    -0.690959
    7.676000     1.181545    -7.509815     0.145486    -0.585014
    7.712000     0.926530    -6.801363     0.105802    -0.505728
     7.74800      0.74592     -6.23099      0.08091     -0.44448
     7.78400      0.61346     -5.76252      0.06435     -0.39564
     7.82000      0.51349     -5.37114      0.05284     -0.35558
     7.85600      0.43622     -5.03937      0.04454     -0.32191
     7.89200      0.37527     -4.75461      0.03838     -0.29300
     7.92800      0.32634     -4.50751      0.03371     -0.26771
     7.96400      0.28648     -4.29106      0.03011     -0.24521
     8.00000      0.25356     -4.09987      0.02728     -0.22491
# 
# 09/19/2018 at 11:13 YAMBO @ narro [start]
# 09/19/2018 at 11:13               [end]
#  
# Timing   [Min/Max/Average]: 08s/08s/08s
#
# .-Input file : yambo.in
# | optics                         # [R OPT] Optics
# | bse                            # [R BSE] Bethe Salpeter Equation.
# | bsk                            # [R BSK] Bethe Salpeter Equation kernel
# | bss                            # [R BSS] Bethe Salpeter Equation solver
# | BoseTemp= 0.000000     eV      # Bosonic Temperature
# | FFTGvecs=  8845        RL      # [FFT] Plane-waves
# | BSEmod= "retarded"             # [BSE] resonant/retarded/coupling
# | BSKmod= "HF"                   # [BSE] IP/Hartree/HF/ALDA/SEX/BSfxc
# | BSSmod= "hdi"                  # [BSS] (h)aydock/(d)iagonalization/(i)nversion/(t)ddft`
# | BSENGexx= 109          RL      # [BSK] Exchange components
# | BSENGBlk=  55          RL      # [BSK] Screened interaction block size
# | % KfnQP_E
# |  5.000000 | 1.000000 | 1.000000 |        # [EXTQP BSK BSS] E parameters  (c/v) eV|adim|adim
# | %
# | % BEnRange
# | -1.000000 | 8.000000 | eV      # [BSS] Energy range
# | %
# | % BDmRange
# |   0.05000 |  0.05000 | eV      # [BSS] Damping range
# | %
# | BEnSteps= 251                  # [BSS] Energy steps
# | % BLongDir
# | 0.1000E-4 | 0.000    | 0.000    |        # [BSS] [cc] Electric Field
# | %
# | % BSEBands
# |  11 | 15 |                     # [BSK] Bands range
# | %
# | BSSInvMode= "pf"               # [BSS] Inversion solver modality `(f)ull/(p)erturbative`
# | BSEPSInvTrs=   0.0100          # [BSS EPS] Inversion treshold. Relative[o/o](>0)/Absolute(<0)
# | BSSInvPFratio= 1.000000        # [BSS] Inversion solver. Ratio between the number of frequencies solved pert/full
# | BSHayTrs=0.1000E-2             # [BSS] Relative [o/o] Haydock threshold. Strict(>0)/Average(<0)
