#                                                                     
#   __   __     _        __  __       ____      U  ___  u             
#   \ \ / / U  /"\  U u |" \/ "| u U | __") u    \/"_ \/              
#    \ V /   \/ _ \/   \| |\/| |/   \|  _ \/     | | | |              
#   U_|"|_u  / ___ \    | |  | |     | |_) | .-,_| |_| |              
#     |_|   /_/   \_\   |_|  |_|     |____/   \_)-\___/               
# .-,//|(_   \\    >>  <<,-,,-.     _|| \\_        \\                 
#  \_) (__) (__)  (__)  (./  \.)   (__) (__)      (__)                
#                                                                     
#                                                                     
# Version 5.2.0 Revision 22506 Hash (prev commit) baac8a203           
#                Branch is fixes-issue-540                            
#         MPI+OpenMP+SLK+SLEPC+HDF5_MPI_IO Build                      
#                http://www.yambo-code.org                            
#
# Polarizability  ( -<<X>> ) @ Q(1):   1.00000000      0.00000000      0.00000000    [q->0 direction]
#
# Polarizability units: length
#
# [GEN] GF Energies                               : Slater exchange(X)+Perdew & Zunger(C)
# [GEN] Green`s Function                          : Retarded
#
# [GEN] Gauge                                     : Length
# [GEN] [r,Vnl] included                          : yes
#
# DIP band range                                  :  11  15
# DIP band range limits                           :  13  14
# DIP e/h energy range                            :  -1.00000000     -1.00000000    [eV]
# RL vectors in the sum                           :   8845
# [r,Vnl] included                                : yes
# Bands ordered                                   : yes
# Direct v evaluation                             : no
# Approach used                                   : G-space v
# Dipoles computed                                : R V P
# Wavefunctions                                   : Slater exchange(X)+Perdew & Zunger(C)
#
#
# [K] Identifier                                  :   4301
# [K] Dimension                                   :   54
# [K] Bands                                       :  11  15
# [K] Exchange res                                : yes
# [K] Correlation res                             : yes
# [K] Kernel`s coupling                           : no
# [K] Exchange cpl                                : no
# [K] Correlation cpl                             : no
# [K] W interaction is bare                       : yes
# [K] ALDA kernel in R-space                      : no
# [K] RL vectors exchange                         :  109
# [K] RL vectors correlation                      :   55
# [K] E/h energy range                            :  -1.00000000     -1.00000000    [eV]
# [K] Coupling range                              :   100.000000      100.000000    [o/o]
# [W] Interaction is diagonal                     : yes
# [W] Matrix size                                 :  1
# [RIM] RL components col                         : 0
# [RIM] Random points col                         : 0
#                                                 
# [Haydock] Accuracy (requested)                  :  0.100000005E-2 [o/o]
# [Haydock] Accuracy (reached)                    :  0.873430457E-3 [o/o]
# [Haydock] Iterations                            :   38
#
#
#    E[1] [eV]          Im(alpha)          Re(alpha)          Im(alpha_o)        Re(alpha_o)        Im(alpha`)         Re(alpha`)
#
       -1.000000          -5.491318           38.47878          -0.007183           4.232028          -5.491318           38.47878
       -0.964000          -4.291435           35.19228          -0.006907           4.226956          -4.291435           35.19228
       -0.928000          -3.439036           32.55754          -0.006632           4.222084          -3.439036           32.55754
       -0.892000          -2.811964           30.40503          -0.006360           4.217406          -2.811964           30.40503
       -0.856000          -2.337141           28.61848          -0.006089           4.212926          -2.337141           28.61848
       -0.820000          -1.968753           27.11589          -0.005821           4.208641          -1.968753           27.11589
       -0.784000          -1.676934           25.83802          -0.005553           4.204545          -1.676934           25.83802
       -0.748000          -1.441563           24.74111          -0.005288           4.200644          -1.441563           24.74111
       -0.712000          -1.248676           23.79215          -0.005024           4.196932          -1.248676           23.79215
       -0.676000          -1.088358           22.96591          -0.004761           4.193411          -1.088358           22.96591
       -0.640000          -0.953392           22.24269          -0.004500           4.190077          -0.953392           22.24269
       -0.604000          -0.838436           21.60702          -0.004240           4.186932          -0.838436           21.60702
       -0.568000          -0.739463           21.04650          -0.003981           4.183972          -0.739463           21.04650
       -0.532000          -0.653385           20.55118          -0.003724           4.181199          -0.653385           20.55118
       -0.496000          -0.577804           20.11293          -0.003467           4.178611          -0.577804           20.11293
       -0.460000          -0.510832           19.72512          -0.003212           4.176207          -0.510832           19.72512
       -0.424000          -0.450962           19.38227          -0.002957           4.173985          -0.450962           19.38227
       -0.388000          -0.396976           19.07982          -0.002703           4.171950          -0.396976           19.07982
       -0.352000          -0.347881           18.81401          -0.002450           4.170095          -0.347881           18.81401
       -0.316000          -0.302854           18.58169          -0.002197           4.168422          -0.302854           18.58169
       -0.280000          -0.261209           18.38024          -0.001946           4.166931          -0.261209           18.38024
       -0.244000          -0.222361           18.20749          -0.001694           4.165620          -0.222361           18.20749
       -0.208000          -0.185811           18.06163          -0.001443           4.164492          -0.185811           18.06163
       -0.172000          -0.151122           17.94121          -0.001193           4.163543          -0.151122           17.94121
       -0.136000          -0.117908           17.84503          -0.942976E-3        4.162774          -0.117908           17.84503
       -0.100000          -0.085821           17.77220          -0.693153E-3        4.162185          -0.085821           17.77220
       -0.064000          -0.054541           17.72201          -0.443528E-3        4.161776          -0.054541           17.72201
       -0.028000          -0.023768           17.69401          -0.194021E-3        4.161546          -0.023768           17.69401
        0.008000           0.006785           17.68793           0.554339E-4        4.161497           0.006785           17.68793
        0.044000           0.037401           17.70373           0.304899E-3        4.161626           0.037401           17.70373
        0.080000           0.068363           17.74155           0.554451E-3        4.161935           0.068363           17.74155
        0.116000           0.099964           17.80173           0.804158E-3        4.162424           0.099964           17.80173
        0.152000           0.132511           17.88485           0.001054           4.163094           0.132511           17.88485
        0.188000           0.166336           17.99167           0.001304           4.163942           0.166336           17.99167
        0.224000           0.201801           18.12324           0.001555           4.164971           0.201801           18.12324
        0.260000           0.239315           18.28085           0.001806           4.166181           0.239315           18.28085
        0.296000           0.279340           18.46611           0.002057           4.167572           0.279340           18.46611
        0.332000           0.322410           18.68099           0.002310           4.169143           0.322410           18.68099
        0.368000           0.369153           18.92784           0.002562           4.170897           0.369153           18.92784
        0.404000           0.420311           19.20951           0.002816           4.172832           0.420311           19.20951
        0.440000           0.476778           19.52941           0.003070           4.174951           0.476778           19.52941
        0.476000           0.539639           19.89163           0.003325           4.177253           0.539639           19.89163
        0.512000           0.610230           20.30112           0.003581           4.179738           0.610230           20.30112
        0.548000           0.690217           20.76383           0.003838           4.182409           0.690217           20.76383
        0.584000           0.781694           21.28703           0.004096           4.185264           0.781694           21.28703
        0.620000           0.887340           21.87959           0.004355           4.188306           0.887340           21.87959
        0.656000           1.010625           22.55247           0.004616           4.191535           1.010625           22.55247
        0.692000           1.156103           23.31934           0.004878           4.194952           1.156103           23.31934
        0.728000           1.329868           24.19741           0.005141           4.198559           1.329868           24.19741
        0.764000           1.540210           25.20860           0.005406           4.202354           1.540210           25.20860
        0.800000           1.798641           26.38132           0.005672           4.206341           1.798641           26.38132
        0.836000           2.121532           27.75287           0.005940           4.210521           2.121532           27.75287
        0.872000           2.532773           29.37320           0.006209           4.214893           2.532773           29.37320
        0.908000           3.068330           31.31058           0.006481           4.219461           3.068330           31.31058
        0.944000           3.784285           33.66044           0.006754           4.224224           3.784285           33.66044
        0.980000           4.771894           36.55981           0.007029           4.229185           4.771894           36.55981
        1.016000           6.187314           40.21093           0.007306           4.234345           6.187314           40.21093
        1.052000           8.314680           44.92091           0.007586           4.239705           8.314680           44.92091
        1.088000           11.71153           51.16603           0.007868           4.245267           11.71153           51.16603
        1.124000           17.57781           59.67439           0.008152           4.251033           17.57781           59.67439
        1.160000           28.79320           71.36443           0.008438           4.257003           28.79320           71.36443
        1.196000           52.95839           85.71007           0.008727           4.263182           52.95839           85.71007
        1.232000           107.0104           87.20100           0.009019           4.269569           107.0104           87.20100
        1.268000           164.2288           11.65201           0.009313           4.276167           164.2288           11.65201
        1.304000           110.5920          -68.45066           0.009610           4.282978           110.5920          -68.45066
        1.340000           54.71725          -68.77543           0.009910           4.290004           54.71725          -68.77543
        1.376000           29.59506          -54.40855           0.010213           4.297246           29.59506          -54.40855
        1.412000           18.00574          -42.51846           0.010520           4.304708           18.00574          -42.51846
        1.448000           11.98274          -33.83950           0.010829           4.312392           11.98274          -33.83950
        1.484000           8.515532          -27.45679           0.011142           4.320300           8.515532          -27.45679
        1.520000           6.356333          -22.62847           0.011459           4.328434           6.356333          -22.62847
        1.556000           4.928231          -18.86783           0.011779           4.336798           4.928231          -18.86783
        1.592000           3.938387          -15.86103           0.012103           4.345394           3.938387          -15.86103
        1.628000           3.226421          -13.40143           0.012431           4.354224           3.226421          -13.40143
        1.664000           2.698924          -11.34914           0.012762           4.363292           2.698924          -11.34914
        1.700000           2.298648          -9.606571           0.013098           4.372599           2.298648          -9.606571
        1.736000           1.989011          -8.103830           0.013439           4.382150           1.989011          -8.103830
        1.772000           1.745802          -6.789567           0.013783           4.391947           1.745802          -6.789567
        1.808000           1.552517          -5.625160           0.014133           4.401995           1.552517          -5.625160
        1.844000           1.397641          -4.580973           0.014487           4.412295           1.397641          -4.580973
        1.880000           1.272973          -3.633747           0.014846           4.422852           1.272973          -3.633747
        1.916000           1.172594          -2.764880           0.015210           4.433670           1.172594          -2.764880
        1.952000           1.092192          -1.959160           0.015579           4.444751           1.092192          -1.959160
        1.988000           1.028632          -1.203860           0.015954           4.456100           1.028632          -1.203860
        2.024000           0.979663          -0.488081           0.016335           4.467722           0.979663          -0.488081
        2.060000           0.943732           0.197793           0.016721           4.479618           0.943732           0.197793
        2.096000           0.919873           0.862508           0.017113           4.491796           0.919873           0.862508
        2.132000           0.907640           1.514327           0.017511           4.504257           0.907640           1.514327
        2.168000           0.907100           2.161373           0.017916           4.517006           0.907100           2.161373
        2.204000           0.918872           2.811974           0.018327           4.530051           0.918872           2.811974
        2.240000           0.944227           3.475063           0.018745           4.543393           0.944227           3.475063
        2.276000           0.985268           4.160666           0.019170           4.557039           0.985268           4.160666
        2.312000           1.045238           4.880522           0.019602           4.570993           1.045238           4.880522
        2.348000           1.129025           5.648952           0.020042           4.585260           1.129025           5.648952
        2.384000           1.244014           6.484091           0.020490           4.599849           1.244014           6.484091
        2.420000           1.401548           7.409776           0.020945           4.614762           1.401548           7.409776
        2.456000           1.619532           8.458431           0.021409           4.630005           1.619532           8.458431
        2.492000           1.927348           9.675779           0.021882           4.645585           1.927348           9.675779
        2.528000           2.375562           11.12845           0.022363           4.661508           2.375562           11.12845
        2.564000           3.056712           12.91691           0.022853           4.677781           3.056712           12.91691
        2.600000           4.153414           15.19610           0.023353           4.694412           4.153414           15.19610
        2.636000           6.061275           18.20105           0.023863           4.711403           6.061275           18.20105
        2.672000           9.736761           22.21895           0.024383           4.728766           9.736761           22.21895
        2.708000           17.71318           26.99718           0.024913           4.746507           17.71318           26.99718
        2.744000           35.41314           26.97242           0.025454           4.764634           35.41314           26.97242
        2.780000           51.73702           1.618140           0.026006           4.783154           51.73702           1.618140
        2.816000           33.28070          -20.97424           0.026570           4.802074           33.28070          -20.97424
        2.852000           16.74228          -19.81834           0.027146           4.821407           16.74228          -19.81834
        2.888000           9.415739          -14.95212           0.027734           4.841156           9.415739          -14.95212
        2.924000           6.040515          -10.91337           0.028336           4.861336           6.040515          -10.91337
        2.960000           4.312568          -7.817612           0.028950           4.881950           4.312568          -7.817612
        2.996000           3.363750          -5.364994           0.029579           4.903014           3.363750          -5.364994
        3.032000           2.840745          -3.313627           0.030221           4.924535           2.840745          -3.313627
        3.068000           2.596005          -1.494169           0.030879           4.946523           2.596005          -1.494169
        3.104000           2.579038           0.219549           0.031552           4.968988           2.579038           0.219549
        3.140000           2.829441           1.954189           0.032241           4.991947           2.829441           1.954189
        3.176000           3.563571           3.800851           0.032946           5.015404           3.563571           3.800851
        3.212000           5.370894           5.587363           0.033669           5.039377           5.370894           5.587363
        3.248000           8.878011           5.433722           0.034410           5.063876           8.878011           5.433722
        3.284000           9.212368           1.551534           0.035169           5.088914           9.212368           1.551534
        3.320000           6.053483           1.417677           0.035948           5.114505           6.053483           1.417677
        3.356000           4.658476           3.662373           0.036746           5.140665           4.658476           3.662373
        3.392000           4.616115           6.336806           0.037566           5.167406           4.616115           6.336806
        3.428000           5.574522           9.376061           0.038407           5.194745           5.574522           9.376061
        3.464000           7.941674           13.04617           0.039270           5.222696           7.941672           13.04617
        3.500000           13.32115           17.35322           0.040158           5.251277           13.32115           17.35323
        3.536000           25.64013           19.20578           0.041069           5.280505           25.64015           19.20576
        3.572000           40.56806           3.589708           0.042006           5.310400           40.56779           3.589840
        3.608000           29.19273          -15.87853           0.042970           5.340976           29.19298          -15.87914
        3.644000           15.78611          -15.31324           0.043961           5.372257           15.78598          -15.31284
        3.680000           10.38351          -10.35259           0.044981           5.404262           10.38371          -10.35265
        3.716000           9.324271          -5.524749           0.046032           5.437010           9.324243          -5.524928
        3.752000           11.94504          -1.513381           0.047113           5.470525           11.94475          -1.513384
        3.788000           19.02049          -2.307557           0.048228           5.504830           19.02065          -2.306781
        3.824000           19.58700          -12.18398           0.049377           5.539950           19.58798          -12.18567
        3.860000           12.41586          -14.46488           0.050562           5.575910           12.41233          -14.46335
        3.896000           9.350216          -13.11483           0.051784           5.612733           9.356866          -13.11582
        3.932000           6.895975          -12.39062           0.053045           5.650451           6.889954          -12.39132
        3.968000           5.294824          -10.53512           0.054348           5.689091           5.298352          -10.53084
        4.004000           5.039698          -9.436818           0.055694           5.728683           5.038672          -9.443691
        4.040000           4.110361          -8.912815           0.057085           5.769258           4.110182          -8.906626
        4.076000           3.450536          -7.792438           0.058523           5.810852           3.451235          -7.795959
        4.112000           2.982387          -6.886402           0.060011           5.853498           2.981705          -6.885441
        4.148000           2.656128          -5.621303           0.061552           5.897232           2.656463          -5.621216
        4.184000           3.026475          -4.253284           0.063147           5.942094           3.026530          -4.253449
        4.220000           4.377350          -3.524289           0.064800           5.988124           4.377200          -3.524320
        4.256000           5.147512          -4.888321           0.066513           6.035364           5.147573          -4.888192
        4.292000           3.569439          -5.272779           0.068291           6.083860           3.569479          -5.272868
        4.328000           2.597923          -4.115499           0.070136           6.133657           2.597861          -4.115472
        4.364000           2.355824          -2.705572           0.072052           6.184805           2.355856          -2.705564
        4.400000           2.560013          -1.181215           0.074044           6.237361           2.560006          -1.181226
        4.436000           3.234059           0.570705           0.076115           6.291375           3.234055           0.570710
        4.472001           4.721074           2.714531           0.078269           6.346910           4.721075           2.714529
        4.508000           8.053409           5.239424           0.080512           6.404022           8.053408           5.239423
        4.544000           15.70481           6.209927           0.082850           6.462783           15.70481           6.209927
        4.580000           25.07277          -3.833385           0.085286           6.523256           25.07277          -3.833385
        4.616000           17.79480          -16.63721           0.087829           6.585521           17.79480          -16.63721
        4.652000           8.947514          -16.87722           0.090484           6.649654           8.947514          -16.87722
        4.688000           4.920251          -14.50091           0.093258           6.715737           4.920251          -14.50091
        4.724000           3.066357          -12.47274           0.096159           6.783857           3.066357          -12.47274
        4.760000           2.102671          -10.95035           0.099196           6.854113           2.102671          -10.95035
        4.796000           1.545606          -9.795416           0.102377           6.926602           1.545606          -9.795416
        4.832000           1.196021          -8.891779           0.105712           7.001431           1.196021          -8.891779
        4.868000           0.962350          -8.162663           0.109212           7.078713           0.962350          -8.162663
        4.904000           0.798281          -7.558289           0.112889           7.158573           0.798281          -7.558289
        4.940001           0.678528          -7.045778           0.116754           7.241144           0.678528          -7.045778
        4.976000           0.588377          -6.602717           0.120823           7.326560           0.588377          -6.602717
        5.012000           0.518811          -6.213324           0.125110           7.414977           0.518811          -6.213324
        5.048000           0.464075          -5.866203           0.129631           7.506557           0.464075          -5.866203
        5.084000           0.420362          -5.552872           0.134406           7.601471           0.420362          -5.552872
        5.120000           0.385083          -5.266836           0.139454           7.699914           0.385083          -5.266836
        5.156000           0.356446          -5.003017           0.144797           7.802084           0.356446          -5.003017
        5.192000           0.333196          -4.757323           0.150461           7.908203           0.333196          -4.757323
        5.228000           0.314458          -4.526369           0.156471           8.018507           0.314458          -4.526369
        5.264000           0.299639          -4.307240           0.162860           8.133261           0.299639          -4.307240
        5.300000           0.288372          -4.097364           0.169660           8.252743           0.288372          -4.097364
        5.336000           0.280490          -3.894350           0.176909           8.377260           0.280490          -3.894350
        5.372000           0.276024          -3.695850           0.184648           8.507154           0.276024          -3.695850
        5.408000           0.275230          -3.499451           0.192927           8.642786           0.275230          -3.499451
        5.444000           0.278654          -3.302500           0.201796           8.784559           0.278654          -3.302500
        5.480000           0.287257          -3.101879           0.211317           8.932922           0.287257          -3.101879
        5.516000           0.302647          -2.893731           0.221557           9.088362           0.302647          -2.893731
        5.552001           0.327516          -2.672975           0.232594           9.251419           0.327516          -2.672975
        5.588000           0.366486          -2.432578           0.244514           9.422687           0.366486          -2.432578
        5.624000           0.427887          -2.162302           0.257420           9.602839           0.427887          -2.162302
        5.660000           0.527728          -1.846722           0.271426           9.792615           0.527728          -1.846722
        5.696000           0.699468          -1.462293           0.286665           9.992840           0.699468          -1.462293
        5.732000           1.020674          -0.976174           0.303292           10.20446           1.020674          -0.976174
        5.768000           1.691527          -0.373127           0.321485           10.42850           1.691527          -0.373127
        5.804000           3.222322           0.082967           0.341454           10.66617           3.222322           0.082967
        5.840000           5.735392          -1.434098           0.363446           10.91880           5.735392          -1.434098
        5.876000           4.943283          -4.981285           0.387751           11.18793           4.943283          -4.981285
        5.912000           2.562420          -5.478642           0.414713           11.47532           2.562420          -5.478642
        5.948000           1.403607          -4.891291           0.444747           11.78300           1.403607          -4.891291
        5.984000           0.887181          -4.324491           0.478350           12.11329           0.887181          -4.324491
        6.020000           0.630912          -3.876910           0.516122           12.46893           0.630912          -3.876910
        6.056000           0.491018          -3.518339           0.558801           12.85310           0.491018          -3.518339
        6.092000           0.410179          -3.217844           0.607295           13.26957           0.410179          -3.217844
        6.127999           0.363131          -2.953829           0.662730           13.72278           0.363131          -2.953829
        6.164000           0.337949          -2.711312           0.726524           14.21809           0.337949          -2.711312
        6.200000           0.329057          -2.479117           0.800476           14.76191           0.329057          -2.479117
        6.236000           0.334468          -2.247834           0.886899           15.36208           0.334468          -2.247834
        6.272000           0.354841          -2.008336           0.988801           16.02822           0.354841          -2.008336
        6.308000           0.393627          -1.750354           1.110165           16.77232           0.393627          -1.750354
        6.344000           0.458326          -1.460855           1.256337           17.60945           0.458326          -1.460855
        6.380000           0.563736          -1.121627           1.434629           18.55880           0.563736          -1.121627
        6.416000           0.739791          -0.705619           1.655269           19.64535           0.739791          -0.705619
        6.452000           1.051692          -0.172409           1.932880           20.90190           1.051692          -0.172409
        6.487999           1.656742           0.528280           2.288956           22.37253           1.656742           0.528280
        6.524000           2.971318           1.365880           2.756140           24.11784           2.971318           1.365880
        6.560000           5.921259           1.477352           3.385807           26.22293           5.921259           1.477352
        6.596000           8.948441          -2.666130           4.262506           28.81074           8.948441          -2.666130
        6.631999           5.923318          -6.824994           5.532884           32.06385           5.923318          -6.824994
        6.668000           2.960183          -6.727118           7.468374           36.26149           2.960183          -6.727118
        6.704000           1.634516          -5.903834           10.61240           41.83715           1.634516          -5.903834
        6.740000           1.019510          -5.223096           16.16365           49.44209           1.019510          -5.223096
        6.776000           0.697541          -4.716463           27.07713           59.78800           0.697541          -4.716463
        6.812000           0.510666          -4.334249           51.21174           71.35561           0.510666          -4.334249
        6.848000           0.393189          -4.036783           102.7476           63.53562           0.393189          -4.036783
        6.884000           0.314626          -3.798055           131.6300          -14.87080           0.314626          -3.798055
        6.920000           0.259466          -3.601279           76.16191          -60.66037           0.259466          -3.601279
        6.956000           0.219188          -3.435382           38.03347          -54.29973           0.219188          -3.435382
        6.992000           0.188814          -3.292847           21.28202          -42.60645           0.188814          -3.292847
        7.028000           0.165285          -3.168417           13.32416          -33.50584           0.165285          -3.168417
        7.064000           0.146639          -3.058324           9.071331          -26.85911           0.146639          -3.058324
        7.099999           0.131573          -2.959798           6.570007          -21.91654           0.131573          -2.959798
        7.136000           0.119192          -2.870756           4.987009          -18.12767           0.119192          -2.870756
        7.172000           0.108867          -2.789606           3.927350          -15.13589           0.108867          -2.789606
        7.208000           0.100144          -2.715111           3.186344          -12.71035           0.100144          -2.715111
        7.244000           0.092688          -2.646287           2.649974          -10.69787           0.092688          -2.646287
        7.280000           0.086251          -2.582349           2.250952          -8.993970           0.086251          -2.582349
        7.316000           0.080642          -2.522661           1.947578          -7.525183           0.080642          -2.522661
        7.352000           0.075713          -2.466699           1.712964          -6.238493           0.075713          -2.466699
        7.388000           0.071350          -2.414028           1.529169          -5.094561           0.071350          -2.414028
        7.424000           0.067461          -2.364285           1.383907          -4.063665           0.067461          -2.364285
        7.460000           0.063973          -2.317163           1.268561          -3.122771           0.063973          -2.317163
        7.496000           0.060828          -2.272400           1.176970          -2.253595           0.060828          -2.272400
        7.532000           0.057976          -2.229774           1.104682          -1.441416           0.057976          -2.229774
        7.567999           0.055379          -2.189091           1.048456          -0.674057           0.055379          -2.189091
        7.604000           0.053003          -2.150182           1.005930           0.058821           0.053003          -2.150182
        7.640000           0.050820          -2.112900           0.975414           0.766147           0.050820          -2.112900
        7.676000           0.048807          -2.077118           0.955738           1.455902           0.048807          -2.077118
        7.712000           0.046946          -2.042722           0.946164           2.135396           0.046946          -2.042722
        7.748000           0.045218          -2.009609           0.946328           2.811622           0.045218          -2.009609
        7.784000           0.043609          -1.977690           0.956210           3.491381           0.043609          -1.977690
        7.820000           0.042108          -1.946885           0.976142           4.181592           0.042108          -1.946885
        7.856000           0.040703          -1.917122           1.006826           4.889554           0.040703          -1.917122
        7.892000           0.039385          -1.888333           1.049401           5.623163           0.039385          -1.888333
        7.927999           0.038146          -1.860462           1.105531           6.391249           0.038146          -1.860462
        7.964000           0.036978          -1.833453           1.177565           7.204028           0.036978          -1.833453
        8.000000           0.035876          -1.807258           1.268764           8.073547           0.035876          -1.807258
# 
# 02/06/2024 at 12:07 yambo @ unimi-XPS-8930 [start]
# 02/06/2024 at 12:07                        [end]
#  
# Timing   [Min/Max/Average]: 02s/02s/02s
#
# .-Input file  yambo.in
# | optics                           # [R] Linear Response optical properties
# | bss                              # [R] BSE solver
# | bse                              # [R][BSE] Bethe Salpeter Equation.
# | BoseTemp= 0.000000         eV    # Bosonic Temperature
# | FFTGvecs=  8845            RL    # [FFT] Plane-waves
# | BS_nCPU_LinAlg_INV= 1            # [PARALLEL] CPUs for Linear Algebra (if -1 it is automatically set)
# | BS_nCPU_LinAlg_DIAGO= 1          # [PARALLEL] CPUs for Linear Algebra (if -1 it is automatically set)
# | X_Threads= 1                     # [OPENMP/X] Number of threads for response functions
# | DIP_Threads= 1                   # [OPENMP/X] Number of threads for dipoles
# | K_Threads= 1                     # [OPENMP/BSK] Number of threads for response functions
# | NonPDirs= "z"                    # [X/BSS] Non periodic chartesian directions (X,Y,Z,XY...)
# | BSKmod= "HF"                     # [BSE] IP/Hartree/HF/ALDA/SEX/BSfxc
# | BSEmod= "retarded"               # [BSE] resonant/retarded/coupling
# | BSSmod= "hdi"                    # [BSS] (h)aydock/(d)iagonalization/(s)lepc/(i)nversion/(t)ddft`
# | DipComputed= "R V P"             # [DIP] [default R P V; extra P2 Spin Orb]
# | BSENGexx= 109              RL    # [BSK] Exchange components
# | BSENGBlk=  55              RL    # [BSK] Screened interaction block size [if -1 uses all the G-vectors of W(q,G,Gp)]
# | % KfnQP_E
# |  5.000000 | 1.000000 | 1.000000 |        # [EXTQP BSK BSS] E parameters  (c/v) eV|adim|adim
# | %
# | % BSEQptR
# |  1 | 3 |                             # [BSK] Transferred momenta range
# | %
# | % BSEBands
# |  11 | 15 |                           # [BSK] Bands range
# | %
# | % BEnRange
# | -1.000000 | 8.000000 |         eV    # [BSS] Energy range
# | %
# | % BDmRange
# |  0.050000 | 0.050000 |         eV    # [BSS] Damping range
# | %
# | BEnSteps= 251                    # [BSS] Energy steps
# | % BLongDir
# |  0.100000E-4 |  0.00000    |  0.00000    # [BSS] [cc] Electric Field
# | %
# | BSEprop= "abs jdos"              # [BSS] Can be any among abs/jdos/kerr/magn/dich/photolum/esrt
# | BSEdips= "none"                  # [BSS] Can be "trace/none" or "xy/xz/yz" to define off-diagonal rotation plane
# | BSSInvMode= "pf"                 # [BSS] Inversion solver modality `(f)ull/(p)erturbative`
# | BSEPSInvTrs= 0.010000            # [BSS EPS] Inversion treshold. Relative[o/o](>0)/Absolute(<0)
# | BSSInvPFratio= 1.000000          # [BSS] Inversion solver. Ratio between the number of frequencies solved pert/full
# | #WRbsWF                        # [BSS] Write to disk excitonic the WFs
# | BSHayTrs= 0.100000E-2            # [BSS] Relative [o/o] Haydock threshold. Strict(>0)/Average(<0)
# | BSPLInvTrs= 0.500000             # [BSS PL] Inversion treshold
