#                                                                     
#  ____  ____     _       ____    ____  ______      ___               
# |_  _||_  _|   / \     |_   \  /   _||_   _ \   ."   `.             
#   \ \  / /    / _ \      |   \/   |    | |_) | /  .-.  \            
#    \ \/ /    / ___ \     | |\  /| |    |  __". | |   | |            
#    _|  |_  _/ /   \ \_  _| |_\/_| |_  _| |__) |\  `-"  /            
#   |______||____| |____||_____||_____||_______/  `.___."             
#                                                                     
#                                                                     
#                                                                     
# Version 5.2.0 Revision 22515 Hash (prev commit) 4e9ef8ab7d          
#                Branch is fixes-issue-540                            
#          MPI+OpenMP+SLK+SLEPC+HDF5_MPI_IO Build                     
#                http://www.yambo-code.org                            
#
# Polarizability  ( -<<X>> ) @ Q(2):   0.00000000     0.333333343      0.00000000    [iku]
#
# Polarizability units: length
#
# [GEN] GF Energies                               : Slater exchange(X)+Perdew & Zunger(C)
# [GEN] Green`s Function                          : Retarded
#
# DIP band range                                  :  11  15
# DIP band range limits                           :  13  14
# DIP e/h energy range                            :  -1.00000000     -1.00000000    [eV]
# RL vectors in the sum                           :   8845
# [r,Vnl] included                                : yes
# Bands ordered                                   : yes
# Direct v evaluation                             : no
# Approach used                                   : G-space v
# Dipoles computed                                : R V P
# Wavefunctions                                   : Slater exchange(X)+Perdew & Zunger(C)
#
#
# [K] Identifier                                  :   4837
# [K] Q-point                                     :   0.00000000     0.333333343      0.00000000   
# [K] Dimension                                   :   54
# [K] Bands                                       :  11  15
# [K] Exchange res                                : yes
# [K] Correlation res                             : yes
# [K] Kernel`s coupling                           : no
# [K] Exchange cpl                                : no
# [K] Correlation cpl                             : no
# [K] W interaction is bare                       : yes
# [K] ALDA kernel in R-space                      : no
# [K] RL vectors exchange                         :  109
# [K] RL vectors correlation                      :   55
# [K] E/h energy range                            :  -1.00000000     -1.00000000    [eV]
# [K] Coupling range                              :   100.000000      100.000000    [o/o]
# [W] Interaction is diagonal                     : yes
# [W] Matrix size                                 :  1
# [RIM] RL components col                         : 0
# [RIM] Random points col                         : 0
#                                                 
# [Haydock] Accuracy (requested)                  :  0.100000005E-2 [o/o]
# [Haydock] Accuracy (reached)                    :  0.467715145E-3 [o/o]
# [Haydock] Iterations                            :   34
#
#
#    E[1] [eV]          Im(alpha)          Re(alpha)          Im(alpha_o)        Re(alpha_o)        Im(alpha`)         Re(alpha`)
#
       -1.000000          -0.007697           1.374692          -0.001514           0.992763          -0.007697           1.374692
       -0.964000          -0.007248           1.369327          -0.001456           0.991694          -0.007248           1.369327
       -0.928000          -0.006826           1.364273          -0.001399           0.990666          -0.006826           1.364273
       -0.892000          -0.006429           1.359513          -0.001342           0.989680          -0.006429           1.359513
       -0.856000          -0.006052           1.355031          -0.001285           0.988734          -0.006052           1.355031
       -0.820000          -0.005695           1.350811          -0.001229           0.987829          -0.005695           1.350811
       -0.784000          -0.005355           1.346842          -0.001173           0.986965          -0.005355           1.346842
       -0.748000          -0.005030           1.343111          -0.001117           0.986141          -0.005030           1.343111
       -0.712000          -0.004718           1.339609          -0.001061           0.985357          -0.004718           1.339609
       -0.676000          -0.004419           1.336326          -0.001006           0.984613          -0.004419           1.336326
       -0.640000          -0.004131           1.333253          -0.951108E-3        0.983909          -0.004131           1.333253
       -0.604000          -0.003853           1.330384          -0.896363E-3        0.983244          -0.003853           1.330384
       -0.568000          -0.003584           1.327710          -0.841837E-3        0.982618          -0.003584           1.327710
       -0.532000          -0.003324           1.325227          -0.787516E-3        0.982032          -0.003324           1.325227
       -0.496000          -0.003070           1.322930          -0.733385E-3        0.981484          -0.003070           1.322930
       -0.460000          -0.002823           1.320811          -0.679432E-3        0.980976          -0.002823           1.320811
       -0.424000          -0.002582           1.318868          -0.625645E-3        0.980506          -0.002582           1.318868
       -0.388000          -0.002346           1.317097          -0.572007E-3        0.980075          -0.002346           1.317097
       -0.352000          -0.002115           1.315493          -0.518508E-3        0.979682          -0.002115           1.315493
       -0.316000          -0.001888           1.314054          -0.465133E-3        0.979328          -0.001888           1.314054
       -0.280000          -0.001664           1.312777          -0.411871E-3        0.979013          -0.001664           1.312777
       -0.244000          -0.001444           1.311660          -0.358707E-3        0.978735          -0.001444           1.311660
       -0.208000          -0.001226           1.310700          -0.305630E-3        0.978496          -0.001226           1.310700
       -0.172000          -0.001011           1.309896          -0.252627E-3        0.978295          -0.001011           1.309896
       -0.136000          -0.797140E-3        1.309246          -0.199683E-3        0.978132          -0.797140E-3        1.309246
       -0.100000          -0.584988E-3        1.308748          -0.146787E-3        0.978008          -0.584988E-3        1.308748
       -0.064000          -0.373884E-3        1.308404          -0.939273E-4        0.977921          -0.373884E-3        1.308404
       -0.028000          -0.163451E-3        1.308211          -0.410887E-4        0.977873          -0.163451E-3        1.308211
        0.008000           0.466927E-4        1.308169           0.117397E-4        0.977862           0.466927E-4        1.308169
        0.044000           0.256918E-3        1.308278           0.645699E-4        0.977890           0.256918E-3        1.308278
        0.080000           0.467606E-3        1.308538           0.117416E-3        0.977955           0.467606E-3        1.308538
        0.116000           0.679125E-3        1.308951           0.170291E-3        0.978059           0.679125E-3        1.308951
        0.152000           0.891869E-3        1.309515           0.223207E-3        0.978200           0.891869E-3        1.309515
        0.188000           0.001106           1.310234           0.276175E-3        0.978380           0.001106           1.310234
        0.224000           0.001323           1.311107           0.329210E-3        0.978598           0.001323           1.311107
        0.260000           0.001541           1.312137           0.382325E-3        0.978854           0.001541           1.312137
        0.296000           0.001763           1.313325           0.435530E-3        0.979148           0.001763           1.313325
        0.332000           0.001988           1.314673           0.488841E-3        0.979481           0.001988           1.314673
        0.368000           0.002217           1.316185           0.542269E-3        0.979852           0.002217           1.316185
        0.404000           0.002450           1.317863           0.595828E-3        0.980261           0.002450           1.317863
        0.440000           0.002688           1.319710           0.649530E-3        0.980710           0.002688           1.319710
        0.476000           0.002932           1.321731           0.703390E-3        0.981197           0.002932           1.321731
        0.512000           0.003182           1.323928           0.757421E-3        0.981723           0.003182           1.323928
        0.548000           0.003439           1.326308           0.811634E-3        0.982288           0.003439           1.326308
        0.584000           0.003703           1.328874           0.866045E-3        0.982891           0.003703           1.328874
        0.620000           0.003976           1.331634           0.920666E-3        0.983535           0.003976           1.331634
        0.656000           0.004258           1.334593           0.975512E-3        0.984217           0.004258           1.334593
        0.692000           0.004551           1.337758           0.001031           0.984939           0.004551           1.337758
        0.728000           0.004855           1.341138           0.001086           0.985701           0.004855           1.341138
        0.764000           0.005172           1.344741           0.001142           0.986503           0.005172           1.344741
        0.800000           0.005504           1.348576           0.001197           0.987344           0.005504           1.348576
        0.836000           0.005851           1.352655           0.001254           0.988227           0.005851           1.352655
        0.872000           0.006217           1.356990           0.001310           0.989150           0.006217           1.356990
        0.908000           0.006603           1.361594           0.001367           0.990113           0.006603           1.361594
        0.944000           0.007011           1.366482           0.001424           0.991118           0.007011           1.366482
        0.980000           0.007444           1.371672           0.001482           0.992163           0.007444           1.371672
        1.016000           0.007906           1.377182           0.001539           0.993251           0.007906           1.377182
        1.052000           0.008401           1.383034           0.001598           0.994380           0.008401           1.383034
        1.088000           0.008933           1.389254           0.001656           0.995551           0.008933           1.389254
        1.124000           0.009508           1.395869           0.001716           0.996765           0.009508           1.395869
        1.160000           0.010131           1.402911           0.001775           0.998021           0.010131           1.402911
        1.196000           0.010812           1.410419           0.001835           0.999321           0.010812           1.410419
        1.232000           0.011559           1.418435           0.001895           1.000664           0.011559           1.418435
        1.268000           0.012383           1.427009           0.001956           1.002050           0.012383           1.427009
        1.304000           0.013300           1.436203           0.002018           1.003480           0.013300           1.436203
        1.340000           0.014327           1.446085           0.002080           1.004955           0.014327           1.446085
        1.376000           0.015488           1.456742           0.002142           1.006475           0.015488           1.456742
        1.412000           0.016810           1.468274           0.002205           1.008040           0.016810           1.468274
        1.448000           0.018332           1.480808           0.002269           1.009651           0.018332           1.480808
        1.484000           0.020104           1.494497           0.002333           1.011307           0.020104           1.494497
        1.520000           0.022194           1.509534           0.002398           1.013010           0.022194           1.509534
        1.556000           0.024694           1.526166           0.002464           1.014760           0.024694           1.526166
        1.592000           0.027737           1.544710           0.002530           1.016557           0.027737           1.544710
        1.628000           0.031510           1.565586           0.002597           1.018403           0.031510           1.565586
        1.664000           0.036298           1.589357           0.002664           1.020296           0.036298           1.589357
        1.700000           0.042538           1.616801           0.002733           1.022239           0.042538           1.616801
        1.736000           0.050941           1.649022           0.002802           1.024231           0.050941           1.649022
        1.772000           0.062718           1.687626           0.002872           1.026273           0.062718           1.687626
        1.808000           0.080077           1.735028           0.002942           1.028365           0.080077           1.735028
        1.844000           0.107353           1.794907           0.003014           1.030509           0.107353           1.794907
        1.880000           0.153847           1.872784           0.003086           1.032705           0.153847           1.872784
        1.916000           0.242112           1.975319           0.003159           1.034953           0.242112           1.975319
        1.952000           0.431781           2.095436           0.003233           1.037254           0.431781           2.095436
        1.988000           0.845470           2.095421           0.003308           1.039608           0.845470           2.095421
        2.024000           1.182856           1.517785           0.003384           1.042017           1.182856           1.517785
        2.060000           0.757488           1.080218           0.003461           1.044481           0.757488           1.080218
        2.096000           0.420689           1.154060           0.003539           1.047001           0.420689           1.154060
        2.132000           0.292138           1.307965           0.003618           1.049577           0.292138           1.307965
        2.168000           0.268792           1.458726           0.003699           1.052211           0.268792           1.458726
        2.204000           0.330836           1.609279           0.003780           1.054902           0.330836           1.609279
        2.240000           0.535084           1.738289           0.003862           1.057653           0.535084           1.738289
        2.276000           0.948665           1.606019           0.003946           1.060463           0.948665           1.606019
        2.312000           0.948479           1.000283           0.004031           1.063334           0.948479           1.000283
        2.348000           0.514563           0.846746           0.004117           1.066267           0.514563           0.846746
        2.384000           0.281190           0.951190           0.004204           1.069261           0.281190           0.951190
        2.420000           0.177431           1.062402           0.004293           1.072319           0.177431           1.062402
        2.456000           0.126352           1.151686           0.004383           1.075442           0.126352           1.151686
        2.492000           0.098503           1.223616           0.004474           1.078629           0.098503           1.223616
        2.528000           0.082260           1.284013           0.004567           1.081883           0.082260           1.284013
        2.564000           0.072519           1.337007           0.004662           1.085205           0.072519           1.337007
        2.600000           0.066824           1.385399           0.004758           1.088595           0.066824           1.385399
        2.636000           0.063929           1.431181           0.004855           1.092054           0.063929           1.431181
        2.672000           0.063208           1.475885           0.004954           1.095585           0.063208           1.475885
        2.708000           0.064418           1.520816           0.005055           1.099188           0.064418           1.520816
        2.744000           0.067604           1.567221           0.005158           1.102863           0.067604           1.567221
        2.780000           0.073135           1.616442           0.005262           1.106614           0.073135           1.616442
        2.816000           0.081888           1.670048           0.005369           1.110440           0.081888           1.670048
        2.852000           0.095798           1.729826           0.005477           1.114343           0.095798           1.729826
        2.888000           0.118874           1.796328           0.005587           1.118325           0.118874           1.796328
        2.924000           0.151282           1.864158           0.005699           1.122387           0.151282           1.864158
        2.960000           0.182128           1.947487           0.005813           1.126530           0.182128           1.947487
        2.996000           0.239237           2.067881           0.005930           1.130757           0.239237           2.067881
        3.032000           0.359456           2.226026           0.006048           1.135068           0.359456           2.226026
        3.068000           0.623406           2.412311           0.006169           1.139465           0.623406           2.412311
        3.104000           1.209979           2.448725           0.006293           1.143950           1.209979           2.448725
        3.140000           1.772382           1.654615           0.006419           1.148525           1.772382           1.654614
        3.176000           1.181029           0.929204           0.006547           1.153191           1.181029           0.929204
        3.212000           0.640418           1.007502           0.006678           1.157950           0.640418           1.007502
        3.248000           0.415816           1.227112           0.006811           1.162805           0.415816           1.227112
        3.284000           0.339015           1.436087           0.006948           1.167757           0.339015           1.436087
        3.320000           0.346467           1.637110           0.007087           1.172808           0.346467           1.637110
        3.356000           0.444629           1.847652           0.007229           1.177960           0.444629           1.847652
        3.392000           0.716906           2.052575           0.007375           1.183216           0.716906           2.052575
        3.428000           1.311224           1.987912           0.007523           1.188577           1.311224           1.987913
        3.464000           1.546189           1.125851           0.007675           1.194046           1.546191           1.125850
        3.500000           0.901344           0.743123           0.007830           1.199627           0.901341           0.743120
        3.536000           0.499202           0.892103           0.007989           1.205319           0.499197           0.892111
        3.572000           0.329122           1.087009           0.008151           1.211127           0.329141           1.087015
        3.608000           0.259872           1.255367           0.008317           1.217054           0.259862           1.255311
        3.644000           0.243677           1.394777           0.008487           1.223101           0.243624           1.394914
        3.680000           0.243679           1.503306           0.008661           1.229272           0.243765           1.503125
        3.716000           0.247509           1.623568           0.008839           1.235570           0.247393           1.623641
        3.752000           0.295244           1.747729           0.009021           1.241997           0.295352           1.747772
        3.788000           0.354590           1.840748           0.009208           1.248557           0.354548           1.840661
        3.824000           0.427915           1.975695           0.009400           1.255254           0.427883           1.975750
        3.860000           0.619718           2.076640           0.009596           1.262090           0.619773           2.076638
        3.896000           0.768320           2.044752           0.009798           1.269069           0.768288           2.044729
        3.932000           0.938698           2.049020           0.010004           1.276195           0.938701           2.049042
        3.968000           0.994967           1.829616           0.010216           1.283472           0.994972           1.829609
        4.004000           0.795698           1.911900           0.010434           1.290903           0.795695           1.911899
        4.040000           0.835368           2.261703           0.010657           1.298493           0.835368           2.261704
        4.076000           1.218842           2.695337           0.010887           1.306245           1.218843           2.695337
        4.112000           2.239820           2.989938           0.011122           1.314165           2.239819           2.989938
        4.148000           3.879290           1.862441           0.011365           1.322257           3.879289           1.862443
        4.184000           3.197207          -0.471258           0.011614           1.330526           3.197206          -0.471258
        4.220000           1.628376          -0.750024           0.011870           1.338976           1.628376          -0.750024
        4.256000           0.875875          -0.378191           0.012133           1.347613           0.875875          -0.378191
        4.292000           0.536009          -0.034338           0.012404           1.356442           0.536009          -0.034338
        4.328000           0.363484           0.225937           0.012683           1.365470           0.363484           0.225937
        4.364000           0.265868           0.423451           0.012971           1.374700           0.265868           0.423451
        4.400000           0.205824           0.578235           0.013267           1.384141           0.205824           0.578235
        4.436000           0.166502           0.703746           0.013572           1.393798           0.166502           0.703746
        4.472001           0.139503           0.808707           0.013886           1.403678           0.139503           0.808707
        4.508000           0.120300           0.898873           0.014211           1.413787           0.120300           0.898873
        4.544000           0.106286           0.978161           0.014545           1.424134           0.106286           0.978161
        4.580000           0.095887           1.049322           0.014891           1.434725           0.095887           1.049322
        4.616000           0.088117           1.114361           0.015248           1.445569           0.088117           1.114361
        4.652000           0.082342           1.174793           0.015616           1.456674           0.082342           1.174793
        4.688000           0.078164           1.231805           0.015997           1.468048           0.078164           1.231805
        4.724000           0.075351           1.286383           0.016391           1.479701           0.075351           1.286383
        4.760000           0.073813           1.339400           0.016799           1.491642           0.073813           1.339400
        4.796000           0.073624           1.391698           0.017220           1.503881           0.073624           1.391698
        4.832000           0.075094           1.444182           0.017657           1.516429           0.075094           1.444182
        4.868000           0.078984           1.497940           0.018110           1.529297           0.078984           1.497940
        4.904000           0.087069           1.554381           0.018579           1.542495           0.087069           1.554381
        4.940001           0.103757           1.615090           0.019065           1.556038           0.103757           1.615090
        4.976000           0.140814           1.678958           0.019569           1.569936           0.140814           1.678958
        5.012000           0.222735           1.719315           0.020093           1.584205           0.222735           1.719315
        5.048000           0.292150           1.644264           0.020637           1.598857           0.292150           1.644264
        5.084000           0.207541           1.593357           0.021203           1.613908           0.207541           1.593357
        5.120000           0.138392           1.646463           0.021791           1.629374           0.138392           1.646463
        5.156000           0.110420           1.716044           0.022403           1.645271           0.110420           1.716044
        5.192000           0.101061           1.784518           0.023041           1.661617           0.101061           1.784518
        5.228000           0.101520           1.852748           0.023705           1.678431           0.101520           1.852748
        5.264000           0.110289           1.923790           0.024397           1.695732           0.110289           1.923790
        5.300000           0.130900           2.001137           0.025120           1.713543           0.130900           2.001137
        5.336000           0.175591           2.087383           0.025875           1.731883           0.175591           2.087383
        5.372000           0.277985           2.170326           0.026663           1.750779           0.277985           2.170326
        5.408000           0.470895           2.139521           0.027487           1.770254           0.470895           2.139521
        5.444000           0.474062           1.900675           0.028350           1.790334           0.474062           1.900675
        5.480000           0.283095           1.869306           0.029254           1.811050           0.283095           1.869306
        5.516000           0.182040           1.955591           0.030202           1.832430           0.182040           1.955591
        5.552001           0.138755           2.047076           0.031196           1.854509           0.138755           2.047076
        5.588000           0.118917           2.130897           0.032241           1.877318           0.118917           2.130897
        5.624000           0.109431           2.209078           0.033339           1.900899           0.109431           2.209078
        5.660000           0.105151           2.284223           0.034494           1.925287           0.105151           2.284223
        5.696000           0.103825           2.358207           0.035712           1.950527           0.103825           2.358207
        5.732000           0.104369           2.432333           0.036996           1.976666           0.104369           2.432333
        5.768000           0.106225           2.507543           0.038351           2.003753           0.106225           2.507543
        5.804000           0.109092           2.584573           0.039785           2.031839           0.109092           2.584573
        5.840000           0.112810           2.664036           0.041302           2.060984           0.112810           2.664036
        5.876000           0.117297           2.746482           0.042909           2.091251           0.117297           2.746482
        5.912000           0.122523           2.832429           0.044615           2.122705           0.122523           2.832429
        5.948000           0.128491           2.922399           0.046429           2.155424           0.128491           2.922399
        5.984000           0.135233           3.016922           0.048359           2.189483           0.135233           3.016922
        6.020000           0.142803           3.116561           0.050418           2.224972           0.142803           3.116561
        6.056000           0.151277           3.221934           0.052616           2.261988           0.151277           3.221934
        6.092000           0.160750           3.333710           0.054967           2.300634           0.160750           3.333710
        6.127999           0.171345           3.452638           0.057488           2.341025           0.171345           3.452638
        6.164000           0.183209           3.579568           0.060196           2.383288           0.183209           3.579568
        6.200000           0.196522           3.715458           0.063110           2.427565           0.196522           3.715458
        6.236000           0.211504           3.861408           0.066253           2.474009           0.211504           3.861408
        6.272000           0.228422           4.018683           0.069653           2.522793           0.228422           4.018683
        6.308000           0.247603           4.188767           0.073338           2.574111           0.247603           4.188767
        6.344000           0.269448           4.373385           0.077344           2.628179           0.269448           4.373385
        6.380000           0.294456           4.574574           0.081712           2.685236           0.294456           4.574574
        6.416000           0.323252           4.794771           0.086489           2.745560           0.323252           4.794771
        6.452000           0.356622           5.036879           0.091731           2.809460           0.356622           5.036879
        6.487999           0.395571           5.304415           0.097506           2.877285           0.395571           5.304415
        6.524000           0.441398           5.601697           0.103892           2.949445           0.441398           5.601697
        6.560000           0.495804           5.934033           0.110985           3.026403           0.495804           5.934033
        6.596000           0.561050           6.308062           0.118901           3.108696           0.561050           6.308062
        6.631999           0.640192           6.732170           0.127779           3.196951           0.640192           6.732170
        6.668000           0.737447           7.217156           0.137795           3.291909           0.737447           7.217156
        6.704000           0.858749           7.777059           0.149165           3.394437           0.858749           7.777059
        6.740000           1.012666           8.430508           0.162161           3.505573           1.012666           8.430508
        6.776000           1.211936           9.202760           0.177133           3.626572           1.211936           9.202760
        6.812000           1.476117           10.12873           0.194531           3.758954           1.476117           10.12873
        6.848000           1.836443           11.25794           0.214948           3.904585           1.836443           11.25794
        6.884000           2.345231           12.66273           0.239176           4.065803           2.345231           12.66273
        6.920000           3.095109           14.45159           0.268296           4.245554           3.095109           14.45159
        6.956000           4.261873           16.79164           0.303819           4.447626           4.261873           16.79164
        6.992000           6.208668           19.94199           0.347907           4.676962           6.208668           19.94199
        7.028000           9.767219           24.27436           0.403758           4.940185           9.767219           24.27436
        7.064000           17.06281           30.03276           0.476269           5.246333           17.06281           30.03276
        7.099999           33.61922           34.85098           0.573266           5.608072           33.61922           34.85098
        7.136000           63.28854           19.93005           0.707936           6.043733           63.28854           19.93005
        7.172000           59.60415          -24.13570           0.903933           6.580524           59.60415          -24.13570
        7.208000           30.60493          -34.36235           1.207169           7.259748           30.60493          -34.36235
        7.244000           15.75030          -28.95773           1.715902           8.143027           15.75030          -28.95773
        7.280000           9.155588          -23.36668           2.665329           9.302888           9.155588          -23.36668
        7.316000           5.886988          -19.21267           4.662939           10.65635           5.886988          -19.21267
        7.352000           4.074762          -16.18777           8.742595           10.78423           4.074762          -16.18777
        7.388000           2.977423          -13.93279           12.05829           6.675792           2.977423          -13.93279
        7.424000           2.266538          -12.20280           11.37872           1.973599           2.266538          -12.20280
        7.460000           1.781182          -10.84004           7.550796           0.112526           1.781182          -10.84004
        7.496000           1.435689          -9.741750           5.392431           1.756571           1.435689          -9.741750
        7.532000           1.181327          -8.839258           5.802769           3.910347           1.181327          -8.839258
        7.567999           0.988785          -8.085324           9.036089           4.768147           0.988785          -8.085324
        7.604000           0.839603          -7.446495           12.18810          -0.124335           0.839603          -7.446495
        7.640000           0.721715          -6.898569           7.927444          -4.384242           0.721715          -6.898569
        7.676000           0.626966          -6.423605           4.276747          -3.611102           0.626966          -6.423605
        7.712000           0.549689          -6.008061           2.668966          -2.108511           0.549689          -6.008061
        7.748000           0.485843          -5.641499           1.957773          -0.796692           0.485843          -5.641499
        7.784000           0.432493          -5.315800           1.655966           0.333653           0.432493          -5.315800
        7.820000           0.387463          -5.024527           1.601731           1.382611           0.387463          -5.024527
        7.856000           0.349108          -4.762515           1.779766           2.448129           0.349108          -4.762515
        7.892000           0.316175          -4.525585           2.310127           3.621068           0.316175          -4.525585
        7.927999           0.287688          -4.310317           3.590382           4.904282           0.287688          -4.310317
        7.964000           0.262882          -4.113873           6.550658           5.484344           0.262882          -4.113873
        8.000000           0.241149          -3.933897           9.765468           1.808632           0.241149          -3.933897
# 
# 02/08/2024 at 09:40 yambo @ unimi-XPS-8930 [start]
# 02/08/2024 at 09:40                        [end]
#  
# Timing   [Min/Max/Average]: 03s/03s/03s
#
# .-Input file  yambo.in
# | optics                           # [R] Linear Response optical properties
# | bss                              # [R] BSE solver
# | bse                              # [R][BSE] Bethe Salpeter Equation.
# | BoseTemp= 0.000000         eV    # Bosonic Temperature
# | FFTGvecs=  8845            RL    # [FFT] Plane-waves
# | BS_nCPU_LinAlg_INV= 1            # [PARALLEL] CPUs for Linear Algebra (if -1 it is automatically set)
# | BS_nCPU_LinAlg_DIAGO= 1          # [PARALLEL] CPUs for Linear Algebra (if -1 it is automatically set)
# | X_Threads= 1                     # [OPENMP/X] Number of threads for response functions
# | DIP_Threads= 1                   # [OPENMP/X] Number of threads for dipoles
# | K_Threads= 1                     # [OPENMP/BSK] Number of threads for response functions
# | NonPDirs= "z"                    # [X/BSS] Non periodic chartesian directions (X,Y,Z,XY...)
# | BSKmod= "HF"                     # [BSE] IP/Hartree/HF/ALDA/SEX/BSfxc
# | BSEmod= "retarded"               # [BSE] resonant/retarded/coupling
# | BSSmod= "hdi"                    # [BSS] (h)aydock/(d)iagonalization/(s)lepc/(i)nversion/(t)ddft`
# | DipComputed= "R V P"             # [DIP] [default R P V; extra P2 Spin Orb]
# | BSENGexx= 109              RL    # [BSK] Exchange components
# | BSENGBlk=  55              RL    # [BSK] Screened interaction block size [if -1 uses all the G-vectors of W(q,G,Gp)]
# | % KfnQP_E
# |  5.000000 | 1.000000 | 1.000000 |        # [EXTQP BSK BSS] E parameters  (c/v) eV|adim|adim
# | %
# | % BSEQptR
# |  1 | 3 |                             # [BSK] Transferred momenta range
# | %
# | % BSEBands
# |  11 | 15 |                           # [BSK] Bands range
# | %
# | % BEnRange
# | -1.000000 | 8.000000 |         eV    # [BSS] Energy range
# | %
# | % BDmRange
# |  0.050000 | 0.050000 |         eV    # [BSS] Damping range
# | %
# | BEnSteps= 251                    # [BSS] Energy steps
# | % BLongDir
# |  0.100000E-4 |  0.00000    |  0.00000    # [BSS] [cc] Electric Field
# | %
# | BSEprop= "abs jdos"              # [BSS] Can be any among abs/jdos/kerr/magn/dich/photolum/esrt
# | BSEdips= "none"                  # [BSS] Can be "trace/none" or "xy/xz/yz" to define off-diagonal rotation plane
# | BSSInvMode= "pf"                 # [BSS] Inversion solver modality `(f)ull/(p)erturbative`
# | BSEPSInvTrs= 0.010000            # [BSS EPS] Inversion treshold. Relative[o/o](>0)/Absolute(<0)
# | BSSInvPFratio= 1.000000          # [BSS] Inversion solver. Ratio between the number of frequencies solved pert/full
# | #WRbsWF                        # [BSS] Write to disk excitonic the WFs
# | BSHayTrs= 0.100000E-2            # [BSS] Relative [o/o] Haydock threshold. Strict(>0)/Average(<0)
# | BSPLInvTrs= 0.500000             # [BSS PL] Inversion treshold
