#                                                                     
#  /$$     /$$ /$$$$$$  /$$      /$$ /$$$$$$$   /$$$$$$               
# |  $$   /$$//$$__  $$| $$$    /$$$| $$__  $$ /$$__  $$              
#  \  $$ /$$/| $$  \ $$| $$$$  /$$$$| $$  \ $$| $$  \ $$              
#   \  $$$$/ | $$$$$$$$| $$ $$/$$ $$| $$$$$$$ | $$  | $$              
#    \  $$/  | $$__  $$| $$  $$$| $$| $$__  $$| $$  | $$              
#     | $$   | $$  | $$| $$\  $ | $$| $$  \ $$| $$  | $$              
#     | $$   | $$  | $$| $$ \/  | $$| $$$$$$$/|  $$$$$$/              
#     |__/   |__/  |__/|__/     |__/|_______/  \______/               
#                                                                     
# Version 5.2.0 Revision 22515 Hash (prev commit) 4e9ef8ab7d          
#               Branch is fixes-issue-540                             
#         MPI+OpenMP+SLK+SLEPC+HDF5_MPI_IO Build                      
#               http://www.yambo-code.org                             
#
# Polarizability  ( -<<X>> ) @ Q(1):   1.00000000      0.00000000      0.00000000    [q->0 direction]
#
# Polarizability units: length
#
# [GEN] GF Energies                               : Slater exchange(X)+Perdew & Zunger(C)
# [GEN] Green`s Function                          : Retarded
#
# [GEN] Gauge                                     : Length
# [GEN] [r,Vnl] included                          : yes
#
# DIP band range                                  :  11  15
# DIP band range limits                           :  13  14
# DIP e/h energy range                            :  -1.00000000     -1.00000000    [eV]
# RL vectors in the sum                           :   8845
# [r,Vnl] included                                : yes
# Bands ordered                                   : yes
# Direct v evaluation                             : no
# Approach used                                   : G-space v
# Dipoles computed                                : R V P
# Wavefunctions                                   : Slater exchange(X)+Perdew & Zunger(C)
#
#
# [K] Identifier                                  :   8456
# [K] Dimension                                   :   54
# [K] Bands                                       :  11  15
# [K] Exchange res                                : yes
# [K] Correlation res                             : yes
# [K] Kernel`s coupling                           : no
# [K] Exchange cpl                                : no
# [K] Correlation cpl                             : no
# [K] W interaction is bare                       : yes
# [K] ALDA kernel in R-space                      : no
# [K] RL vectors exchange                         :  109
# [K] RL vectors correlation                      :   55
# [K] E/h energy range                            :  -1.00000000     -1.00000000    [eV]
# [K] Coupling range                              :   100.000000      100.000000    [o/o]
# [W] Interaction is diagonal                     : yes
# [W] Matrix size                                 :  1
# [RIM] RL components col                         :  3
# [RIM] Random points col                         :  2000000
#                                                 
# [Haydock] Accuracy (requested)                  :  0.100000005E-2 [o/o]
# [Haydock] Accuracy (reached)                    :  0.229952173E-3 [o/o]
# [Haydock] Iterations                            :   39
#
#
#    E[1] [eV]          Im(alpha)          Re(alpha)          Im(alpha_o)        Re(alpha_o)        Im(alpha`)         Re(alpha`)
#
       -1.000000          -0.590750           17.41020          -0.007179           4.230903          -0.590750           17.41020
       -0.964000          -0.538053           17.00716          -0.006903           4.225834          -0.538053           17.00716
       -0.928000          -0.491198           16.63945          -0.006629           4.220964          -0.491198           16.63945
       -0.892000          -0.449298           16.30327          -0.006357           4.216289          -0.449298           16.30327
       -0.856000          -0.411628           15.99539          -0.006086           4.211811          -0.411628           15.99539
       -0.820000          -0.377585           15.71304          -0.005817           4.207528          -0.377585           15.71304
       -0.784000          -0.346670           15.45383          -0.005550           4.203435          -0.346670           15.45383
       -0.748000          -0.318463           15.21570          -0.005285           4.199535          -0.318463           15.21570
       -0.712000          -0.292610           14.99687          -0.005021           4.195826          -0.292610           14.99687
       -0.676000          -0.268809           14.79576          -0.004759           4.192307          -0.268809           14.79576
       -0.640000          -0.246803           14.61102          -0.004498           4.188974          -0.246803           14.61102
       -0.604000          -0.226371           14.44145          -0.004238           4.185830          -0.226371           14.44145
       -0.568000          -0.207321           14.28600          -0.003979           4.182872          -0.207321           14.28600
       -0.532000          -0.189487           14.14375          -0.003722           4.180100          -0.189487           14.14375
       -0.496000          -0.172724           14.01388          -0.003465           4.177514          -0.172724           14.01388
       -0.460000          -0.156902           13.89567          -0.003210           4.175112          -0.156902           13.89567
       -0.424000          -0.141909           13.78851          -0.002955           4.172892          -0.141909           13.78851
       -0.388000          -0.127643           13.69182          -0.002702           4.170856          -0.127643           13.69182
       -0.352000          -0.114014           13.60514          -0.002449           4.169003          -0.114014           13.60514
       -0.316000          -0.100939           13.52803          -0.002196           4.167331          -0.100939           13.52803
       -0.280000          -0.088344           13.46012          -0.001945           4.165840          -0.088344           13.46012
       -0.244000          -0.076162           13.40109          -0.001693           4.164531          -0.076162           13.40109
       -0.208000          -0.064328           13.35069          -0.001443           4.163403          -0.064328           13.35069
       -0.172000          -0.052786           13.30866          -0.001192           4.162454          -0.052786           13.30866
       -0.136000          -0.041478           13.27483          -0.942483E-3        4.161685          -0.041478           13.27483
       -0.100000          -0.030354           13.24906          -0.692791E-3        4.161097          -0.030354           13.24906
       -0.064000          -0.019362           13.23122          -0.443296E-3        4.160687          -0.019362           13.23122
       -0.028000          -0.008455           13.22124          -0.193920E-3        4.160458          -0.008455           13.22124
        0.008000           0.002415           13.21907           0.554049E-4        4.160409           0.002415           13.21907
        0.044000           0.013296           13.22471           0.304740E-3        4.160539           0.013296           13.22471
        0.080000           0.024234           13.23817           0.554161E-3        4.160848           0.024234           13.23817
        0.116000           0.035279           13.25953           0.803738E-3        4.161336           0.035279           13.25953
        0.152000           0.046478           13.28887           0.001054           4.162005           0.046478           13.28887
        0.188000           0.057883           13.32632           0.001304           4.162853           0.057883           13.32632
        0.224000           0.069548           13.37204           0.001554           4.163882           0.069548           13.37204
        0.260000           0.081529           13.42625           0.001805           4.165091           0.081529           13.42625
        0.296000           0.093887           13.48918           0.002056           4.166481           0.093887           13.48918
        0.332000           0.106686           13.56114           0.002308           4.168051           0.106686           13.56114
        0.368000           0.119998           13.64246           0.002561           4.169804           0.119998           13.64246
        0.404000           0.133900           13.73353           0.002814           4.171739           0.133900           13.73353
        0.440000           0.148477           13.83481           0.003068           4.173856           0.148477           13.83481
        0.476000           0.163825           13.94681           0.003323           4.176157           0.163825           13.94681
        0.512000           0.180051           14.07012           0.003579           4.178641           0.180051           14.07012
        0.548000           0.197273           14.20539           0.003836           4.181310           0.197273           14.20539
        0.584000           0.215628           14.35341           0.004094           4.184163           0.215628           14.35341
        0.620000           0.235270           14.51501           0.004353           4.187204           0.235270           14.51501
        0.656000           0.256376           14.69119           0.004614           4.190432           0.256376           14.69119
        0.692000           0.279151           14.88304           0.004875           4.193847           0.279151           14.88304
        0.728000           0.303830           15.09185           0.005138           4.197452           0.303830           15.09185
        0.764000           0.330690           15.31905           0.005403           4.201245           0.330690           15.31905
        0.800000           0.360053           15.56631           0.005669           4.205230           0.360053           15.56631
        0.836000           0.392302           15.83554           0.005937           4.209407           0.392302           15.83554
        0.872000           0.427889           16.12892           0.006206           4.213778           0.427889           16.12892
        0.908000           0.467358           16.44901           0.006477           4.218343           0.467358           16.44901
        0.944000           0.511362           16.79877           0.006750           4.223104           0.511362           16.79877
        0.980000           0.560693           17.18168           0.007025           4.228061           0.560693           17.18168
        1.016000           0.616323           17.60181           0.007303           4.233219           0.616323           17.60181
        1.052000           0.679451           18.06398           0.007582           4.238576           0.679451           18.06398
        1.088000           0.751572           18.57397           0.007863           4.244135           0.751572           18.57397
        1.124000           0.834569           19.13868           0.008147           4.249898           0.834569           19.13868
        1.160000           0.930843           19.76650           0.008434           4.255865           0.930843           19.76650
        1.196000           1.043487           20.46767           0.008722           4.262041           1.043487           20.46767
        1.232000           1.176550           21.25484           0.009014           4.268424           1.176550           21.25484
        1.268000           1.335411           22.14382           0.009308           4.275018           1.335411           22.14382
        1.304000           1.527329           23.15459           0.009605           4.281826           1.527329           23.15459
        1.340000           1.762305           24.31279           0.009905           4.288848           1.762305           24.31279
        1.376000           2.054405           25.65183           0.010208           4.296086           2.054405           25.65183
        1.412000           2.423917           27.21599           0.010514           4.303545           2.423917           27.21599
        1.448000           2.900950           29.06516           0.010823           4.311224           2.900950           29.06516
        1.484000           3.531685           31.28216           0.011136           4.319128           3.531685           31.28216
        1.520000           4.389776           33.98437           0.011453           4.327258           4.389776           33.98437
        1.556000           5.598304           37.34285           0.011772           4.335617           5.598304           37.34285
        1.592000           7.374772           41.61403           0.012096           4.344208           7.374772           41.61403
        1.628000           10.13090           47.19260           0.012424           4.353033           10.13090           47.19260
        1.664000           14.71466           54.69077           0.012755           4.362096           14.71466           54.69077
        1.700000           23.06054           64.99107           0.013091           4.371398           23.06054           64.99107
        1.736000           40.09567           78.71931           0.013431           4.380944           40.09567           78.71931
        1.772000           78.66402           90.68163           0.013776           4.390735           78.66402           90.68163
        1.808000           149.2528           58.11440           0.014125           4.400778           149.2528           58.11440
        1.844000           145.5898          -47.36397           0.014479           4.411073           145.5898          -47.36397
        1.880000           75.61563          -75.19145           0.014838           4.421624           75.61563          -75.19145
        1.916000           38.78474          -62.60054           0.015202           4.432436           38.78474          -62.60054
        1.952000           22.47533          -49.01680           0.015571           4.443511           22.47533          -49.01680
        1.988000           14.43606          -38.86647           0.015945           4.454854           14.43606          -38.86647
        2.024000           10.00074          -31.45676           0.016325           4.466468           10.00074          -31.45676
        2.060000           7.326979          -25.91733           0.016711           4.478358           7.326979          -25.91733
        2.096000           5.602331          -21.65008           0.017103           4.490528           5.602331          -21.65008
        2.132000           4.430313          -18.26956           0.017501           4.502983           4.430313          -18.26956
        2.168000           3.600602          -15.52472           0.017906           4.515725           3.600602          -15.52472
        2.204000           2.993869          -13.24775           0.018317           4.528762           2.993869          -13.24775
        2.240000           2.538538          -11.32300           0.018734           4.542097           2.538538          -11.32300
        2.276000           2.189705          -9.668563           0.019159           4.555735           2.189705          -9.668563
        2.312000           1.918111          -8.224809           0.019591           4.569681           1.918111          -8.224809
        2.348000           1.704087          -6.947250           0.020031           4.583940           1.704087          -6.947250
        2.384000           1.534077          -5.801946           0.020478           4.598520           1.534077          -5.801946
        2.420000           1.398556          -4.762398           0.020933           4.613424           1.398556          -4.762398
        2.456000           1.290735          -3.807429           0.021397           4.628658           1.290735          -3.807429
        2.492000           1.205755          -2.919697           0.021869           4.644229           1.205755          -2.919697
        2.528000           1.140169          -2.084661           0.022350           4.660143           1.140169          -2.084661
        2.564000           1.091602          -1.289711           0.022840           4.676406           1.091602          -1.289711
        2.600000           1.058547          -0.523550           0.023340           4.693027           1.058547          -0.523550
        2.636000           1.040261           0.224319           0.023849           4.710010           1.040261           0.224319
        2.672000           1.036725           0.964151           0.024368           4.727362           1.036725           0.964151
        2.708000           1.048700           1.706376           0.024898           4.745092           1.048700           1.706376
        2.744000           1.077869           2.462229           0.025439           4.763208           1.077869           2.462229
        2.780000           1.127113           3.244392           0.025991           4.781717           1.127113           3.244392
        2.816000           1.200987           4.067859           0.026554           4.800626           1.200987           4.067859
        2.852000           1.306548           4.951265           0.027130           4.819948           1.306548           4.951265
        2.888000           1.454767           5.918670           0.027718           4.839684           1.454767           5.918670
        2.924000           1.663098           7.002509           0.028318           4.859851           1.663098           7.002509
        2.960000           1.960279           8.248158           0.028932           4.880454           1.960279           8.248158
        2.996000           2.395880           9.721461           0.029560           4.901505           2.395880           9.721461
        3.032000           3.060719           11.52144           0.030203           4.923012           3.060719           11.52144
        3.068000           4.134121           13.80046           0.030860           4.944986           4.134121           13.80046
        3.104000           6.004893           16.78946           0.031532           4.967438           6.004893           16.78946
        3.140000           9.613484           20.76978           0.032221           4.990382           9.613484           20.76978
        3.176000           17.45133           25.48746           0.032926           5.013825           17.45133           25.48746
        3.212000           34.83197           25.44270           0.033648           5.037782           34.83197           25.44270
        3.248000           50.68994           0.539443           0.034388           5.062265           50.68994           0.539443
        3.284000           32.53913          -21.39464           0.035147           5.087288           32.53913          -21.39464
        3.320000           16.40687          -20.17278           0.035924           5.112863           16.40687          -20.17278
        3.356000           9.267979          -15.36248           0.036722           5.139005           9.267979          -15.36248
        3.392000           5.985132          -11.36079           0.037541           5.165730           5.985132          -11.36079
        3.428000           4.315215          -8.272843           0.038382           5.193050           4.315215          -8.272843
        3.464000           3.416008          -5.800443           0.039245           5.220983           3.416008          -5.800443
        3.500000           2.951137          -3.700091           0.040131           5.249546           2.951137          -3.700091
        3.536000           2.794349          -1.794051           0.041042           5.278754           2.794349          -1.794051
        3.572000           2.941081           0.056988           0.041978           5.308629           2.941081           0.056988
        3.608000           3.533378           1.983279           0.042941           5.339185           3.533378           1.983279
        3.644000           5.079950           3.973164           0.043932           5.370445           5.079950           3.973164
        3.680000           8.624010           4.826259           0.044951           5.402428           8.624010           4.826259
        3.716000           11.41089           0.657428           0.046000           5.435153           11.41089           0.657428
        3.752000           7.736502          -2.094268           0.047081           5.468647           7.736502          -2.094268
        3.788000           4.971693          -0.484092           0.048195           5.502928           4.971693          -0.484092
        3.824000           4.031131           1.863245           0.049343           5.538023           4.031131           1.863245
        3.860000           4.038177           4.319468           0.050526           5.573957           4.038177           4.319468
        3.896000           4.788468           7.028041           0.051747           5.610755           4.788468           7.028041
        3.932000           6.603429           10.24938           0.053008           5.648446           6.603429           10.24938
        3.968000           10.65112           14.10907           0.054309           5.687058           10.65112           14.10907
        4.004000           19.99933           16.91498           0.055654           5.726622           19.99933           16.91498
        4.040000           34.68729           7.487864           0.057044           5.767169           34.68730           7.487883
        4.076000           29.18000          -12.34607           0.058481           5.808732           29.17998          -12.34608
        4.112000           15.97921          -13.96417           0.059967           5.851346           15.97921          -13.96417
        4.148000           10.30576          -9.495202           0.061506           5.895048           10.30576          -9.495202
        4.184000           9.140737          -4.832046           0.063100           5.939877           9.140735          -4.832047
        4.220000           11.63336          -0.870207           0.064751           5.985872           11.63335          -0.870213
        4.256000           18.54462          -1.383919           0.066463           6.033076           18.54463          -1.383899
        4.292000           19.53526          -10.81671           0.068239           6.081536           19.53530          -10.81675
        4.328000           12.90586          -13.03615           0.070082           6.131295           12.90574          -13.03617
        4.364000           10.73961          -11.88177           0.071997           6.182404           10.73981          -11.88148
        4.400000           8.489080          -12.56761           0.073986           6.234918           8.488810          -12.56839
        4.436000           5.736987          -11.07616           0.076054           6.288890           5.737216          -11.07492
        4.472001           4.906799          -8.850349           0.078207           6.344380           4.907053          -8.851719
        4.508000           5.739450          -7.604648           0.080448           6.401447           5.738333          -7.603033
        4.544000           5.833085          -8.663783           0.082782           6.460160           5.833852          -8.665775
        4.580000           3.937806          -8.489555           0.085217           6.520585           3.937517          -8.488809
        4.616000           2.874982          -7.050474           0.087756           6.582798           2.875257          -7.050534
        4.652000           2.625639          -5.508615           0.090408           6.646878           2.625565          -5.508777
        4.688000           3.046035          -4.047842           0.093179           6.712905           3.045925          -4.047719
        4.724000           4.411603          -3.177809           0.096077           6.780968           4.411787          -3.177784
        4.760000           5.368822          -4.369009           0.099111           6.851163           5.368636          -4.369132
        4.796000           3.913884          -4.735947           0.102288           6.923589           3.914014          -4.735835
        4.832000           3.031478          -3.412416           0.105619           6.998353           3.031422          -3.412473
        4.868000           3.010846          -1.707053           0.109115           7.075567           3.010852          -1.707029
        4.904000           3.682000           0.249380           0.112787           7.155356           3.682006           0.249373
        4.940001           5.380705           2.599817           0.116648           7.237853           5.380701           2.599818
        4.976000           9.355688           5.198284           0.120712           7.323191           9.355693           5.198288
        5.012000           18.25278           4.992994           0.124993           7.411526           18.25278           4.992994
        5.048000           25.33718          -8.032549           0.129509           7.503020           25.33718          -8.032549
        5.084000           15.68535          -17.99442           0.134277           7.597845           15.68535          -17.99442
        5.120000           7.931925          -17.01888           0.139319           7.696192           7.931925          -17.01888
        5.156000           4.493753          -14.59826           0.144655           7.798263           4.493753          -14.59826
        5.192000           2.871135          -12.64401           0.150311           7.904277           2.871135          -12.64401
        5.228000           2.006460          -11.17734           0.156314           8.014471           2.006460          -11.17734
        5.264000           1.496721          -10.05544           0.162694           8.129109           1.496721          -10.05544
        5.300000           1.172021          -9.169514           0.169484           8.248468           1.172021          -9.169514
        5.336000           0.952536          -8.448409           0.176723           8.372856           0.952536          -8.448409
        5.372000           0.797171          -7.845799           0.184451           8.502612           0.797171          -7.845799
        5.408000           0.683168          -7.330838           0.192717           8.638099           0.683168          -7.330838
        5.444000           0.597143          -6.882307           0.201573           8.779716           0.597143          -6.882307
        5.480000           0.530828          -6.485103           0.211080           8.927915           0.530828          -6.485103
        5.516000           0.478931          -6.128176           0.221304           9.083179           0.478931          -6.128176
        5.552001           0.437962          -5.803174           0.232324           9.246049           0.437962          -5.803174
        5.588000           0.405586          -5.503568           0.244225           9.417116           0.405586          -5.503568
        5.624000           0.380246          -5.224073           0.257110           9.597054           0.380246          -5.224073
        5.660000           0.360945          -4.960245           0.271092           9.786600           0.360945          -4.960245
        5.696000           0.347131          -4.708161           0.286305           9.986576           0.347131          -4.708161
        5.732000           0.338653          -4.464128           0.302903           10.19793           0.338653          -4.464128
        5.768000           0.335789          -4.224461           0.321064           10.42168           0.335789          -4.224461
        5.804000           0.339356          -3.985171           0.340997           10.65903           0.339356          -3.985171
        5.840000           0.350961          -3.741575           0.362948           10.91132           0.350961          -3.741575
        5.876000           0.373500          -3.487778           0.387206           11.18009           0.373500          -3.487778
        5.912000           0.412185          -3.215789           0.414116           11.46707           0.412185          -3.215789
        5.948000           0.476749          -2.914111           0.444090           11.77429           0.476749          -2.914111
        5.984000           0.586566          -2.565532           0.477623           12.10410           0.586566          -2.565532
        6.020000           0.783745          -2.144329           0.515314           12.45919           0.783745          -2.144329
        6.056000           1.170171          -1.619091           0.557900           12.84275           1.170171          -1.619091
        6.092000           2.015813          -1.015028           0.606284           13.25854           2.015813          -1.015028
        6.127999           3.903247          -0.918760           0.661588           13.71099           3.903247          -0.918760
        6.164000           5.678022          -3.540766           0.725228           14.20543           5.678022          -3.540766
        6.200000           3.701366          -5.914574           0.798994           14.74827           3.701366          -5.914574
        6.236000           1.910865          -5.720538           0.885190           15.34732           1.910865          -5.720538
        6.272000           1.115310          -5.123788           0.986812           16.01216           1.115310          -5.123788
        6.308000           0.746834          -4.618265           1.107829           16.75475           0.746834          -4.618265
        6.344000           0.556002          -4.217148           1.253562           17.59009           0.556002          -4.217148
        6.380000           0.448468          -3.888426           1.431289           18.53732           0.448468          -3.888426
        6.416000           0.385101          -3.606526           1.651191           19.62130           0.385101          -3.606526
        6.452000           0.348074          -3.353982           1.927814           20.87472           0.348074          -3.353982
        6.487999           0.328825          -3.118486           2.282536           22.34146           0.328825          -3.118486
        6.524000           0.323407          -2.890553           2.747807           24.08183           0.323407          -2.890553
        6.560000           0.330656          -2.661930           3.374679           26.18053           0.330656          -2.661930
        6.596000           0.351613          -2.424334           4.247118           28.75983           0.351613          -2.424334
        6.631999           0.389815          -2.168235           5.510662           32.00130           0.389815          -2.168235
        6.668000           0.452554          -1.881307           7.434464           36.18256           0.452554          -1.881307
        6.704000           0.553971          -1.546210           10.55683           41.73450           0.553971          -1.546210
        6.740000           0.722413          -1.137109           16.06369           49.30526           0.722413          -1.137109
        6.776000           1.019215          -0.615145           26.87480           59.60983           1.019215          -0.615145
        6.812000           1.591368           0.069231           50.75519           71.19974           1.591368           0.069231
        6.848000           2.826662           0.897906           101.9281           63.93831           2.826662           0.897906
        6.884000           5.617355           1.118795           131.8672          -13.79333           5.617355           1.118795
        6.920000           8.795095          -2.673081           76.74390          -60.52383           8.795095          -2.673081
        6.956000           6.047991          -7.022095           38.29404          -54.39377           6.047991          -7.022095
        6.992000           3.024972          -7.036705           21.39636          -42.69210           3.024972          -7.036705
        7.028000           1.661583          -6.222854           13.38042          -33.56528           1.661583          -6.222854
        7.064000           1.032901          -5.538032           9.102016          -26.89931           1.032901          -5.538032
        7.099999           0.705787          -5.026760           6.588133          -21.94403           0.705787          -5.026760
        7.136000           0.516804          -4.640467           4.998385          -18.14677           0.516804          -4.640467
        7.172000           0.398401          -4.339342           3.934829          -15.14932           0.398401          -4.339342
        7.208000           0.319414          -4.097201           3.191438          -12.71987           0.319414          -4.097201
        7.244000           0.264047          -3.897133           2.653538          -10.70462           0.264047          -3.897133
        7.280000           0.223659          -3.728015           2.253497          -8.998734           0.223659          -3.728015
        7.316000           0.193220          -3.582298           1.949420          -7.528503           0.193220          -3.582298
        7.352000           0.169646          -3.454720           1.714307          -6.240754           0.169646          -3.454720
        7.388000           0.150960          -3.341502           1.530148          -5.096045           0.150960          -3.341502
        7.424000           0.135855          -3.239878           1.384614          -4.064582           0.135855          -3.239878
        7.460000           0.123433          -3.147768           1.269059          -3.123282           0.123433          -3.147768
        7.496000           0.113064          -3.063579           1.177303          -2.253827           0.113064          -3.063579
        7.532000           0.104293          -2.986076           1.104882          -1.441470           0.104293          -2.986076
        7.567999           0.096788          -2.914283           1.048545          -0.674016           0.096788          -2.914283
        7.604000           0.090299          -2.847411           1.005923           0.058884           0.090299          -2.847411
        7.640000           0.084635          -2.784828           0.975320           0.766170           0.084635          -2.784828
        7.676000           0.079650          -2.726009           0.955563           1.455826           0.079650          -2.726009
        7.712000           0.075230          -2.670523           0.945910           2.135165           0.075230          -2.670523
        7.748000           0.071284          -2.618006           0.945994           2.811181           0.071284          -2.618006
        7.784000           0.067739          -2.568151           0.955791           3.490673           0.067739          -2.568151
        7.820000           0.064535          -2.520700           0.975629           4.180553           0.064535          -2.520700
        7.856000           0.061625          -2.475425           1.006208           4.888116           0.061625          -2.475425
        7.892000           0.058970          -2.432135           1.048660           5.621247           0.058970          -2.432135
        7.927999           0.056536          -2.390661           1.104643           6.388760           0.056536          -2.390661
        7.964000           0.054297          -2.350856           1.176500           7.200856           0.054297          -2.350856
        8.000000           0.052228          -2.312591           1.267478           8.069556           0.052228          -2.312591
# 
# 02/08/2024 at 09:40 yambo @ unimi-XPS-8930 [start]
# 02/08/2024 at 09:40                        [end]
#  
# Timing   [Min/Max/Average]: 03s/03s/03s
#
# .-Input file  yambo.in
# | rim_cut                          # [R] Coulomb potential
# | optics                           # [R] Linear Response optical properties
# | bss                              # [R] BSE solver
# | bse                              # [R][BSE] Bethe Salpeter Equation.
# | BoseTemp= 0.000000         eV    # Bosonic Temperature
# | BS_nCPU_LinAlg_INV= 1            # [PARALLEL] CPUs for Linear Algebra (if -1 it is automatically set)
# | BS_nCPU_LinAlg_DIAGO= 1          # [PARALLEL] CPUs for Linear Algebra (if -1 it is automatically set)
# | X_Threads= 1                     # [OPENMP/X] Number of threads for response functions
# | DIP_Threads= 1                   # [OPENMP/X] Number of threads for dipoles
# | K_Threads= 1                     # [OPENMP/BSK] Number of threads for response functions
# | RandQpts= 2000000                # [RIM] Number of random q-points in the BZ
# | RandGvec= 3                RL    # [RIM] Coulomb interaction RS components
# | CUTGeo= "slab z"                 # [CUT] Coulomb Cutoff geometry: box/cylinder/sphere/ws/slab X/Y/Z/XY..
# | % CUTBox
# |  0.000000 | 0.000000 | 0.000000 |        # [CUT] [au] Box sides
# | %
# | CUTRadius= 0.000000              # [CUT] [au] Sphere/Cylinder radius
# | CUTCylLen= 0.000000              # [CUT] [au] Cylinder length
# | CUTwsGvec= 0.700000              # [CUT] WS cutoff: number of G to be modified
# | BSKmod= "HF"                     # [BSE] IP/Hartree/HF/ALDA/SEX/BSfxc
# | BSEmod= "retarded"               # [BSE] resonant/retarded/coupling
# | BSSmod= "hdi"                    # [BSS] (h)aydock/(d)iagonalization/(s)lepc/(i)nversion/(t)ddft`
# | DipComputed= "R V P"             # [DIP] [default R P V; extra P2 Spin Orb]
# | BSENGexx= 109              RL    # [BSK] Exchange components
# | BSENGBlk=  55              RL    # [BSK] Screened interaction block size [if -1 uses all the G-vectors of W(q,G,Gp)]
# | % KfnQP_E
# |  5.000000 | 1.000000 | 1.000000 |        # [EXTQP BSK BSS] E parameters  (c/v) eV|adim|adim
# | %
# | % BSEQptR
# |  1 | 3 |                             # [BSK] Transferred momenta range
# | %
# | % BSEBands
# |  11 | 15 |                           # [BSK] Bands range
# | %
# | % BEnRange
# | -1.000000 | 8.000000 |         eV    # [BSS] Energy range
# | %
# | % BDmRange
# |  0.050000 | 0.050000 |         eV    # [BSS] Damping range
# | %
# | BEnSteps= 251                    # [BSS] Energy steps
# | % BLongDir
# |  0.100000E-4 |  0.00000    |  0.00000    # [BSS] [cc] Electric Field
# | %
# | BSEprop= "abs jdos"              # [BSS] Can be any among abs/jdos/kerr/magn/dich/photolum/esrt
# | BSEdips= "none"                  # [BSS] Can be "trace/none" or "xy/xz/yz" to define off-diagonal rotation plane
# | BSSInvMode= "pf"                 # [BSS] Inversion solver modality `(f)ull/(p)erturbative`
# | BSEPSInvTrs= 0.010000            # [BSS EPS] Inversion treshold. Relative[o/o](>0)/Absolute(<0)
# | BSSInvPFratio= 1.000000          # [BSS] Inversion solver. Ratio between the number of frequencies solved pert/full
# | #WRbsWF                        # [BSS] Write to disk excitonic the WFs
# | BSHayTrs= 0.100000E-2            # [BSS] Relative [o/o] Haydock threshold. Strict(>0)/Average(<0)
# | BSPLInvTrs= 0.500000             # [BSS PL] Inversion treshold
