#                                                           
#  __  __   ________   ___ __ __    _______   ______        
# /_/\/_/\ /_______/\ /__//_//_/\ /_______/\ /_____/\       
# \ \ \ \ \\::: _  \ \\::\| \| \ \\::: _  \ \\:::_ \ \      
#  \:\_\ \ \\::(_)  \ \\:.      \ \\::(_)  \/_\:\ \ \ \     
#   \::::_\/ \:: __  \ \\:.\-/\  \ \\::  _  \ \\:\ \ \ \    
#     \::\ \  \:.\ \  \ \\. \  \  \ \\::(_)  \ \\:\_\ \ \   
#      \__\/   \__\/\__\/ \__\/ \__\/ \_______\/ \_____\/   
#                                                           
#                                                           
#        Version 4.3.0 Revision 15734 Hash 50fd1d2          
#                      MPI+SLK Build                        
#                http://www.yambo-code.org                  
#
# Joint density of states @ Q(1) [q->0 direction] :0.1000E-4  0.000     0.000   
#
# - Energies      are  Analyt. E
# - The Green`s function is Retarded -
#
#   BSK|Identifier              :1816
#      |Dimension               :54
#      |Bands                   :11 - 15
#      |Exchange           [res]: yes
#      |Correlation        [res]: yes
#      |Kernel`s coupling       : no
#      |Exchange           [cpl]: no
#      |Correlation        [cpl]: no
#      |W interaction is bare   : yes
#      |ALDA kernel in R-space  : no
#      |RL vectors    [exchange]:109
#      |RL vectors [correlation]:55
#      |E/h energy range    [ev]:-1.000000 - -1.000000
#      |Coupling range     [o/o]: 100.0000 -  100.0000
#    W |Interaction is diagonal : yes
#      |Matrix size             :0
#   RIM|RL components      [col]:0
#      |Random points      [col]:0
#
#    E/ev[1]      jdos-Im[2]   jdos-Re[3]   jdoso-Im[4]  jdoso-Re[5]  jdos`-Im[6]  jdos`-Re[7]
#
   -1.000       -.1298        2.966       -.1383E-2     1.046   
   -.9640       -.1039        2.887       -.1331E-2     1.045   
   -.9280       -.8540E-1     2.822       -.1279E-2     1.044   
   -.8920       -.7164E-1     2.768       -.1227E-2     1.043   
   -.8560       -.6108E-1     2.721       -.1175E-2     1.042   
   -.8200       -.5276E-1     2.681       -.1124E-2     1.041   
   -.7840       -.4607E-1     2.647       -.1073E-2     1.041   
   -.7480       -.4056E-1     2.616       -.1022E-2     1.040   
   -.7120       -.3596E-1     2.589       -.9715E-3     1.039   
   -.6760       -.3205E-1     2.565       -.9212E-3     1.039   
   -.6400       -.2868E-1     2.543       -.8710E-3     1.038   
   -.6040       -.2573E-1     2.524       -.8210E-3     1.037   
   -.5680       -.2313E-1     2.506       -.7712E-3     1.037   
   -.5320       -.2081E-1     2.490       -.7215E-3     1.036   
   -.4960       -.1871E-1     2.476       -.6720E-3     1.036   
   -.4600       -.1680E-1     2.464       -.6227E-3     1.035   
   -.4240       -.1505E-1     2.452       -.5735E-3     1.035   
   -.3880       -.1342E-1     2.442       -.5243E-3     1.034   
   -.3520       -.1190E-1     2.433       -.4754E-3     1.034   
   -.3160       -.1047E-1     2.425       -.4265E-3     1.034   
   -.2800       -.9120E-2     2.418       -.3777E-3     1.033   
   -.2440       -.7830E-2     2.412       -.3289E-3     1.033   
   -.2080       -.6590E-2     2.407       -.2803E-3     1.033   
   -.1720       -.5393E-2     2.402       -.2317E-3     1.033   
   -.1360       -.4228E-2     2.399       -.1831E-3     1.033   
   -.1000       -.3089E-2     2.396       -.1346E-3     1.032   
   -.6400E-1    -.1968E-2     2.395       -.8615E-4     1.032   
   -.2800E-1    -.8590E-3     2.394       -.3769E-4     1.032   
   0.8000E-2    0.2453E-3     2.393       0.1077E-4     1.032   
   0.4400E-1    0.1351E-2     2.394       0.5922E-4     1.032   
   0.8000E-1    0.2465E-2     2.395       0.1077E-3     1.032   
   0.1160       0.3593E-2     2.397       0.1562E-3     1.033   
   0.1520       0.4742E-2     2.400       0.2047E-3     1.033   
   0.1880       0.5920E-2     2.404       0.2533E-3     1.033   
   0.2240       0.7135E-2     2.409       0.3019E-3     1.033   
   0.2600       0.8396E-2     2.415       0.3506E-3     1.033   
   0.2960       0.9713E-2     2.421       0.3993E-3     1.034   
   0.3320       0.1110E-1     2.428       0.4482E-3     1.034   
   0.3680       0.1256E-1     2.437       0.4971E-3     1.034   
   0.4040       0.1413E-1     2.446       0.5462E-3     1.035   
   0.4400       0.1581E-1     2.457       0.5953E-3     1.035   
   0.4760       0.1763E-1     2.469       0.6446E-3     1.035   
   0.5120       0.1962E-1     2.482       0.6940E-3     1.036   
   0.5480       0.2181E-1     2.497       0.7436E-3     1.036   
   0.5840       0.2425E-1     2.514       0.7933E-3     1.037   
   0.6200       0.2699E-1     2.532       0.8432E-3     1.038   
   0.6560       0.3012E-1     2.552       0.8933E-3     1.038   
   0.6920       0.3371E-1     2.575       0.9435E-3     1.039   
   0.7280       0.3791E-1     2.600       0.9940E-3     1.040   
   0.7640       0.4288E-1     2.629       0.1045E-2     1.040   
   0.8000       0.4888E-1     2.661       0.1096E-2     1.041   
   0.8360       0.5623E-1     2.698       0.1147E-2     1.042   
   0.8720       0.6545E-1     2.741       0.1198E-2     1.043   
   0.9080       0.7728E-1     2.791       0.1250E-2     1.044   
   0.9440       0.9293E-1     2.850       0.1302E-2     1.044   
   0.9800       0.1143        2.920       0.1354E-2     1.045   
    1.016       0.1447        3.007       0.1406E-2     1.046   
    1.052       0.1902        3.117       0.1459E-2     1.047   
    1.088       0.2627        3.260       0.1512E-2     1.049   
    1.124       0.3880        3.450       0.1566E-2     1.050   
    1.160       0.6284        3.707       0.1620E-2     1.051   
    1.196        1.149        4.015       0.1674E-2     1.052   
    1.232        2.301        4.015       0.1728E-2     1.053   
    1.268        3.387        2.378       0.1783E-2     1.054   
    1.304        2.211       0.8568       0.1839E-2     1.056   
      1.3400       1.1075       0.9072       0.0019       1.0571
      1.3760       0.6149       1.2194       0.0020       1.0585
      1.4120       0.3869       1.4778       0.0020       1.0599
      1.4480       0.2684       1.6720       0.0021       1.0614
      1.4840       0.2003       1.8210       0.0021       1.0629
      1.5200       0.1584       1.9397       0.0022       1.0644
      1.5560       0.1310       2.0378       0.0022       1.0660
      1.5920       0.1126       2.1217       0.0023       1.0677
      1.6280       0.0997       2.1957       0.0024       1.0693
      1.6640       0.0907       2.2626       0.0024       1.0711
      1.7000       0.0844       2.3244       0.0025       1.0728
      1.7360       0.0800       2.3827       0.0025       1.0746
      1.7720       0.0770       2.4386       0.0026       1.0765
      1.8080       0.0752       2.4929       0.0027       1.0784
      1.8440       0.0744       2.5463       0.0027       1.0803
      1.8800       0.0743       2.5994       0.0028       1.0823
      1.9160       0.0749       2.6528       0.0029       1.0843
      1.9520       0.0762       2.7069       0.0029       1.0864
      1.9880       0.0780       2.7621       0.0030       1.0885
      2.0240       0.0804       2.8188       0.0031       1.0907
      2.0600       0.0834       2.8775       0.0031       1.0929
      2.0960       0.0870       2.9385       0.0032       1.0952
      2.1320       0.0914       3.0023       0.0033       1.0975
      2.1680       0.0964       3.0695       0.0033       1.0999
      2.2040       0.1024       3.1406       0.0034       1.1023
      2.2400       0.1094       3.2162       0.0035       1.1048
      2.2760       0.1176       3.2972       0.0035       1.1073
      2.3120       0.1274       3.3845       0.0036       1.1099
      2.3480       0.1391       3.4792       0.0037       1.1125
      2.3840       0.1533       3.5829       0.0038       1.1152
      2.4200       0.1709       3.6976       0.0038       1.1179
      2.4560       0.1932       3.8257       0.0039       1.1207
      2.4920       0.2223       3.9708       0.0040       1.1236
    2.528       0.2617        4.138       0.4078E-2     1.126   
    2.564       0.3178        4.335       0.4159E-2     1.129   
    2.600       0.4027        4.573       0.4241E-2     1.132   
    2.636       0.5425        4.868       0.4325E-2     1.136   
    2.672       0.7997        5.242       0.4409E-2     1.139   
    2.708        1.339        5.682       0.4495E-2     1.142   
    2.744        2.516        5.842       0.4582E-2     1.145   
      2.7800       3.6655       4.3796       0.0047       1.1485
      2.8160       2.5313       3.0394       0.0048       1.1519
      2.8520       1.4918       3.3290       0.0049       1.1554
      2.8880       1.0988       3.9308       0.0049       1.1589
      2.9240       1.0274       4.5507       0.0050       1.1625
    2.960        1.176        5.209       0.5134E-2     1.166   
    2.996        1.621        5.953       0.5231E-2     1.170   
    3.032        2.689        6.702       0.5330E-2     1.174   
    3.068        4.825        6.431       0.5431E-2     1.178   
      3.1040       5.4170       3.7182       0.0055       1.1815
      3.1400       3.5069       2.9784       0.0056       1.1855
      3.1760       2.6929       3.9221       0.0057       1.1896
      3.2120       3.1087       4.9695       0.0059       1.1938
      3.2480       4.5085       4.9875       0.0060       1.1980
      3.2840       4.5707       3.7467       0.0061       1.2024
      3.3200       4.1130       4.1340       0.0062       1.2068
      3.3560       5.3928       4.3818       0.0063       1.2113
      3.3920       5.9901       2.1493       0.0064       1.2158
      3.4280       3.9225       1.2940       0.0065       1.2205
      3.4640       2.7424       2.3024       0.0067       1.2253
      3.5000       2.6765       3.5614       0.0068       1.2301
      3.5360       3.6559       4.5520       0.0069       1.2350
      3.5720       5.2732       3.9310       0.0071       1.2401
      3.6080       5.0074       2.3892       0.0072       1.2452
      3.6440       3.7087       2.0069       0.0073       1.2504
      3.6800       2.7397       2.9419       0.0075       1.2557
      3.7160       2.6783       4.2919       0.0076       1.2612
      3.7520       3.5025       5.6577       0.0077       1.2667
      3.7880       5.3722       6.2157       0.0079       1.2723
      3.8240       6.3807       5.4755       0.0080       1.2780
      3.8600       7.5192       6.0203       0.0082       1.2839
    3.896        10.49        4.342       0.8360E-2     1.290   
    3.932        9.423       0.8570       0.8522E-2     1.296   
      3.9680       7.8748       1.3451       0.0087       1.3021
    4.004        9.234        1.273       0.8858E-2     1.308   
    4.040        9.182       -1.072       0.9032E-2     1.315   
      4.0760       7.8439      -2.1994       0.0092       1.3214
      4.1120       5.9488      -2.9450       0.0094       1.3281
      4.1480       4.1341      -1.8229       0.0096       1.3350
      4.1840       3.8383      -0.1170       0.0098       1.3419
      4.2200       4.9362       0.9967       0.0100       1.3490
     4.25600      5.84437      0.32473      0.01017      1.35628
     4.29200      5.55718      0.53644      0.01038      1.36367
     4.32800      6.80432      0.80542      0.01059      1.37122
     4.36400      7.57867     -0.44014      0.01081      1.37892
     4.40000      7.38854     -1.80571      0.01103      1.38677
     4.43600      6.51630     -2.38195      0.01126      1.39480
     4.47200      6.00689     -2.40671      0.01150      1.40299
     4.50800      5.83106     -2.53864      0.01174      1.41135
     4.54400      5.73954     -2.79521      0.01199      1.41989
     4.58000      5.74997     -3.60890      0.01225      1.42861
     4.61600      4.19170     -4.37286      0.01252      1.43752
     4.65200      2.95665     -3.44179      0.01279      1.44663
     4.68800      2.92827     -2.26017      0.01307      1.45593
     4.72400      3.96370     -1.87234      0.01336      1.46544
     4.76000      4.17274     -3.22408      0.01366      1.47517
     4.79600      2.75856     -3.43083      0.01397      1.48511
     4.83200      2.04976     -2.55662      0.01429      1.49528
     4.86800      2.10283     -1.60844      0.01462      1.50568
     4.90400      2.79994     -1.09867      0.01496      1.51632
     4.94000      3.11589     -1.37356      0.01531      1.52721
     4.97600      3.21792     -0.97407      0.01568      1.53836
     5.01200      4.33178     -1.09356      0.01606      1.54978
     5.04800      4.21147     -2.45548      0.01645      1.56147
     5.08400      3.30451     -2.20854      0.01686      1.57346
     5.12000      3.84580     -1.39903      0.01728      1.58573
     5.15600      5.49550     -2.29564      0.01772      1.59832
     5.19200      4.73661     -4.74832      0.01817      1.61123
     5.22800      2.69196     -4.98684      0.01864      1.62448
     5.26400      1.64569     -4.23879      0.01914      1.63807
     5.30000      1.23230     -3.48403      0.01965      1.65202
     5.33600      1.16202     -2.81815      0.02019      1.66635
     5.37200      1.44207     -2.27580      0.02075      1.68108
     5.40800      2.08953     -2.31204      0.02134      1.69621
     5.44400      1.90260     -3.03597      0.02195      1.71178
     5.48000      1.21413     -2.92012      0.02259      1.72780
     5.51600      0.92910     -2.44899      0.02327      1.74429
     5.55200      0.94143     -1.95580      0.02398      1.76128
     5.58800      1.27085     -1.52414      0.02472      1.77879
     5.62400      1.97071     -1.59569      0.02551      1.79685
     5.66000      1.89874     -2.37917      0.02634      1.81549
     5.69600      1.26277     -2.31869      0.02722      1.83475
     5.73200      1.06377     -1.83477      0.02815      1.85465
     5.76800      1.26967     -1.29118      0.02915      1.87525
     5.80400      2.04959     -0.87357      0.03020      1.89658
     5.84000      3.43567     -1.61029      0.03133      1.91869
     5.87600      2.96392     -3.55297      0.03254      1.94164
     5.91200      1.57233     -3.77171      0.03384      1.96549
     5.94800      0.88691     -3.37446      0.03524      1.99030
     5.98400      0.57558     -2.99842      0.03676      2.01616
     6.02000      0.41674     -2.69931      0.03842      2.04315
     6.05600      0.32664     -2.45853      0.04022      2.07137
     6.09200      0.27164     -2.25738      0.04220      2.10095
     6.12800      0.23672     -2.08287      0.04440      2.13200
     6.16400      0.21460     -1.92608      0.04683      2.16471
     6.20000      0.20164     -1.78055      0.04956      2.19924
     6.23600      0.19621     -1.64115      0.05265      2.23583
     6.27200      0.19799     -1.50324      0.05616      2.27475
     6.30800      0.20796     -1.36202      0.06021      2.31633
     6.34400      0.22875     -1.21183      0.06493      2.36098
     6.38000      0.26591     -1.04513      0.07051      2.40922
     6.41600      0.33084     -0.85110      0.07721      2.46173
     6.45200      0.44862     -0.61385      0.08541      2.51935
     6.48800      0.67997     -0.31387      0.09563      2.58326
     6.52400      1.18584      0.03626      0.10872      2.65501
     6.56000      2.32096      0.09803      0.12597      2.73679
    6.596000     3.455423    -1.478949     0.149496     2.831755
    6.632000     2.281643    -3.011888     0.183002     2.944546
    6.668000     1.161402    -2.935367     0.233308     3.082238
    6.704000     0.661927    -2.591462     0.314071     3.255793
    6.740000     0.431226    -2.301887     0.455411     3.481649
    6.776000     0.312154    -2.076980     0.731554     3.777758
    6.812000     0.245488    -1.897007     1.339899     4.106053
    6.848000     0.206954    -1.745892     2.636648     3.948983
    6.884000     0.185907    -1.612364     3.364511     2.020737
    6.920000     0.177971    -1.488013     1.973987     0.913594
    6.956000     0.182636    -1.365578     1.019183     1.118234
    6.992000     0.203299    -1.237504     0.601505     1.458932
    7.028000     0.250054    -1.094591     0.404944     1.736786
    7.064000     0.348829    -0.925889     0.301712     1.955472
    7.100000     0.569097    -0.731254     0.242777     2.134031
    7.136000     1.077519    -0.633376     0.207256     2.286514
    7.172000     1.732908    -1.264953     0.185274     2.422144
    7.208000     1.266668    -2.146740     0.171746     2.547018
    7.244000     0.649114    -2.160765     0.163877     2.665325
    7.280000     0.365460    -1.981575     0.160060     2.780083
    7.316000     0.234772    -1.825303     0.159349     2.893598
    7.352000     0.166633    -1.704577     0.161196     3.007738
    7.388000     0.126987    -1.609974     0.165310     3.124126
    7.424000     0.101858    -1.533421     0.171588     3.244267
     7.46000      0.08484     -1.46956      0.18008      3.36966
     7.49600      0.07269     -1.41492      0.19100      3.50189
     7.53200      0.06365     -1.36718      0.20471      3.64273
     7.56800      0.05668     -1.32478      0.22183      3.79427
     7.60400      0.05116     -1.28660      0.24328      3.95908
     7.64000      0.04668     -1.25185      0.27052      4.14045
     7.67600      0.04298     -1.21992      0.30586      4.34274
     7.71200      0.03986     -1.19037      0.35316      4.57203
     7.74800      0.03719     -1.16284      0.41929      4.83701
     7.78400      0.03489     -1.13706      0.51736      5.15055
     7.82000      0.03287     -1.11281      0.67509      5.53167
     7.85600      0.03108     -1.08990      0.95799      6.00416
     7.89200      0.02950     -1.06818      1.53697      6.55882
     7.92800      0.02807     -1.04754      2.77882      6.84311
     7.96400      0.02678     -1.02786      3.98293      5.51202
     8.00000      0.02561     -1.00905      2.96044      4.42867
# 
# 09/19/2018 at 11:13 YAMBO @ narro [start]
# 09/19/2018 at 11:13               [end]
#  
# Timing   [Min/Max/Average]: 08s/08s/08s
#
# .-Input file : yambo.in
# | optics                         # [R OPT] Optics
# | bse                            # [R BSE] Bethe Salpeter Equation.
# | bsk                            # [R BSK] Bethe Salpeter Equation kernel
# | bss                            # [R BSS] Bethe Salpeter Equation solver
# | BoseTemp= 0.000000     eV      # Bosonic Temperature
# | FFTGvecs=  8845        RL      # [FFT] Plane-waves
# | BSEmod= "retarded"             # [BSE] resonant/retarded/coupling
# | BSKmod= "HF"                   # [BSE] IP/Hartree/HF/ALDA/SEX/BSfxc
# | BSSmod= "hdi"                  # [BSS] (h)aydock/(d)iagonalization/(i)nversion/(t)ddft`
# | BSENGexx= 109          RL      # [BSK] Exchange components
# | BSENGBlk=  55          RL      # [BSK] Screened interaction block size
# | % KfnQP_E
# |  5.000000 | 1.000000 | 1.000000 |        # [EXTQP BSK BSS] E parameters  (c/v) eV|adim|adim
# | %
# | % BEnRange
# | -1.000000 | 8.000000 | eV      # [BSS] Energy range
# | %
# | % BDmRange
# |   0.05000 |  0.05000 | eV      # [BSS] Damping range
# | %
# | BEnSteps= 251                  # [BSS] Energy steps
# | % BLongDir
# | 0.1000E-4 | 0.000    | 0.000    |        # [BSS] [cc] Electric Field
# | %
# | % BSEBands
# |  11 | 15 |                     # [BSK] Bands range
# | %
# | BSSInvMode= "pf"               # [BSS] Inversion solver modality `(f)ull/(p)erturbative`
# | BSEPSInvTrs=   0.0100          # [BSS EPS] Inversion treshold. Relative[o/o](>0)/Absolute(<0)
# | BSSInvPFratio= 1.000000        # [BSS] Inversion solver. Ratio between the number of frequencies solved pert/full
# | BSHayTrs=0.1000E-2             # [BSS] Relative [o/o] Haydock threshold. Strict(>0)/Average(<0)
