#                                                           
#  **    **    **     ****     ****  ******     *******     
# //**  **    ****   /**/**   **/** /*////**   **/////**    
#  //****    **//**  /**//** ** /** /*   /**  **     //**   
#   //**    **  //** /** //***  /** /******  /**      /**   
#    /**   **********/**  //*   /** /*//// **/**      /**   
#    /**  /**//////**/**   /    /** /*    /**//**     **    
#    /**  /**     /**/**        /** /*******  //*******     
#    //   //      // //         //  ///////    ///////      
#                                                           
#        Version 4.3.0 Revision 15734 Hash 50fd1d2          
#                      MPI+SLK Build                        
#                http://www.yambo-code.org                  
#
# Absorption @ Q(1) [q->0 direction] :0.1000E-4  0.000     0.000   
#
#
# - Energies      are  Analyt. E
# - Wavefunctions are Slater exchange(X)+Perdew & Zunger(C)
#
# - The Green`s function is Retarded -
# - Using the Length Gauge -
# - [r,Vnl] *is* included -
#
#   BSK|Identifier              :259
#      |Dimension               :54
#      |Bands                   :11 - 15
#      |Exchange           [res]: yes
#      |Correlation        [res]: yes
#      |Kernel`s coupling       : no
#      |Exchange           [cpl]: no
#      |Correlation        [cpl]: no
#      |W interaction is bare   : no
#      |ALDA kernel in R-space  : no
#      |RL vectors    [exchange]:109
#      |RL vectors [correlation]:55
#      |E/h energy range    [ev]:-1.000000 - -1.000000
#      |Coupling range     [o/o]: 100.0000 -  100.0000
#    W |Interaction is diagonal : no
#      |Matrix size             :55
#      |Bands                   :1 - 20
#      |e/h energy range    [ev]:-1.000000 - -1.000000
#      |Poles              [o/o]: 100.0000
#      |RL vectors in the sum   :8845
#      |[r,Vnl] included        : yes
#      |Field direction         :0.1000E-4  0.000000  0.000000
#      |Coulomb Cutoff          :none
#      |xc-Kernel               :none
#   RIM|RL components      [col]:0
#      |Random points      [col]:0
#
#    E/ev[1]      EPS-Im[2]    EPS-Re[3]    EPSo-Im[4]   EPSo-Re[5]
#
    -1.00000     -1.22447     13.28289     -0.03855      4.98419
    -0.97600     -1.07025     12.75508     -0.03720      4.96604
    -0.95200     -0.94284     12.28963     -0.03589      4.94853
    -0.92800     -0.83633     11.87649     -0.03462      4.93163
    -0.90400     -0.74637     11.50766     -0.03338      4.91533
    -0.88000     -0.66966     11.17668     -0.03218      4.89962
    -0.85600     -0.60368     10.87829     -0.03100      4.88448
    -0.83200     -0.54650     10.60817     -0.02986      4.86989
    -0.80800     -0.49657     10.36275     -0.02874      4.85585
    -0.78400     -0.45270     10.13903     -0.02765      4.84234
    -0.76000     -0.41391      9.93450     -0.02658      4.82934
    -0.73600     -0.37942      9.74703     -0.02553      4.81685
    -0.71200     -0.34858      9.57481     -0.02451      4.80485
    -0.68800     -0.32088      9.41629     -0.02351      4.79334
    -0.66400     -0.29587      9.27012     -0.02253      4.78231
    -0.64000     -0.27319      9.13515     -0.02157      4.77174
    -0.61600     -0.25253      9.01037     -0.02062      4.76162
    -0.59200     -0.23365      8.89491     -0.01970      4.75196
    -0.56800     -0.21631      8.78799     -0.01878      4.74274
    -0.54400     -0.20033      8.68894     -0.01789      4.73395
    -0.52000     -0.18554      8.59716     -0.01701      4.72558
    -0.49600     -0.17182      8.51213     -0.01614      4.71764
    -0.47200     -0.15904      8.43337     -0.01528      4.71011
    -0.44800     -0.14708      8.36048     -0.01443      4.70298
    -0.42400     -0.13587      8.29309     -0.01360      4.69626
    -0.40000     -0.12532      8.23086     -0.01278      4.68994
    -0.37600     -0.11535      8.17351     -0.01196      4.68401
    -0.35200     -0.10590      8.12077     -0.01116      4.67846
    -0.32800     -0.09692      8.07241     -0.01036      4.67330
     -0.3040      -0.0884       8.0282      -0.0096       4.6685
     -0.2800      -0.0802       7.9880      -0.0088       4.6641
     -0.2560      -0.0723       7.9517      -0.0080       4.6601
   -.2320       -.6469E-1     7.919       -.7249E-2     4.656   
   -.2080       -.5736E-1     7.890       -.6485E-2     4.653   
   -.1840       -.5024E-1     7.864       -.5725E-2     4.650   
   -.1600       -.4331E-1     7.842       -.4970E-2     4.648   
   -.1360       -.3655E-1     7.823       -.4218E-2     4.645   
   -.1120       -.2991E-1     7.807       -.3470E-2     4.644   
   -.8800E-1    -.2339E-1     7.794       -.2723E-2     4.642   
   -.6400E-1    -.1694E-1     7.785       -.1979E-2     4.641   
   -.4000E-1    -.1056E-1     7.778       -.1236E-2     4.640   
   -.1600E-1    -.4219E-2     7.775       -.4944E-3     4.640   
   0.8000E-2    0.2109E-2     7.774       0.2472E-3     4.640   
   0.3200E-1    0.8445E-2     7.777       0.9890E-3     4.640   
   0.5600E-1    0.1481E-1     7.782       0.1731E-2     4.641   
   0.8000E-1    0.2123E-1     7.791       0.2475E-2     4.642   
   0.1040       0.2773E-1     7.802       0.3221E-2     4.643   
   0.1280       0.3432E-1     7.817       0.3968E-2     4.645   
   0.1520       0.4104E-1     7.835       0.4719E-2     4.647   
   0.1760       0.4791E-1     7.856       0.5473E-2     4.649   
   0.2000       0.5496E-1     7.881       0.6231E-2     4.652   
   0.2240       0.6222E-1     7.909       0.6993E-2     4.655   
   0.2480       0.6972E-1     7.940       0.7761E-2     4.659   
      0.2720       0.0775       7.9755       0.0085       4.6627
      0.2960       0.0856       8.0144       0.0093       4.6670
     0.32000      0.09402      8.05723      0.01010      4.67167
     0.34400      0.10286      8.10417      0.01089      4.67670
     0.36800      0.11215      8.15543      0.01170      4.68212
     0.39200      0.12193      8.21121      0.01251      4.68792
     0.41600      0.13228      8.27178      0.01333      4.69411
     0.44000      0.14327      8.33742      0.01416      4.70070
     0.46400      0.15496      8.40844      0.01500      4.70769
     0.48800      0.16746      8.48520      0.01585      4.71508
     0.51200      0.18086      8.56809      0.01671      4.72289
     0.53600      0.19527      8.65756      0.01759      4.73111
     0.56000      0.21084      8.75413      0.01848      4.73976
     0.58400      0.22770      8.85835      0.01939      4.74884
     0.60800      0.24605      8.97089      0.02031      4.75835
     0.63200      0.26609      9.09247      0.02125      4.76832
     0.65600      0.28807      9.22394      0.02221      4.77873
     0.68000      0.31226      9.36625      0.02318      4.78961
     0.70400      0.33902      9.52052      0.02418      4.80096
     0.72800      0.36876      9.68801      0.02519      4.81280
     0.75200      0.40197      9.87021      0.02623      4.82512
     0.77600      0.43925     10.06883      0.02729      4.83795
     0.80000      0.48133     10.28590      0.02837      4.85129
     0.82400      0.52911     10.52378      0.02948      4.86515
     0.84800      0.58373     10.78530      0.03062      4.87956
     0.87200      0.64658     11.07383      0.03178      4.89451
     0.89600      0.71946     11.39341      0.03298      4.91003
     0.92000      0.80469     11.74897      0.03420      4.92613
     0.94400      0.90525     12.14653      0.03546      4.94283
     0.96800      1.02513     12.59354      0.03676      4.96013
     0.99200      1.16964     13.09930      0.03809      4.97807
     1.01600      1.34607     13.67557      0.03946      4.99665
     1.04000      1.56459     14.33738      0.04088      5.01590
     1.06400      1.83968     15.10422      0.04233      5.03584
     1.08800      2.19256     16.00163      0.04384      5.05649
     1.11200      2.65524     17.06357      0.04539      5.07786
     1.13600      3.27761     18.33554      0.04699      5.10000
     1.16000      4.14052     19.87870      0.04865      5.12291
     1.18400      5.38096     21.77380      0.05036      5.14663
     1.20800      7.24256     24.11970      0.05214      5.17118
     1.23200     10.18103     27.00426      0.05398      5.19660
     1.25600     15.08022     30.35748      0.05589      5.22292
     1.28000     23.59375     33.33869      0.05788      5.25017
     1.30400     37.75801     32.26948      0.05994      5.27839
     1.32800     53.91147     18.42274      0.06208      5.30761
     1.35200     54.57755     -7.04668      0.06431      5.33788
     1.37600     38.64977    -21.85384      0.06663      5.36923
     1.40000     24.15070    -23.28735      0.06906      5.40173
     1.42400     15.40392    -20.35677      0.07159      5.43540
     1.44800     10.38102    -16.97757      0.07423      5.47031
     1.47200      7.37789    -14.05451      0.07699      5.50651
     1.49600      5.48166    -11.67152      0.07988      5.54406
     1.52000      4.22239     -9.74255      0.08291      5.58303
     1.54400      3.34937     -8.16798      0.08609      5.62348
     1.56800      2.72202     -6.86595      0.08943      5.66548
     1.59200      2.25749     -5.77438      0.09294      5.70912
     1.61600      1.90478     -4.84704      0.09663      5.75447
    1.640000     1.631247    -4.049466     0.100518     5.801635
    1.664000     1.415263    -3.355685     0.104622     5.850706
    1.688000     1.242089    -2.745908     0.108957     5.901788
    1.712000     1.101406    -2.204842     0.113541     5.954996
    1.736000     0.985831    -1.720514     0.118397     6.010454
    1.760000     0.889973    -1.283434     0.123546     6.068294
    1.784000     0.809826    -0.885983     0.129015     6.128663
    1.808000     0.742366    -0.521977     0.134833     6.191719
    1.832000     0.685281    -0.186342     0.141030     6.257633
    1.856000     0.636778     0.125136     0.147644     6.326595
    1.880000     0.595454     0.415983     0.154714     6.398809
    1.904000     0.560203     0.689188     0.162285     6.474502
    1.928000     0.530142     0.947305     0.170407     6.553921
    1.952000     0.504567     1.192538     0.179138     6.637340
    1.976000     0.482912     1.426814     0.188542     6.725061
    2.000000     0.464720     1.651829     0.198694     6.817417
    2.024000     0.449626     1.869099     0.209678     6.914779
    2.048000     0.437338     2.079989     0.221589     7.017560
    2.072000     0.427627     2.285750     0.234539     7.126219
    2.096000     0.420314     2.487538     0.248656     7.241273
    2.120000     0.415270     2.686442     0.264087     7.363299
    2.144000     0.412404     2.883499     0.281007     7.492952
    2.168000     0.411666     3.079716     0.299617     7.630970
    2.192000     0.413042     3.276082     0.320156     7.778193
    2.216000     0.416554     3.473591     0.342903     7.935576
    2.240000     0.422262     3.673253     0.368196     8.104218
    2.264000     0.430266     3.876116     0.396433     8.285381
    2.288000     0.440711     4.083282     0.428097     8.480526
    2.312000     0.453793     4.295928     0.463776     8.691352
    2.336000     0.469767     4.515333     0.504185     8.919848
    2.360000     0.488957     4.742904     0.550210     9.168354
    2.384000     0.511777     4.980213     0.602950     9.439645
    2.408000     0.538746     5.229036     0.663789     9.737031
     2.43200      0.57052      5.49141      0.73449     10.06450
     2.45600      0.60795      5.76968      0.81730     10.42687
     2.48000      0.65208      6.06662      0.91518     10.83008
     2.50400      0.70429      6.38551      1.03202     11.28142
     2.52800      0.76639      6.73029      1.17304     11.79003
     2.55200      0.84073      7.10575      1.34540     12.36746
     2.57600      0.93050      7.51778      1.55906     13.02846
     2.60000      1.04006      7.97376      1.82825     13.79215
     2.62400      1.17547      8.48300      2.17382     14.68362
     2.64800      1.34541      9.05744      2.62715     15.73618
     2.67200      1.56265      9.71263      3.23724     16.99454
     2.69600      1.84654     10.46905      4.08344     18.51875
     2.72000      2.22751     11.35392      5.30013     20.38822
     2.74400      2.75549     12.40334      7.12628     22.70046
     2.76800      3.51633     13.66370     10.00877     25.54338
     2.79200      4.66545     15.18760     14.81570     28.85464
     2.81600      6.49821     17.00426     23.18579     31.83021
     2.84000      9.58702     18.98502     37.23354     30.86248
     2.86400     14.91439     20.31228     53.44783     16.93173
     2.88800     22.92122     18.03995     53.46761     -8.68203
     2.91200     28.39362      8.36611     37.26468    -22.63829
     2.93600     24.04101     -1.46760     23.21056    -23.61514
     2.96000     16.93086     -3.82704     14.83617    -20.63735
     2.98400     12.53910     -2.54062     10.02828    -17.31979
     3.00800     10.16193     -0.52363      7.14672    -14.46868
     3.03200      9.06227      1.95842      5.32249    -12.14682
     3.05600      9.37319      4.73615      4.10827    -10.26637
     3.08000     11.37790      7.47166      3.26487     -8.72978
     3.10400     15.73527      9.32302      2.65780     -7.45759
     3.12800     22.42738      7.57213      2.20764     -6.38966
     3.15200     26.29825     -0.17569      1.86539     -5.48126
     3.17600     23.09782     -6.78480      1.59963     -4.69901
     3.20000     19.75324     -8.50649      1.38953     -4.01777
     3.22400     18.77394    -10.18829      1.22085     -3.41837
     3.24800     16.60853    -13.63749      1.08364     -2.88599
     3.27200     12.00375    -15.34887      0.97075     -2.40902
     3.29600      8.03648    -14.49781      0.87696     -1.97827
     3.32000      5.55873    -12.86791      0.79839     -1.58636
     3.34400      4.06255    -11.28754      0.73212     -1.22729
    3.368000     3.118558    -9.928456     0.675881    -0.896147
    3.392000     2.490833    -8.783747     0.627949    -0.588851
    3.416000     2.054167    -7.813958     0.586953    -0.301993
     3.44000      1.73954     -6.98114      0.55181     -0.03269
    3.464000     1.506994    -6.254728     0.521669     0.221519
    3.488000     1.332317    -5.610982     0.495828     0.462754
    3.512000     1.200369    -5.031424     0.473730     0.692856
    3.536000     1.101518    -4.501343     0.454925     0.913443
    3.560000     1.029714    -4.008637     0.439047     1.125951
    3.584000     0.981459    -3.542898     0.425798     1.331665
    3.608000     0.955302    -3.094678     0.414941     1.531752
    3.632000     0.951735    -2.654828     0.406287     1.727280
    3.656000     0.973475    -2.213856     0.399687     1.919243
    3.680000     1.026255    -1.761207     0.395032     2.108573
    3.704000     1.120456    -1.284440     0.392243     2.296163
    3.728000     1.274343    -0.768326     0.391272     2.482876
    3.752000     1.520530    -0.194327     0.392102     2.669558
    3.776000     1.919377     0.457529     0.394741     2.857055
    3.800000     2.587086     1.196039     0.399229     3.046223
    3.824000     3.749694     1.962193     0.405632     3.237942
    3.848000     5.787261     2.409075     0.414053     3.433131
    3.872000     8.804992     1.342478     0.424627     3.632763
     3.89600     10.64826     -2.59173      0.43753      3.83788
    3.920000     8.683349    -6.463016     0.453000     4.049621
    3.944000     5.651105    -7.478846     0.471310     4.269231
    3.968000     3.614517    -7.046698     0.492816     4.498104
    3.992000     2.439475    -6.328887     0.517959     4.737808
    4.016000     1.748854    -5.658067     0.547286     4.990130
    4.040000     1.320363    -5.090244     0.581480     5.257128
    4.064000     1.039501    -4.616918     0.621398     5.541193
    4.088000     0.846355    -4.219411     0.668127     5.845139
    4.112000     0.708060    -3.880943     0.723053     6.172302
    4.136000     0.605657    -3.588440     0.787967     6.526693
    4.160000     0.527680    -3.332073     0.865216     6.913174
    4.184000     0.466908    -3.104473     0.957912     7.337716
    4.208000     0.418622    -2.900069     1.070262     7.807737
    4.232000     0.379646    -2.714590     1.208058     8.332573
    4.256000     0.347783    -2.544709     1.379456     8.924127
    4.280000     0.321479    -2.387791     1.596232     9.597782
     4.30400      0.29962     -2.24171      1.87589     10.37367
     4.32800      0.28138     -2.10474      2.24537     11.27844
     4.35200      0.26618     -1.97540      2.74773     12.34741
     4.37600      0.25357     -1.85246      3.45500     13.62672
     4.40000      0.24323     -1.73483      4.49371     15.17218
     4.42400      0.23496     -1.62153      6.09662     17.03190
     4.44800      0.22862     -1.51168      8.69716     19.16184
     4.47200      0.22416     -1.40440     12.99834     21.12520
     4.49600      0.22159     -1.29887     19.56470     21.58187
     4.52000      0.22103     -1.19420     28.07009     18.19082
     4.54400      0.22268     -1.08947     34.27429      7.35677
     4.56800      0.22689     -0.98366     29.60068     -4.69813
     4.59200      0.23417     -0.87558     20.69477     -7.95972
     4.61600      0.24531     -0.76381     15.08602     -5.98317
     4.64000      0.26147     -0.64661     12.99883     -2.76833
     4.66400      0.28443     -0.52175     13.71170      0.11510
     4.68800      0.31698     -0.38636     16.68594      1.34771
     4.71200      0.36361     -0.23665     20.67136     -0.17715
     4.73600      0.43183     -0.06764     23.90129     -5.71444
     4.76000      0.53488      0.12693     21.25021    -13.49090
     4.78400      0.69717      0.35351     14.58187    -16.43093
     4.80800      0.96581      0.61273      9.48528    -15.52425
     4.83200      1.43164      0.87304      6.45146    -13.67844
     4.85600      2.23620      0.97180      4.65498    -11.89817
     4.88000      3.33525      0.40631      3.53681    -10.37462
    4.904000     3.742032    -1.139941     2.802574    -9.096703
    4.928000     2.841488    -2.312721     2.298109    -8.017654
    4.952000     1.822989    -2.498255     1.939094    -7.093079
    4.976000     1.184321    -2.294006     1.677054    -6.287401
    5.000000     0.818867    -2.029943     1.482870    -5.573123
# 
# 09/19/2018 at 11:13 YAMBO @ narro [start]
# 09/19/2018 at 11:13               [end]
#  
# Timing   [Min/Max/Average]: 20s/20s/20s
#
# .-Input file : yambo.in
# | optics                         # [R OPT] Optics
# | bse                            # [R BSE] Bethe Salpeter Equation.
# | bsk                            # [R BSK] Bethe Salpeter Equation kernel
# | bss                            # [R BSS] Bethe Salpeter Equation solver
# | em1s                           # [R Xs] Static Inverse Dielectric Matrix
# | BoseTemp= 0.000000     eV      # Bosonic Temperature
# | FFTGvecs=  8845        RL      # [FFT] Plane-waves
# | Chimod= "Hartree"              # [X] IP/Hartree/ALDA/LRC/PF/BSfxc
# | BSEmod= "retarded"             # [BSE] resonant/retarded/coupling
# | BSKmod= "SEX"                  # [BSE] IP/Hartree/HF/ALDA/SEX/BSfxc
# | BSSmod= "hdi"                  # [BSS] (h)aydock/(d)iagonalization/(i)nversion/(t)ddft`
# | BSENGexx= 109          RL      # [BSK] Exchange components
# | BSENGBlk=  55          RL      # [BSK] Screened interaction block size
# | #WehCpl                        # [BSK] eh interaction included also in coupling
# | % KfnQP_E
# |  1.000000 | 1.000000 | 1.000000 |        # [EXTQP BSK BSS] E parameters  (c/v) eV|adim|adim
# | %
# | % BEnRange
# | -1.000000 | 5.000000 | eV      # [BSS] Energy range
# | %
# | % BDmRange
# |   0.05000 |  0.05000 | eV      # [BSS] Damping range
# | %
# | BEnSteps= 251                  # [BSS] Energy steps
# | % BLongDir
# | 0.1000E-4 | 0.000    | 0.000    |        # [BSS] [cc] Electric Field
# | %
# | % BSEBands
# |  11 | 15 |                     # [BSK] Bands range
# | %
# | BSSInvMode= "pf"               # [BSS] Inversion solver modality `(f)ull/(p)erturbative`
# | BSEPSInvTrs=   0.0100          # [BSS EPS] Inversion treshold. Relative[o/o](>0)/Absolute(<0)
# | BSSInvPFratio= 1.000000        # [BSS] Inversion solver. Ratio between the number of frequencies solved pert/full
# | BSHayTrs=0.1000E-2             # [BSS] Relative [o/o] Haydock threshold. Strict(>0)/Average(<0)
# | % BndsRnXs
# |   1 | 20 |                     # [Xs] Polarization function bands
# | %
# | NGsBlkXs=  55          RL      # [Xs] Response block size
# | % DmRngeXs
# | 0.1000E-2 |0.1000E-2 | eV      # [Xs] Damping range
# | %
# | % LongDrXs
# | 0.1000E-4 | 0.000    | 0.000    |        # [Xs] [cc] Electric Field
# | %
