#                                                           
# :::   :::   :::     ::::    ::::  :::::::::   ::::::::    
# :+:   :+: :+: :+:   +:+:+: :+:+:+ :+:    :+: :+:    :+:   
#  +:+ +:+ +:+   +:+  +:+ +:+:+ +:+ +:+    +:+ +:+    +:+   
#   +#++: +#++:++#++: +#+  +:+  +#+ +#++:++#+  +#+    +:+   
#    +#+  +#+     +#+ +#+       +#+ +#+    +#+ +#+    +#+   
#    #+#  #+#     #+# #+#       #+# #+#    #+# #+#    #+#   
#    ###  ###     ### ###       ### #########   ########    
#                                                           
#                                                           
#        Version 4.1.2 Revision 14038 Hash bd0d05e          
#                    MPI+OpenMP Build                       
#                http://www.yambo-code.org                  
#
# EELS @ Q(1)  [q->0 direction]:0.1000E-4  0.000     0.000   
#
#
# - Energies      are GoWo Plasmon Pole appox.
# - Wavefunctions are Teter 93(XC)
#
# - The Green`s function is Retarded -
# - Using the Length Gauge -
# - [r,Vnl] *is* included -
#
#   BSK|Identifier              :7454
#      |Dimension               :96
#      |Bands                   :1 - 7
#      |Exchange           [res]: yes
#      |Correlation        [res]: yes
#      |Kernel`s coupling       : no
#      |Exchange           [cpl]: no
#      |Correlation        [cpl]: no
#      |W interaction is bare   : no
#      |ALDA kernel in R-space  : no
#      |RL vectors    [exchange]:363
#      |RL vectors [correlation]:1
#      |E/h energy range    [ev]:-1.000000 - -1.000000
#      |Coupling range     [o/o]: 100.0000 -  100.0000
#    W |Interaction is diagonal : no
#      |Matrix size             :1
#      |Bands                   :1 - 7
#      |e/h energy range    [ev]:-1.000000 - -1.000000
#      |Poles              [o/o]: 100.0000
#      |RL vectors in the sum   :363
#      |[r,Vnl] included        : yes
#      |Field direction         :0.1000E-4  0.000000  0.000000
#      |Coulomb Cutoff          :none
#      |xc-Kernel               :none
#   RIM|RL components      [col]:0
#      |Random points      [col]:0
#
#  E/ev[1]    EEL-Im[2]  EEL-Re[3]  EELo-Im[4] EELo-Re[5]
#
   0.00000   -0.00000   -0.02781   -0.00000   -0.02834
 0.1001E-1  0.2839E-5  -.2781E-1  0.2736E-5  -.2834E-1
 0.2002E-1  0.5679E-5  -.2781E-1  0.5472E-5  -.2834E-1
 0.3003E-1  0.8518E-5  -.2781E-1  0.8208E-5  -.2834E-1
 0.4004E-1  0.1136E-4  -.2781E-1  0.1094E-4  -.2834E-1
 0.5005E-1  0.1420E-4  -.2781E-1  0.1368E-4  -.2834E-1
 0.6006E-1  0.1704E-4  -.2781E-1  0.1642E-4  -.2834E-1
 0.7007E-1  0.1988E-4  -.2781E-1  0.1915E-4  -.2834E-1
 0.8008E-1  0.2272E-4  -.2780E-1  0.2189E-4  -.2834E-1
 0.9009E-1  0.2556E-4  -.2780E-1  0.2462E-4  -.2833E-1
 0.1001     0.2840E-4  -.2780E-1  0.2736E-4  -.2833E-1
 0.1101     0.3124E-4  -.2780E-1  0.3010E-4  -.2833E-1
 0.1201     0.3408E-4  -.2779E-1  0.3283E-4  -.2832E-1
 0.1301     0.3692E-4  -.2779E-1  0.3557E-4  -.2832E-1
 0.1401     0.3976E-4  -.2778E-1  0.3831E-4  -.2832E-1
 0.1502     0.4260E-4  -.2778E-1  0.4105E-4  -.2831E-1
 0.1602     0.4544E-4  -.2778E-1  0.4378E-4  -.2831E-1
 0.1702     0.4828E-4  -.2777E-1  0.4652E-4  -.2830E-1
 0.1802     0.5112E-4  -.2777E-1  0.4926E-4  -.2830E-1
 0.1902     0.5397E-4  -.2776E-1  0.5200E-4  -.2829E-1
 0.2002     0.5681E-4  -.2776E-1  0.5474E-4  -.2829E-1
 0.2102     0.5965E-4  -.2775E-1  0.5747E-4  -.2828E-1
 0.2202     0.6249E-4  -.2774E-1  0.6021E-4  -.2828E-1
 0.2302     0.6534E-4  -.2774E-1  0.6295E-4  -.2827E-1
 0.2402     0.6818E-4  -.2773E-1  0.6569E-4  -.2827E-1
 0.2503     0.7102E-4  -.2772E-1  0.6843E-4  -.2826E-1
 0.2603     0.7387E-4  -.2772E-1  0.7117E-4  -.2825E-1
 0.2703     0.7671E-4  -.2771E-1  0.7391E-4  -.2824E-1
 0.2803     0.7956E-4  -.2770E-1  0.7665E-4  -.2824E-1
 0.2903     0.8240E-4  -.2769E-1  0.7940E-4  -.2823E-1
 0.3003     0.8525E-4  -.2768E-1  0.8214E-4  -.2822E-1
 0.3103     0.8810E-4  -.2768E-1  0.8488E-4  -.2821E-1
 0.3203     0.9094E-4  -.2767E-1  0.8762E-4  -.2820E-1
 0.3303     0.9379E-4  -.2766E-1  0.9037E-4  -.2820E-1
 0.3403     0.9664E-4  -.2765E-1  0.9311E-4  -.2819E-1
 0.3504     0.9949E-4  -.2764E-1  0.9585E-4  -.2818E-1
 0.3604     0.1023E-3  -.2763E-1  0.9860E-4  -.2817E-1
 0.3704     0.1052E-3  -.2762E-1  0.1013E-3  -.2816E-1
 0.3804     0.1080E-3  -.2761E-1  0.1041E-3  -.2815E-1
 0.3904     0.1109E-3  -.2760E-1  0.1068E-3  -.2814E-1
 0.4004     0.1137E-3  -.2759E-1  0.1096E-3  -.2813E-1
 0.4104     0.1166E-3  -.2757E-1  0.1123E-3  -.2811E-1
 0.4204     0.1194E-3  -.2756E-1  0.1151E-3  -.2810E-1
 0.4304     0.1223E-3  -.2755E-1  0.1178E-3  -.2809E-1
 0.4404     0.1251E-3  -.2754E-1  0.1206E-3  -.2808E-1
 0.4505     0.1280E-3  -.2752E-1  0.1233E-3  -.2807E-1
 0.4605     0.1309E-3  -.2751E-1  0.1261E-3  -.2805E-1
 0.4705     0.1337E-3  -.2750E-1  0.1288E-3  -.2804E-1
 0.4805     0.1366E-3  -.2749E-1  0.1316E-3  -.2803E-1
 0.4905     0.1394E-3  -.2747E-1  0.1343E-3  -.2802E-1
 0.5005     0.1423E-3  -.2746E-1  0.1371E-3  -.2800E-1
 0.5105     0.1451E-3  -.2744E-1  0.1398E-3  -.2799E-1
 0.5205     0.1480E-3  -.2743E-1  0.1426E-3  -.2797E-1
 0.5305     0.1509E-3  -.2741E-1  0.1453E-3  -.2796E-1
 0.5405     0.1537E-3  -.2740E-1  0.1481E-3  -.2794E-1
 0.5506     0.1566E-3  -.2738E-1  0.1509E-3  -.2793E-1
 0.5606     0.1595E-3  -.2737E-1  0.1536E-3  -.2791E-1
 0.5706     0.1623E-3  -.2735E-1  0.1564E-3  -.2790E-1
 0.5806     0.1652E-3  -.2733E-1  0.1591E-3  -.2788E-1
 0.5906     0.1680E-3  -.2732E-1  0.1619E-3  -.2787E-1
 0.6006     0.1709E-3  -.2730E-1  0.1647E-3  -.2785E-1
 0.6106     0.1738E-3  -.2728E-1  0.1674E-3  -.2783E-1
 0.6206     0.1767E-3  -.2727E-1  0.1702E-3  -.2782E-1
 0.6306     0.1795E-3  -.2725E-1  0.1729E-3  -.2780E-1
 0.6406     0.1824E-3  -.2723E-1  0.1757E-3  -.2778E-1
 0.6507     0.1853E-3  -.2721E-1  0.1785E-3  -.2776E-1
 0.6607     0.1881E-3  -.2719E-1  0.1812E-3  -.2775E-1
 0.6707     0.1910E-3  -.2717E-1  0.1840E-3  -.2773E-1
 0.6807     0.1939E-3  -.2715E-1  0.1868E-3  -.2771E-1
 0.6907     0.1968E-3  -.2713E-1  0.1895E-3  -.2769E-1
 0.7007     0.1996E-3  -.2712E-1  0.1923E-3  -.2767E-1
 0.7107     0.2025E-3  -.2709E-1  0.1951E-3  -.2765E-1
 0.7207     0.2054E-3  -.2707E-1  0.1979E-3  -.2763E-1
 0.7307     0.2083E-3  -.2705E-1  0.2006E-3  -.2761E-1
 0.7407     0.2112E-3  -.2703E-1  0.2034E-3  -.2759E-1
 0.7508     0.2140E-3  -.2701E-1  0.2062E-3  -.2757E-1
 0.7608     0.2169E-3  -.2699E-1  0.2090E-3  -.2755E-1
 0.7708     0.2198E-3  -.2697E-1  0.2117E-3  -.2753E-1
 0.7808     0.2227E-3  -.2695E-1  0.2145E-3  -.2751E-1
 0.7908     0.2256E-3  -.2692E-1  0.2173E-3  -.2749E-1
 0.8008     0.2285E-3  -.2690E-1  0.2201E-3  -.2747E-1
 0.8108     0.2314E-3  -.2688E-1  0.2229E-3  -.2744E-1
 0.8208     0.2343E-3  -.2685E-1  0.2256E-3  -.2742E-1
 0.8308     0.2372E-3  -.2683E-1  0.2284E-3  -.2740E-1
 0.8408     0.2400E-3  -.2681E-1  0.2312E-3  -.2738E-1
 0.8509     0.2429E-3  -.2678E-1  0.2340E-3  -.2735E-1
 0.8609     0.2458E-3  -.2676E-1  0.2368E-3  -.2733E-1
 0.8709     0.2487E-3  -.2673E-1  0.2396E-3  -.2730E-1
 0.8809     0.2516E-3  -.2671E-1  0.2424E-3  -.2728E-1
 0.8909     0.2545E-3  -.2668E-1  0.2452E-3  -.2726E-1
 0.9009     0.2574E-3  -.2666E-1  0.2480E-3  -.2723E-1
 0.9109     0.2603E-3  -.2663E-1  0.2507E-3  -.2721E-1
 0.9209     0.2633E-3  -.2661E-1  0.2535E-3  -.2718E-1
 0.9309     0.2662E-3  -.2658E-1  0.2563E-3  -.2716E-1
 0.9409     0.2691E-3  -.2655E-1  0.2591E-3  -.2713E-1
 0.9510     0.2720E-3  -.2653E-1  0.2619E-3  -.2710E-1
 0.9610     0.2749E-3  -.2650E-1  0.2647E-3  -.2708E-1
 0.9710     0.2778E-3  -.2647E-1  0.2675E-3  -.2705E-1
 0.9810     0.2807E-3  -.2644E-1  0.2704E-3  -.2702E-1
 0.9910     0.2836E-3  -.2641E-1  0.2732E-3  -.2700E-1
  1.001     0.2866E-3  -.2639E-1  0.2760E-3  -.2697E-1
  1.011     0.2895E-3  -.2636E-1  0.2788E-3  -.2694E-1
  1.021     0.2924E-3  -.2633E-1  0.2816E-3  -.2691E-1
  1.031     0.2953E-3  -.2630E-1  0.2844E-3  -.2689E-1
  1.041     0.2983E-3  -.2627E-1  0.2872E-3  -.2686E-1
  1.051     0.3012E-3  -.2624E-1  0.2900E-3  -.2683E-1
  1.061     0.3041E-3  -.2621E-1  0.2929E-3  -.2680E-1
  1.071     0.3070E-3  -.2618E-1  0.2957E-3  -.2677E-1
  1.081     0.3100E-3  -.2615E-1  0.2985E-3  -.2674E-1
  1.091     0.3129E-3  -.2612E-1  0.3013E-3  -.2671E-1
  1.101     0.3159E-3  -.2608E-1  0.3041E-3  -.2668E-1
  1.111     0.3188E-3  -.2605E-1  0.3070E-3  -.2665E-1
  1.121     0.3217E-3  -.2602E-1  0.3098E-3  -.2662E-1
  1.131     0.3247E-3  -.2599E-1  0.3126E-3  -.2659E-1
  1.141     0.3276E-3  -.2596E-1  0.3155E-3  -.2656E-1
  1.151     0.3306E-3  -.2592E-1  0.3183E-3  -.2652E-1
  1.161     0.3335E-3  -.2589E-1  0.3211E-3  -.2649E-1
  1.171     0.3365E-3  -.2586E-1  0.3240E-3  -.2646E-1
  1.181     0.3394E-3  -.2582E-1  0.3268E-3  -.2643E-1
  1.191     0.3424E-3  -.2579E-1  0.3297E-3  -.2639E-1
  1.201     0.3453E-3  -.2575E-1  0.3325E-3  -.2636E-1
  1.211     0.3483E-3  -.2572E-1  0.3354E-3  -.2633E-1
  1.221     0.3513E-3  -.2568E-1  0.3382E-3  -.2629E-1
  1.231     0.3542E-3  -.2565E-1  0.3411E-3  -.2626E-1
  1.241     0.3572E-3  -.2561E-1  0.3439E-3  -.2623E-1
  1.251     0.3602E-3  -.2558E-1  0.3468E-3  -.2619E-1
  1.261     0.3631E-3  -.2554E-1  0.3496E-3  -.2616E-1
  1.271     0.3661E-3  -.2550E-1  0.3525E-3  -.2612E-1
  1.281     0.3691E-3  -.2547E-1  0.3553E-3  -.2609E-1
  1.291     0.3721E-3  -.2543E-1  0.3582E-3  -.2605E-1
  1.301     0.3751E-3  -.2539E-1  0.3611E-3  -.2601E-1
  1.311     0.3780E-3  -.2536E-1  0.3639E-3  -.2598E-1
  1.321     0.3810E-3  -.2532E-1  0.3668E-3  -.2594E-1
  1.331     0.3840E-3  -.2528E-1  0.3697E-3  -.2590E-1
  1.341     0.3870E-3  -.2524E-1  0.3726E-3  -.2587E-1
  1.351     0.3900E-3  -.2520E-1  0.3754E-3  -.2583E-1
  1.361     0.3930E-3  -.2516E-1  0.3783E-3  -.2579E-1
  1.371     0.3960E-3  -.2512E-1  0.3812E-3  -.2575E-1
  1.381     0.3990E-3  -.2508E-1  0.3841E-3  -.2572E-1
  1.391     0.4020E-3  -.2504E-1  0.3870E-3  -.2568E-1
  1.401     0.4050E-3  -.2500E-1  0.3899E-3  -.2564E-1
  1.411     0.4080E-3  -.2496E-1  0.3928E-3  -.2560E-1
  1.421     0.4111E-3  -.2492E-1  0.3957E-3  -.2556E-1
  1.431     0.4141E-3  -.2488E-1  0.3986E-3  -.2552E-1
  1.441     0.4171E-3  -.2484E-1  0.4015E-3  -.2548E-1
  1.451     0.4201E-3  -.2480E-1  0.4044E-3  -.2544E-1
  1.461     0.4231E-3  -.2475E-1  0.4073E-3  -.2540E-1
  1.471     0.4262E-3  -.2471E-1  0.4102E-3  -.2536E-1
  1.481     0.4292E-3  -.2467E-1  0.4131E-3  -.2532E-1
  1.491     0.4322E-3  -.2463E-1  0.4160E-3  -.2527E-1
  1.502     0.4353E-3  -.2458E-1  0.4189E-3  -.2523E-1
  1.512     0.4383E-3  -.2454E-1  0.4218E-3  -.2519E-1
  1.522     0.4414E-3  -.2449E-1  0.4248E-3  -.2515E-1
  1.532     0.4444E-3  -.2445E-1  0.4277E-3  -.2511E-1
  1.542     0.4475E-3  -.2441E-1  0.4306E-3  -.2506E-1
  1.552     0.4505E-3  -.2436E-1  0.4336E-3  -.2502E-1
  1.562     0.4536E-3  -.2432E-1  0.4365E-3  -.2498E-1
  1.572     0.4566E-3  -.2427E-1  0.4394E-3  -.2493E-1
  1.582     0.4597E-3  -.2422E-1  0.4424E-3  -.2489E-1
  1.592     0.4628E-3  -.2418E-1  0.4453E-3  -.2484E-1
  1.602     0.4658E-3  -.2413E-1  0.4483E-3  -.2480E-1
  1.612     0.4689E-3  -.2408E-1  0.4512E-3  -.2475E-1
  1.622     0.4720E-3  -.2404E-1  0.4542E-3  -.2471E-1
  1.632     0.4751E-3  -.2399E-1  0.4571E-3  -.2466E-1
  1.642     0.4782E-3  -.2394E-1  0.4601E-3  -.2462E-1
  1.652     0.4812E-3  -.2389E-1  0.4631E-3  -.2457E-1
  1.662     0.4843E-3  -.2385E-1  0.4660E-3  -.2452E-1
  1.672     0.4874E-3  -.2380E-1  0.4690E-3  -.2448E-1
  1.682     0.4905E-3  -.2375E-1  0.4720E-3  -.2443E-1
  1.692     0.4936E-3  -.2370E-1  0.4750E-3  -.2438E-1
  1.702     0.4967E-3  -.2365E-1  0.4780E-3  -.2434E-1
  1.712     0.4999E-3  -.2360E-1  0.4810E-3  -.2429E-1
  1.722     0.5030E-3  -.2355E-1  0.4839E-3  -.2424E-1
  1.732     0.5061E-3  -.2350E-1  0.4869E-3  -.2419E-1
  1.742     0.5092E-3  -.2345E-1  0.4899E-3  -.2414E-1
  1.752     0.5124E-3  -.2340E-1  0.4929E-3  -.2409E-1
  1.762     0.5155E-3  -.2335E-1  0.4960E-3  -.2404E-1
  1.772     0.5186E-3  -.2329E-1  0.4990E-3  -.2399E-1
  1.782     0.5218E-3  -.2324E-1  0.5020E-3  -.2394E-1
  1.792     0.5249E-3  -.2319E-1  0.5050E-3  -.2389E-1
  1.802     0.5281E-3  -.2314E-1  0.5080E-3  -.2384E-1
  1.812     0.5312E-3  -.2308E-1  0.5110E-3  -.2379E-1
  1.822     0.5344E-3  -.2303E-1  0.5141E-3  -.2374E-1
  1.832     0.5375E-3  -.2298E-1  0.5171E-3  -.2369E-1
  1.842     0.5407E-3  -.2292E-1  0.5202E-3  -.2364E-1
  1.852     0.5439E-3  -.2287E-1  0.5232E-3  -.2358E-1
  1.862     0.5471E-3  -.2281E-1  0.5263E-3  -.2353E-1
  1.872     0.5502E-3  -.2276E-1  0.5293E-3  -.2348E-1
  1.882     0.5534E-3  -.2270E-1  0.5324E-3  -.2343E-1
  1.892     0.5566E-3  -.2265E-1  0.5354E-3  -.2337E-1
  1.902     0.5598E-3  -.2259E-1  0.5385E-3  -.2332E-1
  1.912     0.5630E-3  -.2254E-1  0.5416E-3  -.2326E-1
  1.922     0.5662E-3  -.2248E-1  0.5447E-3  -.2321E-1
  1.932     0.5694E-3  -.2242E-1  0.5477E-3  -.2316E-1
  1.942     0.5727E-3  -.2237E-1  0.5508E-3  -.2310E-1
  1.952     0.5759E-3  -.2231E-1  0.5539E-3  -.2305E-1
  1.962     0.5791E-3  -.2225E-1  0.5570E-3  -.2299E-1
  1.972     0.5824E-3  -.2219E-1  0.5601E-3  -.2293E-1
  1.982     0.5856E-3  -.2213E-1  0.5632E-3  -.2288E-1
  1.992     0.5888E-3  -.2208E-1  0.5663E-3  -.2282E-1
  2.002     0.5921E-3  -.2202E-1  0.5695E-3  -.2276E-1
  2.012     0.5953E-3  -.2196E-1  0.5726E-3  -.2271E-1
  2.022     0.5986E-3  -.2190E-1  0.5757E-3  -.2265E-1
  2.032     0.6019E-3  -.2184E-1  0.5789E-3  -.2259E-1
  2.042     0.6052E-3  -.2178E-1  0.5820E-3  -.2253E-1
  2.052     0.6084E-3  -.2172E-1  0.5851E-3  -.2248E-1
  2.062     0.6117E-3  -.2165E-1  0.5883E-3  -.2242E-1
  2.072     0.6150E-3  -.2159E-1  0.5915E-3  -.2236E-1
  2.082     0.6183E-3  -.2153E-1  0.5946E-3  -.2230E-1
  2.092     0.6216E-3  -.2147E-1  0.5978E-3  -.2224E-1
  2.102     0.6249E-3  -.2141E-1  0.6010E-3  -.2218E-1
  2.112     0.6282E-3  -.2134E-1  0.6042E-3  -.2212E-1
  2.122     0.6316E-3  -.2128E-1  0.6074E-3  -.2206E-1
  2.132     0.6349E-3  -.2122E-1  0.6105E-3  -.2200E-1
  2.142     0.6382E-3  -.2115E-1  0.6138E-3  -.2194E-1
  2.152     0.6416E-3  -.2109E-1  0.6170E-3  -.2187E-1
  2.162     0.6449E-3  -.2103E-1  0.6202E-3  -.2181E-1
  2.172     0.6483E-3  -.2096E-1  0.6234E-3  -.2175E-1
  2.182     0.6517E-3  -.2090E-1  0.6266E-3  -.2169E-1
  2.192     0.6550E-3  -.2083E-1  0.6299E-3  -.2162E-1
  2.202     0.6584E-3  -.2077E-1  0.6331E-3  -.2156E-1
  2.212     0.6618E-3  -.2070E-1  0.6364E-3  -.2150E-1
  2.222     0.6652E-3  -.2063E-1  0.6396E-3  -.2143E-1
  2.232     0.6686E-3  -.2057E-1  0.6429E-3  -.2137E-1
  2.242     0.6720E-3  -.2050E-1  0.6462E-3  -.2131E-1
  2.252     0.6754E-3  -.2043E-1  0.6494E-3  -.2124E-1
  2.262     0.6789E-3  -.2036E-1  0.6527E-3  -.2118E-1
  2.272     0.6823E-3  -.2030E-1  0.6560E-3  -.2111E-1
  2.282     0.6857E-3  -.2023E-1  0.6593E-3  -.2104E-1
  2.292     0.6892E-3  -.2016E-1  0.6627E-3  -.2098E-1
  2.302     0.6927E-3  -.2009E-1  0.6660E-3  -.2091E-1
  2.312     0.6961E-3  -.2002E-1  0.6693E-3  -.2084E-1
  2.322     0.6996E-3  -.1995E-1  0.6726E-3  -.2078E-1
  2.332     0.7031E-3  -.1988E-1  0.6760E-3  -.2071E-1
  2.342     0.7066E-3  -.1981E-1  0.6793E-3  -.2064E-1
  2.352     0.7101E-3  -.1974E-1  0.6827E-3  -.2057E-1
  2.362     0.7136E-3  -.1967E-1  0.6861E-3  -.2051E-1
  2.372     0.7171E-3  -.1960E-1  0.6895E-3  -.2044E-1
  2.382     0.7207E-3  -.1952E-1  0.6929E-3  -.2037E-1
  2.392     0.7242E-3  -.1945E-1  0.6963E-3  -.2030E-1
  2.402     0.7278E-3  -.1938E-1  0.6997E-3  -.2023E-1
  2.412     0.7313E-3  -.1931E-1  0.7031E-3  -.2016E-1
  2.422     0.7349E-3  -.1923E-1  0.7065E-3  -.2009E-1
  2.432     0.7385E-3  -.1916E-1  0.7100E-3  -.2002E-1
  2.442     0.7421E-3  -.1908E-1  0.7134E-3  -.1995E-1
  2.452     0.7457E-3  -.1901E-1  0.7169E-3  -.1987E-1
  2.462     0.7493E-3  -.1894E-1  0.7204E-3  -.1980E-1
  2.472     0.7529E-3  -.1886E-1  0.7238E-3  -.1973E-1
  2.482     0.7565E-3  -.1878E-1  0.7273E-3  -.1966E-1
  2.492     0.7602E-3  -.1871E-1  0.7308E-3  -.1958E-1
  2.503     0.7638E-3  -.1863E-1  0.7343E-3  -.1951E-1
  2.513     0.7675E-3  -.1856E-1  0.7379E-3  -.1944E-1
  2.523     0.7712E-3  -.1848E-1  0.7414E-3  -.1936E-1
  2.533     0.7749E-3  -.1840E-1  0.7450E-3  -.1929E-1
  2.543     0.7786E-3  -.1832E-1  0.7485E-3  -.1921E-1
  2.553     0.7823E-3  -.1825E-1  0.7521E-3  -.1914E-1
  2.563     0.7860E-3  -.1817E-1  0.7557E-3  -.1906E-1
  2.573     0.7898E-3  -.1809E-1  0.7593E-3  -.1899E-1
  2.583     0.7935E-3  -.1801E-1  0.7629E-3  -.1891E-1
  2.593     0.7973E-3  -.1793E-1  0.7665E-3  -.1884E-1
  2.603     0.8011E-3  -.1785E-1  0.7702E-3  -.1876E-1
  2.613     0.8049E-3  -.1777E-1  0.7738E-3  -.1868E-1
  2.623     0.8087E-3  -.1769E-1  0.7775E-3  -.1860E-1
  2.633     0.8125E-3  -.1761E-1  0.7812E-3  -.1853E-1
  2.643     0.8164E-3  -.1753E-1  0.7849E-3  -.1845E-1
  2.653     0.8202E-3  -.1744E-1  0.7886E-3  -.1837E-1
  2.663     0.8241E-3  -.1736E-1  0.7923E-3  -.1829E-1
  2.673     0.8280E-3  -.1728E-1  0.7961E-3  -.1821E-1
  2.683     0.8319E-3  -.1720E-1  0.7998E-3  -.1813E-1
  2.693     0.8358E-3  -.1711E-1  0.8036E-3  -.1805E-1
  2.703     0.8397E-3  -.1703E-1  0.8074E-3  -.1797E-1
  2.713     0.8437E-3  -.1695E-1  0.8112E-3  -.1789E-1
  2.723     0.8476E-3  -.1686E-1  0.8150E-3  -.1781E-1
  2.733     0.8516E-3  -.1678E-1  0.8188E-3  -.1773E-1
  2.743     0.8556E-3  -.1669E-1  0.8227E-3  -.1764E-1
  2.753     0.8596E-3  -.1660E-1  0.8266E-3  -.1756E-1
  2.763     0.8637E-3  -.1652E-1  0.8305E-3  -.1748E-1
  2.773     0.8677E-3  -.1643E-1  0.8344E-3  -.1740E-1
  2.783     0.8718E-3  -.1634E-1  0.8383E-3  -.1731E-1
  2.793     0.8759E-3  -.1626E-1  0.8422E-3  -.1723E-1
  2.803     0.8800E-3  -.1617E-1  0.8462E-3  -.1714E-1
  2.813     0.8841E-3  -.1608E-1  0.8502E-3  -.1706E-1
  2.823     0.8883E-3  -.1599E-1  0.8542E-3  -.1697E-1
  2.833     0.8924E-3  -.1590E-1  0.8582E-3  -.1689E-1
  2.843     0.8966E-3  -.1581E-1  0.8623E-3  -.1680E-1
  2.853     0.9008E-3  -.1572E-1  0.8664E-3  -.1671E-1
  2.863     0.9051E-3  -.1563E-1  0.8705E-3  -.1663E-1
  2.873     0.9093E-3  -.1554E-1  0.8746E-3  -.1654E-1
  2.883     0.9136E-3  -.1545E-1  0.8787E-3  -.1645E-1
  2.893     0.9179E-3  -.1536E-1  0.8829E-3  -.1636E-1
  2.903     0.9223E-3  -.1527E-1  0.8871E-3  -.1628E-1
  2.913     0.9266E-3  -.1518E-1  0.8913E-3  -.1619E-1
  2.923     0.9310E-3  -.1508E-1  0.8955E-3  -.1610E-1
  2.933     0.9354E-3  -.1499E-1  0.8998E-3  -.1601E-1
  2.943     0.9398E-3  -.1490E-1  0.9041E-3  -.1592E-1
  2.953     0.9443E-3  -.1480E-1  0.9084E-3  -.1583E-1
  2.963     0.9488E-3  -.1471E-1  0.9127E-3  -.1574E-1
  2.973     0.9533E-3  -.1461E-1  0.9171E-3  -.1564E-1
  2.983     0.9578E-3  -.1452E-1  0.9215E-3  -.1555E-1
  2.993     0.9624E-3  -.1442E-1  0.9259E-3  -.1546E-1
  3.003     0.9670E-3  -.1432E-1  0.9304E-3  -.1537E-1
  3.013     0.9716E-3  -.1423E-1  0.9349E-3  -.1527E-1
  3.023     0.9763E-3  -.1413E-1  0.9394E-3  -.1518E-1
  3.033     0.9810E-3  -.1403E-1  0.9440E-3  -.1509E-1
  3.043     0.9857E-3  -.1393E-1  0.9486E-3  -.1499E-1
  3.053     0.9905E-3  -.1383E-1  0.9532E-3  -.1490E-1
  3.063     0.9953E-3  -.1374E-1  0.9579E-3  -.1480E-1
  3.073     0.1000E-2  -.1364E-1  0.9626E-3  -.1471E-1
  3.083     0.1005E-2  -.1354E-1  0.9673E-3  -.1461E-1
  3.093     0.1010E-2  -.1343E-1  0.9721E-3  -.1451E-1
  3.103     0.1015E-2  -.1333E-1  0.9769E-3  -.1441E-1
  3.113     0.1020E-2  -.1323E-1  0.9818E-3  -.1432E-1
  3.123     0.1025E-2  -.1313E-1  0.9866E-3  -.1422E-1
  3.133     0.1030E-2  -.1303E-1  0.9916E-3  -.1412E-1
  3.143     0.1035E-2  -.1292E-1  0.9966E-3  -.1402E-1
  3.153     0.1040E-2  -.1282E-1  0.1002E-2  -.1392E-1
  3.163     0.1045E-2  -.1272E-1  0.1007E-2  -.1382E-1
  3.173     0.1051E-2  -.1261E-1  0.1012E-2  -.1372E-1
  3.183     0.1056E-2  -.1251E-1  0.1017E-2  -.1362E-1
  3.193     0.1061E-2  -.1240E-1  0.1022E-2  -.1352E-1
  3.203     0.1067E-2  -.1229E-1  0.1027E-2  -.1341E-1
  3.213     0.1072E-2  -.1219E-1  0.1033E-2  -.1331E-1
  3.223     0.1078E-2  -.1208E-1  0.1038E-2  -.1321E-1
  3.233     0.1083E-2  -.1197E-1  0.1044E-2  -.1310E-1
  3.243     0.1089E-2  -.1186E-1  0.1049E-2  -.1300E-1
  3.253     0.1095E-2  -.1175E-1  0.1055E-2  -.1289E-1
  3.263     0.1100E-2  -.1164E-1  0.1060E-2  -.1279E-1
  3.273     0.1106E-2  -.1153E-1  0.1066E-2  -.1268E-1
  3.283     0.1112E-2  -.1142E-1  0.1072E-2  -.1257E-1
  3.293     0.1118E-2  -.1131E-1  0.1078E-2  -.1247E-1
  3.303     0.1124E-2  -.1120E-1  0.1083E-2  -.1236E-1
  3.313     0.1130E-2  -.1109E-1  0.1089E-2  -.1225E-1
  3.323     0.1136E-2  -.1097E-1  0.1095E-2  -.1214E-1
  3.333     0.1142E-2  -.1086E-1  0.1102E-2  -.1203E-1
  3.343     0.1149E-2  -.1075E-1  0.1108E-2  -.1192E-1
  3.353     0.1155E-2  -.1063E-1  0.1114E-2  -.1181E-1
  3.363     0.1162E-2  -.1052E-1  0.1120E-2  -.1170E-1
  3.373     0.1168E-2  -.1040E-1  0.1127E-2  -.1159E-1
  3.383     0.1175E-2  -.1028E-1  0.1133E-2  -.1147E-1
  3.393     0.1182E-2  -.1016E-1  0.1140E-2  -.1136E-1
  3.403     0.1189E-2  -.1005E-1  0.1147E-2  -.1125E-1
  3.413     0.1196E-2  -.9927E-2  0.1154E-2  -.1113E-1
  3.423     0.1203E-2  -.9807E-2  0.1161E-2  -.1102E-1
  3.433     0.1210E-2  -.9687E-2  0.1168E-2  -.1090E-1
  3.443     0.1218E-2  -.9566E-2  0.1175E-2  -.1078E-1
  3.453     0.1225E-2  -.9444E-2  0.1182E-2  -.1067E-1
  3.463     0.1233E-2  -.9322E-2  0.1190E-2  -.1055E-1
  3.473     0.1240E-2  -.9198E-2  0.1197E-2  -.1043E-1
  3.483     0.1248E-2  -.9074E-2  0.1205E-2  -.1031E-1
  3.493     0.1257E-2  -.8950E-2  0.1213E-2  -.1019E-1
  3.504     0.1265E-2  -.8824E-2  0.1221E-2  -.1007E-1
  3.514     0.1273E-2  -.8698E-2  0.1229E-2  -.9945E-2
  3.524     0.1282E-2  -.8570E-2  0.1238E-2  -.9823E-2
  3.534     0.1291E-2  -.8442E-2  0.1246E-2  -.9699E-2
  3.544     0.1300E-2  -.8313E-2  0.1255E-2  -.9574E-2
  3.554     0.1309E-2  -.8183E-2  0.1264E-2  -.9449E-2
  3.564     0.1318E-2  -.8053E-2  0.1273E-2  -.9323E-2
  3.574     0.1328E-2  -.7921E-2  0.1283E-2  -.9196E-2
  3.584     0.1338E-2  -.7789E-2  0.1292E-2  -.9068E-2
  3.594     0.1348E-2  -.7655E-2  0.1302E-2  -.8939E-2
  3.604     0.1359E-2  -.7521E-2  0.1312E-2  -.8809E-2
  3.614     0.1369E-2  -.7385E-2  0.1323E-2  -.8678E-2
  3.624     0.1380E-2  -.7249E-2  0.1333E-2  -.8546E-2
  3.634     0.1392E-2  -.7111E-2  0.1344E-2  -.8413E-2
  3.644     0.1404E-2  -.6973E-2  0.1356E-2  -.8279E-2
  3.654     0.1416E-2  -.6833E-2  0.1367E-2  -.8144E-2
  3.664     0.1429E-2  -.6692E-2  0.1379E-2  -.8008E-2
  3.674     0.1442E-2  -.6550E-2  0.1392E-2  -.7871E-2
  3.684     0.1455E-2  -.6407E-2  0.1405E-2  -.7732E-2
  3.694     0.1469E-2  -.6263E-2  0.1418E-2  -.7593E-2
  3.704     0.1484E-2  -.6117E-2  0.1432E-2  -.7452E-2
  3.714     0.1499E-2  -.5970E-2  0.1447E-2  -.7310E-2
  3.724     0.1515E-2  -.5821E-2  0.1462E-2  -.7167E-2
  3.734     0.1532E-2  -.5672E-2  0.1477E-2  -.7022E-2
  3.744     0.1550E-2  -.5520E-2  0.1494E-2  -.6876E-2
  3.754     0.1568E-2  -.5368E-2  0.1511E-2  -.6728E-2
  3.764     0.1587E-2  -.5213E-2  0.1529E-2  -.6579E-2
  3.774     0.1607E-2  -.5057E-2  0.1547E-2  -.6429E-2
  3.784     0.1629E-2  -.4900E-2  0.1567E-2  -.6277E-2
  3.794     0.1651E-2  -.4741E-2  0.1588E-2  -.6123E-2
  3.804     0.1675E-2  -.4580E-2  0.1610E-2  -.5968E-2
  3.814     0.1701E-2  -.4417E-2  0.1633E-2  -.5811E-2
  3.824     0.1728E-2  -.4252E-2  0.1658E-2  -.5652E-2
  3.834     0.1757E-2  -.4085E-2  0.1684E-2  -.5491E-2
  3.844     0.1788E-2  -.3917E-2  0.1713E-2  -.5329E-2
  3.854     0.1822E-2  -.3746E-2  0.1743E-2  -.5165E-2
  3.864     0.1858E-2  -.3574E-2  0.1775E-2  -.4999E-2
  3.874     0.1897E-2  -.3399E-2  0.1810E-2  -.4831E-2
  3.884     0.1939E-2  -.3222E-2  0.1848E-2  -.4661E-2
  3.894     0.1985E-2  -.3044E-2  0.1888E-2  -.4489E-2
  3.904     0.2035E-2  -.2863E-2  0.1933E-2  -.4316E-2
  3.914     0.2089E-2  -.2681E-2  0.1981E-2  -.4141E-2
  3.924     0.2149E-2  -.2497E-2  0.2034E-2  -.3966E-2
  3.934     0.2214E-2  -.2312E-2  0.2091E-2  -.3789E-2
  3.944     0.2285E-2  -.2127E-2  0.2154E-2  -.3612E-2
  3.954     0.2363E-2  -.1941E-2  0.2223E-2  -.3435E-2
  3.964     0.2449E-2  -.1755E-2  0.2299E-2  -.3260E-2
  3.974     0.2542E-2  -.1570E-2  0.2381E-2  -.3086E-2
  3.984     0.2645E-2  -.1387E-2  0.2470E-2  -.2916E-2
  3.994     0.2757E-2  -.1206E-2  0.2567E-2  -.2751E-2
  4.004     0.2881E-2  -.1029E-2  0.2671E-2  -.2592E-2
  4.014     0.3016E-2  -.8589E-3  0.2782E-2  -.2441E-2
  4.024     0.3165E-2  -.6974E-3  0.2898E-2  -.2302E-2
  4.034     0.3328E-2  -.5485E-3  0.3019E-2  -.2176E-2
  4.044     0.3503E-2  -.4169E-3  0.3141E-2  -.2065E-2
  4.054     0.3691E-2  -.3080E-3  0.3261E-2  -.1973E-2
  4.064     0.3886E-2  -.2277E-3  0.3373E-2  -.1899E-2
  4.074     0.4082E-2  -.1812E-3  0.3471E-2  -.1843E-2
  4.084     0.4270E-2  -.1725E-3  0.3550E-2  -.1802E-2
  4.094     0.4439E-2  -.2022E-3  0.3603E-2  -.1770E-2
  4.104     0.4575E-2  -.2666E-3  0.3628E-2  -.1739E-2
  4.114     0.4667E-2  -.3566E-3  0.3625E-2  -.1701E-2
  4.124     0.4708E-2  -.4590E-3  0.3597E-2  -.1647E-2
  4.134     0.4695E-2  -.5578E-3  0.3551E-2  -.1573E-2
  4.144     0.4633E-2  -.6377E-3  0.3492E-2  -.1474E-2
  4.154     0.4530E-2  -.6868E-3  0.3429E-2  -.1350E-2
  4.164     0.4399E-2  -.6979E-3  0.3366E-2  -.1204E-2
  4.174     0.4250E-2  -.6686E-3  0.3308E-2  -.1038E-2
  4.184     0.4095E-2  -.6004E-3  0.3257E-2  -.8547E-3
  4.194     0.3942E-2  -.4969E-3  0.3215E-2  -.6577E-3
  4.204     0.3797E-2  -.3631E-3  0.3181E-2  -.4495E-3
  4.214     0.3662E-2  -.2042E-3  0.3157E-2  -.2320E-3
  4.224     0.3540E-2  -.2479E-4  0.3140E-2  -.6678E-5
  4.234     0.3432E-2  0.1708E-3  0.3130E-2  0.2258E-3
  4.244     0.3338E-2  0.3790E-3  0.3128E-2  0.4650E-3
  4.254     0.3256E-2  0.5972E-3  0.3132E-2  0.7107E-3
  4.264     0.3186E-2  0.8231E-3  0.3143E-2  0.9630E-3
  4.274     0.3126E-2  0.1055E-2  0.3161E-2  0.1222E-2
  4.284     0.3077E-2  0.1293E-2  0.3186E-2  0.1488E-2
  4.294     0.3036E-2  0.1535E-2  0.3218E-2  0.1760E-2
  4.304     0.3003E-2  0.1782E-2  0.3257E-2  0.2040E-2
  4.314     0.2978E-2  0.2032E-2  0.3304E-2  0.2326E-2
  4.324     0.2960E-2  0.2287E-2  0.3360E-2  0.2619E-2
  4.334     0.2950E-2  0.2544E-2  0.3425E-2  0.2919E-2
  4.344     0.2946E-2  0.2806E-2  0.3498E-2  0.3226E-2
  4.354     0.2948E-2  0.3070E-2  0.3581E-2  0.3539E-2
  4.364     0.2956E-2  0.3338E-2  0.3675E-2  0.3861E-2
  4.374     0.2971E-2  0.3609E-2  0.3779E-2  0.4190E-2
  4.384     0.2992E-2  0.3883E-2  0.3895E-2  0.4527E-2
  4.394     0.3018E-2  0.4161E-2  0.4023E-2  0.4872E-2
  4.404     0.3050E-2  0.4442E-2  0.4166E-2  0.5226E-2
  4.414     0.3087E-2  0.4727E-2  0.4323E-2  0.5589E-2
  4.424     0.3131E-2  0.5016E-2  0.4496E-2  0.5962E-2
  4.434     0.3180E-2  0.5310E-2  0.4688E-2  0.6345E-2
  4.444     0.3236E-2  0.5608E-2  0.4901E-2  0.6738E-2
  4.454     0.3298E-2  0.5910E-2  0.5136E-2  0.7142E-2
  4.464     0.3366E-2  0.6218E-2  0.5396E-2  0.7556E-2
  4.474     0.3442E-2  0.6532E-2  0.5686E-2  0.7980E-2
  4.484     0.3525E-2  0.6851E-2  0.6008E-2  0.8415E-2
  4.494     0.3617E-2  0.7177E-2  0.6367E-2  0.8859E-2
  4.505     0.3717E-2  0.7509E-2  0.6768E-2  0.9312E-2
  4.515     0.3827E-2  0.7848E-2  0.7217E-2  0.9772E-2
  4.525     0.3948E-2  0.8195E-2  0.7719E-2  0.1023E-1
  4.535     0.4080E-2  0.8550E-2  0.8284E-2  0.1070E-1
  4.545     0.4225E-2  0.8913E-2  0.8919E-2  0.1116E-1
  4.555     0.4384E-2  0.9284E-2  0.9633E-2  0.1160E-1
  4.565     0.4560E-2  0.9665E-2  0.1044E-1  0.1202E-1
    4.5746     0.0048     0.0101     0.0113     0.0124
    4.5846     0.0050     0.0105     0.0123     0.0127
    4.5946     0.0052     0.0109     0.0135     0.0130
    4.6046     0.0055     0.0113     0.0147     0.0131
    4.6146     0.0058     0.0117     0.0161     0.0131
    4.6246     0.0061     0.0121     0.0176     0.0129
    4.6346     0.0064     0.0126     0.0191     0.0124
    4.6446     0.0068     0.0130     0.0207     0.0116
    4.6547     0.0073     0.0135     0.0222     0.0105
    4.6647     0.0078     0.0139     0.0236     0.0091
    4.6747     0.0084     0.0144     0.0247     0.0073
    4.6847     0.0090     0.0148     0.0255     0.0053
  4.695     0.9696E-2  0.1521E-1  0.2580E-1  0.3140E-2
  4.705     0.1049E-1  0.1558E-1  0.2567E-1  0.9327E-3
  4.715     0.1137E-1  0.1589E-1  0.2507E-1  -.1159E-2
  4.725     0.1235E-1  0.1612E-1  0.2409E-1  -.3018E-2
  4.735     0.1343E-1  0.1625E-1  0.2282E-1  -.4563E-2
    4.7447     0.0146     0.0162     0.0214    -0.0058
    4.7548     0.0158     0.0161     0.0198    -0.0066
    4.7648     0.0171     0.0157     0.0183    -0.0072
    4.7748     0.0183     0.0151     0.0169    -0.0074
    4.7848     0.0195     0.0142     0.0155    -0.0075
    4.7948     0.0205     0.0131     0.0142    -0.0074
    4.8048     0.0213     0.0119     0.0131    -0.0072
    4.8148     0.0219     0.0104     0.0121    -0.0069
    4.8248     0.0221     0.0090     0.0112    -0.0065
    4.8348     0.0221     0.0076     0.0104    -0.0060
    4.8448     0.0218     0.0062     0.0097    -0.0055
    4.8549     0.0214     0.0051     0.0091    -0.0051
  4.865     0.2082E-1  0.4034E-2  0.8566E-2  -.4553E-2
  4.875     0.2019E-1  0.3137E-2  0.8103E-2  -.4050E-2
  4.885     0.1951E-1  0.2354E-2  0.7701E-2  -.3549E-2
  4.895     0.1878E-1  0.1667E-2  0.7354E-2  -.3055E-2
  4.905     0.1801E-1  0.1065E-2  0.7057E-2  -.2571E-2
  4.915     0.1719E-1  0.5522E-3  0.6805E-2  -.2100E-2
  4.925     0.1633E-1  0.1374E-3  0.6593E-2  -.1644E-2
  4.935     0.1542E-1  -.1663E-3  0.6416E-2  -.1206E-2
  4.945     0.1450E-1  -.3506E-3  0.6270E-2  -.7893E-3
  4.955     0.1359E-1  -.4146E-3  0.6149E-2  -.3959E-3
  4.965     0.1270E-1  -.3649E-3  0.6047E-2  -.2758E-4
  4.975     0.1185E-1  -.2143E-3  0.5956E-2  0.3149E-3
  4.985     0.1106E-1  0.2186E-4  0.5871E-2  0.6327E-3
  4.995     0.1033E-1  0.3272E-3  0.5783E-2  0.9291E-3
  5.005     0.9662E-2  0.6865E-3  0.5686E-2  0.1210E-2
  5.015     0.9061E-2  0.1086E-2  0.5577E-2  0.1482E-2
  5.025     0.8520E-2  0.1516E-2  0.5455E-2  0.1753E-2
  5.035     0.8037E-2  0.1965E-2  0.5323E-2  0.2030E-2
  5.045     0.7607E-2  0.2427E-2  0.5184E-2  0.2318E-2
  5.055     0.7225E-2  0.2897E-2  0.5043E-2  0.2619E-2
  5.065     0.6886E-2  0.3371E-2  0.4905E-2  0.2935E-2
  5.075     0.6587E-2  0.3844E-2  0.4774E-2  0.3263E-2
  5.085     0.6324E-2  0.4314E-2  0.4652E-2  0.3603E-2
  5.095     0.6093E-2  0.4781E-2  0.4542E-2  0.3951E-2
  5.105     0.5890E-2  0.5241E-2  0.4443E-2  0.4306E-2
  5.115     0.5714E-2  0.5694E-2  0.4356E-2  0.4667E-2
  5.125     0.5560E-2  0.6138E-2  0.4280E-2  0.5031E-2
  5.135     0.5427E-2  0.6573E-2  0.4216E-2  0.5398E-2
  5.145     0.5311E-2  0.6998E-2  0.4161E-2  0.5767E-2
  5.155     0.5209E-2  0.7412E-2  0.4117E-2  0.6137E-2
  5.165     0.5118E-2  0.7816E-2  0.4081E-2  0.6508E-2
  5.175     0.5035E-2  0.8211E-2  0.4054E-2  0.6880E-2
  5.185     0.4958E-2  0.8598E-2  0.4035E-2  0.7253E-2
  5.195     0.4884E-2  0.8979E-2  0.4023E-2  0.7627E-2
  5.205     0.4813E-2  0.9358E-2  0.4018E-2  0.8002E-2
  5.215     0.4743E-2  0.9735E-2  0.4020E-2  0.8379E-2
  5.225     0.4676E-2  0.1011E-1  0.4029E-2  0.8758E-2
  5.235     0.4612E-2  0.1049E-1  0.4044E-2  0.9138E-2
  5.245     0.4553E-2  0.1088E-1  0.4066E-2  0.9521E-2
  5.255     0.4500E-2  0.1127E-1  0.4093E-2  0.9907E-2
  5.265     0.4453E-2  0.1166E-1  0.4127E-2  0.1030E-1
  5.275     0.4413E-2  0.1205E-1  0.4168E-2  0.1069E-1
  5.285     0.4380E-2  0.1245E-1  0.4214E-2  0.1108E-1
  5.295     0.4354E-2  0.1285E-1  0.4268E-2  0.1148E-1
  5.305     0.4335E-2  0.1325E-1  0.4328E-2  0.1189E-1
  5.315     0.4322E-2  0.1365E-1  0.4395E-2  0.1230E-1
  5.325     0.4315E-2  0.1406E-1  0.4470E-2  0.1272E-1
  5.335     0.4315E-2  0.1447E-1  0.4553E-2  0.1314E-1
  5.345     0.4321E-2  0.1488E-1  0.4644E-2  0.1357E-1
  5.355     0.4332E-2  0.1529E-1  0.4744E-2  0.1401E-1
  5.365     0.4348E-2  0.1570E-1  0.4854E-2  0.1445E-1
  5.375     0.4370E-2  0.1612E-1  0.4973E-2  0.1490E-1
  5.385     0.4398E-2  0.1654E-1  0.5104E-2  0.1537E-1
  5.395     0.4430E-2  0.1696E-1  0.5247E-2  0.1584E-1
  5.405     0.4468E-2  0.1739E-1  0.5403E-2  0.1632E-1
  5.415     0.4511E-2  0.1782E-1  0.5573E-2  0.1681E-1
  5.425     0.4560E-2  0.1825E-1  0.5759E-2  0.1732E-1
  5.435     0.4613E-2  0.1869E-1  0.5962E-2  0.1784E-1
  5.445     0.4673E-2  0.1914E-1  0.6184E-2  0.1837E-1
  5.455     0.4738E-2  0.1959E-1  0.6427E-2  0.1892E-1
  5.465     0.4809E-2  0.2004E-1  0.6693E-2  0.1948E-1
  5.475     0.4886E-2  0.2051E-1  0.6985E-2  0.2006E-1
  5.485     0.4969E-2  0.2098E-1  0.7306E-2  0.2066E-1
  5.495     0.5059E-2  0.2146E-1  0.7659E-2  0.2127E-1
  5.506     0.5157E-2  0.2194E-1  0.8049E-2  0.2190E-1
  5.516     0.5261E-2  0.2243E-1  0.8480E-2  0.2255E-1
  5.526     0.5374E-2  0.2294E-1  0.8957E-2  0.2322E-1
  5.536     0.5496E-2  0.2345E-1  0.9486E-2  0.2390E-1
    5.5455     0.0056     0.0240     0.0101     0.0246
    5.5556     0.0058     0.0245     0.0107     0.0253
    5.5656     0.0059     0.0251     0.0115     0.0261
    5.5756     0.0061     0.0256     0.0123     0.0268
    5.5856     0.0063     0.0262     0.0132     0.0276
    5.5956     0.0064     0.0268     0.0142     0.0283
    5.6056     0.0066     0.0274     0.0154     0.0291
    5.6156     0.0069     0.0280     0.0167     0.0298
    5.6256     0.0071     0.0286     0.0182     0.0305
    5.6356     0.0073     0.0293     0.0198     0.0311
    5.6456     0.0076     0.0299     0.0217     0.0316
    5.6557     0.0079     0.0306     0.0238     0.0320
    5.6657     0.0082     0.0313     0.0261     0.0321
    5.6757     0.0086     0.0321     0.0286     0.0320
    5.6857     0.0090     0.0328     0.0313     0.0316
    5.6957     0.0094     0.0336     0.0342     0.0307
    5.7057     0.0098     0.0344     0.0372     0.0292
   5.71572    0.01034    0.03524    0.04007    0.02713
   5.72573    0.01088    0.03610    0.04274    0.02440
   5.73574    0.01148    0.03699    0.04499    0.02103
   5.74575    0.01213    0.03790    0.04660    0.01712
   5.75576    0.01286    0.03885    0.04740    0.01286
    5.7658     0.0137     0.0398     0.0473     0.0085
  5.776     0.1455E-1  0.4082E-1  0.4633E-1  0.4278E-2
  5.786     0.1554E-1  0.4185E-1  0.4458E-1  0.4650E-3
  5.796     0.1663E-1  0.4289E-1  0.4223E-1  -.2782E-2
  5.806     0.1786E-1  0.4395E-1  0.3949E-1  -.5380E-2
    5.8158     0.0192     0.0450     0.0366    -0.0073
    5.8258     0.0207     0.0461     0.0336    -0.0087
    5.8358     0.0224     0.0471     0.0307    -0.0095
    5.8458     0.0243     0.0481     0.0281    -0.0099
    5.8559     0.0264     0.0490     0.0256    -0.0099
    5.8659     0.0288     0.0499     0.0233    -0.0097
    5.8759     0.0314     0.0505     0.0213    -0.0093
    5.8859     0.0342     0.0510     0.0195    -0.0088
    5.8959     0.0372     0.0512     0.0178    -0.0082
    5.9059     0.0404     0.0511     0.0164    -0.0075
    5.9159     0.0438     0.0507     0.0151    -0.0067
    5.9259     0.0473     0.0498     0.0140    -0.0060
  5.936     0.5095E-1  0.4854E-1  0.1299E-1  -.5246E-2
  5.946     0.5458E-1  0.4681E-1  0.1209E-1  -.4495E-2
  5.956     0.5819E-1  0.4459E-1  0.1129E-1  -.3753E-2
  5.966     0.6173E-1  0.4183E-1  0.1057E-1  -.3025E-2
  5.976     0.6510E-1  0.3850E-1  0.9924E-2  -.2313E-2
  5.986     0.6822E-1  0.3453E-1  0.9346E-2  -.1620E-2
  5.996     0.7091E-1  0.2992E-1  0.8826E-2  -.9463E-3
  6.006     0.7299E-1  0.2469E-1  0.8355E-2  -.2927E-3
  6.016     0.7425E-1  0.1894E-1  0.7929E-2  0.3410E-3
  6.026     0.7453E-1  0.1287E-1  0.7541E-2  0.9551E-3
  6.036     0.7370E-1  0.6752E-2  0.7188E-2  0.1550E-2
  6.046     0.7177E-1  0.8842E-3  0.6866E-2  0.2127E-2
  6.056     0.6886E-1  -.4441E-2  0.6570E-2  0.2687E-2
  6.066     0.6517E-1  -.9007E-2  0.6299E-2  0.3231E-2
  6.076     0.6097E-1  -.1269E-1  0.6049E-2  0.3759E-2
  6.086     0.5652E-1  -.1548E-1  0.5819E-2  0.4273E-2
  6.096     0.5202E-1  -.1742E-1  0.5606E-2  0.4773E-2
  6.106     0.4765E-1  -.1862E-1  0.5409E-2  0.5260E-2
  6.116     0.4352E-1  -.1920E-1  0.5227E-2  0.5735E-2
  6.126     0.3969E-1  -.1929E-1  0.5059E-2  0.6198E-2
  6.136     0.3619E-1  -.1900E-1  0.4902E-2  0.6650E-2
  6.146     0.3303E-1  -.1841E-1  0.4757E-2  0.7092E-2
  6.156     0.3018E-1  -.1762E-1  0.4621E-2  0.7524E-2
  6.166     0.2764E-1  -.1668E-1  0.4495E-2  0.7946E-2
  6.176     0.2537E-1  -.1565E-1  0.4378E-2  0.8359E-2
  6.186     0.2335E-1  -.1456E-1  0.4268E-2  0.8764E-2
  6.196     0.2155E-1  -.1343E-1  0.4166E-2  0.9161E-2
  6.206     0.1994E-1  -.1230E-1  0.4070E-2  0.9550E-2
  6.216     0.1851E-1  -.1116E-1  0.3980E-2  0.9932E-2
  6.226     0.1723E-1  -.1005E-1  0.3896E-2  0.1031E-1
  6.236     0.1608E-1  -.8950E-2  0.3817E-2  0.1068E-1
  6.246     0.1505E-1  -.7880E-2  0.3743E-2  0.1104E-1
  6.256     0.1412E-1  -.6840E-2  0.3673E-2  0.1139E-1
  6.266     0.1328E-1  -.5830E-2  0.3608E-2  0.1174E-1
  6.276     0.1253E-1  -.4852E-2  0.3546E-2  0.1209E-1
  6.286     0.1184E-1  -.3906E-2  0.3487E-2  0.1243E-1
  6.296     0.1122E-1  -.2991E-2  0.3432E-2  0.1276E-1
  6.306     0.1065E-1  -.2107E-2  0.3380E-2  0.1309E-1
  6.316     0.1013E-1  -.1253E-2  0.3331E-2  0.1342E-1
  6.326     0.9660E-2  -.4265E-3  0.3284E-2  0.1374E-1
  6.336     0.9226E-2  0.3722E-3  0.3240E-2  0.1406E-1
  6.346     0.8828E-2  0.1145E-2  0.3198E-2  0.1438E-1
  6.356     0.8460E-2  0.1893E-2  0.3159E-2  0.1469E-1
  6.366     0.8121E-2  0.2618E-2  0.3121E-2  0.1499E-1
  6.376     0.7808E-2  0.3320E-2  0.3085E-2  0.1530E-1
  6.386     0.7518E-2  0.4002E-2  0.3052E-2  0.1560E-1
  6.396     0.7249E-2  0.4665E-2  0.3019E-2  0.1590E-1
  6.406     0.6999E-2  0.5308E-2  0.2989E-2  0.1619E-1
  6.416     0.6766E-2  0.5934E-2  0.2960E-2  0.1649E-1
  6.426     0.6550E-2  0.6544E-2  0.2932E-2  0.1678E-1
  6.436     0.6348E-2  0.7138E-2  0.2905E-2  0.1706E-1
  6.446     0.6160E-2  0.7716E-2  0.2880E-2  0.1735E-1
  6.456     0.5984E-2  0.8281E-2  0.2856E-2  0.1763E-1
  6.466     0.5819E-2  0.8832E-2  0.2833E-2  0.1791E-1
  6.476     0.5665E-2  0.9370E-2  0.2812E-2  0.1819E-1
  6.486     0.5520E-2  0.9896E-2  0.2791E-2  0.1847E-1
  6.496     0.5384E-2  0.1041E-1  0.2771E-2  0.1874E-1
  6.507     0.5256E-2  0.1091E-1  0.2752E-2  0.1902E-1
  6.517     0.5136E-2  0.1141E-1  0.2734E-2  0.1929E-1
  6.527     0.5022E-2  0.1189E-1  0.2717E-2  0.1956E-1
  6.537     0.4915E-2  0.1236E-1  0.2700E-2  0.1983E-1
  6.547     0.4814E-2  0.1283E-1  0.2685E-2  0.2010E-1
  6.557     0.4718E-2  0.1329E-1  0.2669E-2  0.2036E-1
  6.567     0.4627E-2  0.1373E-1  0.2655E-2  0.2063E-1
  6.577     0.4541E-2  0.1418E-1  0.2641E-2  0.2089E-1
  6.587     0.4459E-2  0.1461E-1  0.2628E-2  0.2115E-1
  6.597     0.4382E-2  0.1504E-1  0.2616E-2  0.2141E-1
  6.607     0.4308E-2  0.1546E-1  0.2604E-2  0.2167E-1
  6.617     0.4239E-2  0.1587E-1  0.2592E-2  0.2193E-1
  6.627     0.4172E-2  0.1628E-1  0.2581E-2  0.2219E-1
  6.637     0.4109E-2  0.1668E-1  0.2571E-2  0.2244E-1
  6.647     0.4049E-2  0.1708E-1  0.2561E-2  0.2270E-1
  6.657     0.3992E-2  0.1747E-1  0.2551E-2  0.2295E-1
  6.667     0.3938E-2  0.1786E-1  0.2542E-2  0.2321E-1
  6.677     0.3887E-2  0.1825E-1  0.2533E-2  0.2346E-1
  6.687     0.3837E-2  0.1862E-1  0.2525E-2  0.2371E-1
  6.697     0.3791E-2  0.1900E-1  0.2517E-2  0.2396E-1
  6.707     0.3746E-2  0.1937E-1  0.2510E-2  0.2421E-1
  6.717     0.3703E-2  0.1973E-1  0.2502E-2  0.2446E-1
  6.727     0.3662E-2  0.2010E-1  0.2495E-2  0.2471E-1
  6.737     0.3623E-2  0.2045E-1  0.2489E-2  0.2496E-1
  6.747     0.3586E-2  0.2081E-1  0.2482E-2  0.2521E-1
  6.757     0.3551E-2  0.2116E-1  0.2476E-2  0.2545E-1
  6.767     0.3517E-2  0.2151E-1  0.2471E-2  0.2570E-1
  6.777     0.3484E-2  0.2186E-1  0.2465E-2  0.2595E-1
  6.787     0.3453E-2  0.2220E-1  0.2460E-2  0.2619E-1
  6.797     0.3423E-2  0.2254E-1  0.2455E-2  0.2644E-1
  6.807     0.3395E-2  0.2287E-1  0.2451E-2  0.2668E-1
  6.817     0.3367E-2  0.2321E-1  0.2446E-2  0.2693E-1
  6.827     0.3341E-2  0.2354E-1  0.2442E-2  0.2717E-1
  6.837     0.3316E-2  0.2387E-1  0.2438E-2  0.2741E-1
  6.847     0.3292E-2  0.2420E-1  0.2434E-2  0.2766E-1
  6.857     0.3269E-2  0.2452E-1  0.2431E-2  0.2790E-1
  6.867     0.3247E-2  0.2485E-1  0.2427E-2  0.2814E-1
  6.877     0.3225E-2  0.2517E-1  0.2424E-2  0.2838E-1
  6.887     0.3205E-2  0.2549E-1  0.2421E-2  0.2863E-1
  6.897     0.3186E-2  0.2580E-1  0.2418E-2  0.2887E-1
  6.907     0.3167E-2  0.2612E-1  0.2416E-2  0.2911E-1
  6.917     0.3149E-2  0.2643E-1  0.2413E-2  0.2935E-1
  6.927     0.3132E-2  0.2674E-1  0.2411E-2  0.2959E-1
  6.937     0.3115E-2  0.2705E-1  0.2409E-2  0.2983E-1
  6.947     0.3099E-2  0.2736E-1  0.2407E-2  0.3007E-1
  6.957     0.3084E-2  0.2767E-1  0.2405E-2  0.3031E-1
  6.967     0.3069E-2  0.2798E-1  0.2403E-2  0.3055E-1
  6.977     0.3055E-2  0.2828E-1  0.2402E-2  0.3079E-1
  6.987     0.3042E-2  0.2858E-1  0.2400E-2  0.3103E-1
  6.997     0.3029E-2  0.2889E-1  0.2399E-2  0.3127E-1
  7.007     0.3016E-2  0.2919E-1  0.2398E-2  0.3151E-1
  7.017     0.3004E-2  0.2949E-1  0.2397E-2  0.3175E-1
  7.027     0.2993E-2  0.2978E-1  0.2396E-2  0.3199E-1
  7.037     0.2982E-2  0.3008E-1  0.2395E-2  0.3223E-1
  7.047     0.2971E-2  0.3038E-1  0.2394E-2  0.3247E-1
  7.057     0.2961E-2  0.3067E-1  0.2394E-2  0.3271E-1
  7.067     0.2951E-2  0.3097E-1  0.2393E-2  0.3295E-1
  7.077     0.2942E-2  0.3126E-1  0.2393E-2  0.3319E-1
  7.087     0.2933E-2  0.3156E-1  0.2392E-2  0.3343E-1
  7.097     0.2925E-2  0.3185E-1  0.2392E-2  0.3367E-1
  7.107     0.2917E-2  0.3214E-1  0.2392E-2  0.3390E-1
  7.117     0.2909E-2  0.3243E-1  0.2392E-2  0.3414E-1
  7.127     0.2901E-2  0.3272E-1  0.2392E-2  0.3438E-1
  7.137     0.2894E-2  0.3301E-1  0.2392E-2  0.3462E-1
  7.147     0.2887E-2  0.3330E-1  0.2393E-2  0.3486E-1
  7.157     0.2881E-2  0.3358E-1  0.2393E-2  0.3510E-1
  7.167     0.2875E-2  0.3387E-1  0.2393E-2  0.3534E-1
  7.177     0.2869E-2  0.3416E-1  0.2394E-2  0.3558E-1
  7.187     0.2863E-2  0.3444E-1  0.2395E-2  0.3582E-1
  7.197     0.2857E-2  0.3473E-1  0.2395E-2  0.3606E-1
  7.207     0.2852E-2  0.3501E-1  0.2396E-2  0.3630E-1
  7.217     0.2847E-2  0.3530E-1  0.2397E-2  0.3654E-1
  7.227     0.2843E-2  0.3558E-1  0.2398E-2  0.3678E-1
  7.237     0.2838E-2  0.3587E-1  0.2399E-2  0.3702E-1
  7.247     0.2834E-2  0.3615E-1  0.2400E-2  0.3726E-1
  7.257     0.2830E-2  0.3643E-1  0.2401E-2  0.3750E-1
  7.267     0.2826E-2  0.3671E-1  0.2402E-2  0.3774E-1
  7.277     0.2823E-2  0.3700E-1  0.2403E-2  0.3798E-1
  7.287     0.2819E-2  0.3728E-1  0.2405E-2  0.3822E-1
  7.297     0.2816E-2  0.3756E-1  0.2406E-2  0.3846E-1
  7.307     0.2813E-2  0.3784E-1  0.2407E-2  0.3870E-1
  7.317     0.2811E-2  0.3812E-1  0.2409E-2  0.3894E-1
  7.327     0.2808E-2  0.3840E-1  0.2410E-2  0.3918E-1
  7.337     0.2806E-2  0.3868E-1  0.2412E-2  0.3942E-1
  7.347     0.2803E-2  0.3896E-1  0.2414E-2  0.3966E-1
  7.357     0.2801E-2  0.3924E-1  0.2415E-2  0.3990E-1
  7.367     0.2799E-2  0.3952E-1  0.2417E-2  0.4015E-1
  7.377     0.2798E-2  0.3980E-1  0.2419E-2  0.4039E-1
  7.387     0.2796E-2  0.4008E-1  0.2421E-2  0.4063E-1
  7.397     0.2794E-2  0.4036E-1  0.2423E-2  0.4087E-1
  7.407     0.2793E-2  0.4064E-1  0.2425E-2  0.4112E-1
  7.417     0.2792E-2  0.4092E-1  0.2427E-2  0.4136E-1
  7.427     0.2791E-2  0.4120E-1  0.2429E-2  0.4160E-1
  7.437     0.2790E-2  0.4148E-1  0.2431E-2  0.4184E-1
  7.447     0.2789E-2  0.4175E-1  0.2433E-2  0.4209E-1
  7.457     0.2789E-2  0.4203E-1  0.2435E-2  0.4233E-1
  7.467     0.2788E-2  0.4231E-1  0.2437E-2  0.4257E-1
  7.477     0.2788E-2  0.4259E-1  0.2440E-2  0.4282E-1
  7.487     0.2788E-2  0.4287E-1  0.2442E-2  0.4306E-1
  7.497     0.2788E-2  0.4315E-1  0.2444E-2  0.4331E-1
  7.508     0.2788E-2  0.4343E-1  0.2447E-2  0.4355E-1
  7.518     0.2788E-2  0.4371E-1  0.2449E-2  0.4380E-1
  7.528     0.2788E-2  0.4398E-1  0.2452E-2  0.4404E-1
  7.538     0.2788E-2  0.4426E-1  0.2454E-2  0.4429E-1
  7.548     0.2789E-2  0.4454E-1  0.2457E-2  0.4453E-1
  7.558     0.2789E-2  0.4482E-1  0.2459E-2  0.4478E-1
  7.568     0.2790E-2  0.4510E-1  0.2462E-2  0.4502E-1
  7.578     0.2791E-2  0.4538E-1  0.2465E-2  0.4527E-1
  7.588     0.2791E-2  0.4566E-1  0.2467E-2  0.4552E-1
  7.598     0.2792E-2  0.4594E-1  0.2470E-2  0.4576E-1
  7.608     0.2793E-2  0.4622E-1  0.2473E-2  0.4601E-1
  7.618     0.2795E-2  0.4650E-1  0.2476E-2  0.4626E-1
  7.628     0.2796E-2  0.4677E-1  0.2479E-2  0.4651E-1
  7.638     0.2797E-2  0.4705E-1  0.2482E-2  0.4676E-1
  7.648     0.2799E-2  0.4733E-1  0.2485E-2  0.4700E-1
  7.658     0.2800E-2  0.4761E-1  0.2488E-2  0.4725E-1
  7.668     0.2802E-2  0.4789E-1  0.2491E-2  0.4750E-1
  7.678     0.2803E-2  0.4817E-1  0.2494E-2  0.4775E-1
  7.688     0.2805E-2  0.4845E-1  0.2497E-2  0.4800E-1
  7.698     0.2807E-2  0.4874E-1  0.2500E-2  0.4825E-1
  7.708     0.2809E-2  0.4902E-1  0.2503E-2  0.4850E-1
  7.718     0.2811E-2  0.4930E-1  0.2506E-2  0.4875E-1
  7.728     0.2813E-2  0.4958E-1  0.2509E-2  0.4900E-1
  7.738     0.2815E-2  0.4986E-1  0.2513E-2  0.4925E-1
  7.748     0.2817E-2  0.5014E-1  0.2516E-2  0.4951E-1
  7.758     0.2820E-2  0.5042E-1  0.2519E-2  0.4976E-1
  7.768     0.2822E-2  0.5071E-1  0.2523E-2  0.5001E-1
  7.778     0.2824E-2  0.5099E-1  0.2526E-2  0.5026E-1
  7.788     0.2827E-2  0.5127E-1  0.2529E-2  0.5052E-1
  7.798     0.2830E-2  0.5155E-1  0.2533E-2  0.5077E-1
  7.808     0.2832E-2  0.5184E-1  0.2536E-2  0.5102E-1
  7.818     0.2835E-2  0.5212E-1  0.2540E-2  0.5128E-1
  7.828     0.2838E-2  0.5240E-1  0.2543E-2  0.5153E-1
  7.838     0.2841E-2  0.5269E-1  0.2547E-2  0.5178E-1
  7.848     0.2844E-2  0.5297E-1  0.2550E-2  0.5204E-1
  7.858     0.2847E-2  0.5326E-1  0.2554E-2  0.5230E-1
  7.868     0.2850E-2  0.5354E-1  0.2558E-2  0.5255E-1
  7.878     0.2853E-2  0.5383E-1  0.2561E-2  0.5281E-1
  7.888     0.2856E-2  0.5411E-1  0.2565E-2  0.5306E-1
  7.898     0.2859E-2  0.5440E-1  0.2569E-2  0.5332E-1
  7.908     0.2863E-2  0.5468E-1  0.2572E-2  0.5358E-1
  7.918     0.2866E-2  0.5497E-1  0.2576E-2  0.5384E-1
  7.928     0.2870E-2  0.5526E-1  0.2580E-2  0.5409E-1
  7.938     0.2873E-2  0.5554E-1  0.2584E-2  0.5435E-1
  7.948     0.2877E-2  0.5583E-1  0.2588E-2  0.5461E-1
  7.958     0.2881E-2  0.5612E-1  0.2592E-2  0.5487E-1
  7.968     0.2884E-2  0.5641E-1  0.2596E-2  0.5513E-1
  7.978     0.2888E-2  0.5670E-1  0.2600E-2  0.5539E-1
  7.988     0.2892E-2  0.5699E-1  0.2604E-2  0.5565E-1
  7.998     0.2896E-2  0.5728E-1  0.2608E-2  0.5591E-1
  8.008     0.2900E-2  0.5757E-1  0.2612E-2  0.5617E-1
  8.018     0.2904E-2  0.5786E-1  0.2616E-2  0.5643E-1
  8.028     0.2908E-2  0.5815E-1  0.2620E-2  0.5669E-1
  8.038     0.2912E-2  0.5844E-1  0.2624E-2  0.5696E-1
  8.048     0.2916E-2  0.5873E-1  0.2628E-2  0.5722E-1
  8.058     0.2921E-2  0.5902E-1  0.2632E-2  0.5748E-1
  8.068     0.2925E-2  0.5931E-1  0.2637E-2  0.5775E-1
  8.078     0.2930E-2  0.5961E-1  0.2641E-2  0.5801E-1
  8.088     0.2934E-2  0.5990E-1  0.2645E-2  0.5827E-1
  8.098     0.2939E-2  0.6019E-1  0.2649E-2  0.5854E-1
  8.108     0.2943E-2  0.6049E-1  0.2654E-2  0.5881E-1
  8.118     0.2948E-2  0.6078E-1  0.2658E-2  0.5907E-1
  8.128     0.2953E-2  0.6108E-1  0.2662E-2  0.5934E-1
  8.138     0.2957E-2  0.6137E-1  0.2667E-2  0.5960E-1
  8.148     0.2962E-2  0.6167E-1  0.2671E-2  0.5987E-1
  8.158     0.2967E-2  0.6197E-1  0.2676E-2  0.6014E-1
  8.168     0.2972E-2  0.6226E-1  0.2680E-2  0.6041E-1
  8.178     0.2977E-2  0.6256E-1  0.2685E-2  0.6067E-1
  8.188     0.2982E-2  0.6286E-1  0.2690E-2  0.6094E-1
  8.198     0.2987E-2  0.6316E-1  0.2694E-2  0.6121E-1
  8.208     0.2993E-2  0.6346E-1  0.2699E-2  0.6148E-1
  8.218     0.2998E-2  0.6376E-1  0.2704E-2  0.6175E-1
  8.228     0.3003E-2  0.6406E-1  0.2708E-2  0.6202E-1
  8.238     0.3009E-2  0.6436E-1  0.2713E-2  0.6230E-1
  8.248     0.3014E-2  0.6466E-1  0.2718E-2  0.6257E-1
  8.258     0.3020E-2  0.6496E-1  0.2723E-2  0.6284E-1
  8.268     0.3025E-2  0.6526E-1  0.2727E-2  0.6311E-1
  8.278     0.3031E-2  0.6556E-1  0.2732E-2  0.6338E-1
  8.288     0.3037E-2  0.6587E-1  0.2737E-2  0.6366E-1
  8.298     0.3043E-2  0.6617E-1  0.2742E-2  0.6393E-1
  8.308     0.3049E-2  0.6648E-1  0.2747E-2  0.6421E-1
  8.318     0.3055E-2  0.6678E-1  0.2752E-2  0.6448E-1
  8.328     0.3061E-2  0.6709E-1  0.2757E-2  0.6476E-1
  8.338     0.3067E-2  0.6739E-1  0.2762E-2  0.6503E-1
  8.348     0.3073E-2  0.6770E-1  0.2768E-2  0.6531E-1
  8.358     0.3079E-2  0.6801E-1  0.2773E-2  0.6559E-1
  8.368     0.3085E-2  0.6832E-1  0.2778E-2  0.6587E-1
  8.378     0.3092E-2  0.6863E-1  0.2783E-2  0.6614E-1
  8.388     0.3098E-2  0.6894E-1  0.2788E-2  0.6642E-1
  8.398     0.3105E-2  0.6925E-1  0.2794E-2  0.6670E-1
  8.408     0.3112E-2  0.6956E-1  0.2799E-2  0.6698E-1
  8.418     0.3118E-2  0.6987E-1  0.2805E-2  0.6726E-1
  8.428     0.3125E-2  0.7018E-1  0.2810E-2  0.6754E-1
  8.438     0.3132E-2  0.7049E-1  0.2816E-2  0.6782E-1
  8.448     0.3139E-2  0.7081E-1  0.2821E-2  0.6811E-1
  8.458     0.3146E-2  0.7112E-1  0.2827E-2  0.6839E-1
  8.468     0.3153E-2  0.7144E-1  0.2832E-2  0.6867E-1
  8.478     0.3160E-2  0.7175E-1  0.2838E-2  0.6896E-1
  8.488     0.3168E-2  0.7207E-1  0.2844E-2  0.6924E-1
  8.498     0.3175E-2  0.7239E-1  0.2849E-2  0.6952E-1
  8.509     0.3182E-2  0.7270E-1  0.2855E-2  0.6981E-1
  8.519     0.3190E-2  0.7302E-1  0.2861E-2  0.7010E-1
  8.529     0.3198E-2  0.7334E-1  0.2867E-2  0.7038E-1
  8.539     0.3205E-2  0.7366E-1  0.2873E-2  0.7067E-1
  8.549     0.3213E-2  0.7398E-1  0.2879E-2  0.7096E-1
  8.559     0.3221E-2  0.7430E-1  0.2885E-2  0.7125E-1
  8.569     0.3229E-2  0.7463E-1  0.2891E-2  0.7153E-1
  8.579     0.3238E-2  0.7495E-1  0.2897E-2  0.7182E-1
  8.589     0.3246E-2  0.7527E-1  0.2904E-2  0.7211E-1
  8.599     0.3254E-2  0.7560E-1  0.2910E-2  0.7240E-1
  8.609     0.3263E-2  0.7592E-1  0.2916E-2  0.7270E-1
  8.619     0.3271E-2  0.7625E-1  0.2923E-2  0.7299E-1
  8.629     0.3280E-2  0.7658E-1  0.2929E-2  0.7328E-1
  8.639     0.3289E-2  0.7691E-1  0.2936E-2  0.7357E-1
  8.649     0.3298E-2  0.7724E-1  0.2942E-2  0.7387E-1
  8.659     0.3307E-2  0.7757E-1  0.2949E-2  0.7416E-1
  8.669     0.3316E-2  0.7790E-1  0.2956E-2  0.7446E-1
  8.679     0.3325E-2  0.7823E-1  0.2963E-2  0.7475E-1
  8.689     0.3335E-2  0.7856E-1  0.2970E-2  0.7505E-1
  8.699     0.3345E-2  0.7890E-1  0.2977E-2  0.7535E-1
  8.709     0.3354E-2  0.7923E-1  0.2984E-2  0.7565E-1
  8.719     0.3364E-2  0.7957E-1  0.2991E-2  0.7594E-1
  8.729     0.3374E-2  0.7990E-1  0.2998E-2  0.7624E-1
  8.739     0.3384E-2  0.8024E-1  0.3005E-2  0.7654E-1
  8.749     0.3395E-2  0.8058E-1  0.3013E-2  0.7685E-1
  8.759     0.3405E-2  0.8092E-1  0.3020E-2  0.7715E-1
  8.769     0.3416E-2  0.8126E-1  0.3028E-2  0.7745E-1
  8.779     0.3427E-2  0.8160E-1  0.3035E-2  0.7775E-1
  8.789     0.3438E-2  0.8195E-1  0.3043E-2  0.7806E-1
  8.799     0.3449E-2  0.8229E-1  0.3051E-2  0.7836E-1
  8.809     0.3460E-2  0.8264E-1  0.3059E-2  0.7867E-1
  8.819     0.3472E-2  0.8298E-1  0.3067E-2  0.7897E-1
  8.829     0.3484E-2  0.8333E-1  0.3075E-2  0.7928E-1
  8.839     0.3496E-2  0.8368E-1  0.3083E-2  0.7959E-1
  8.849     0.3508E-2  0.8403E-1  0.3092E-2  0.7990E-1
  8.859     0.3520E-2  0.8438E-1  0.3100E-2  0.8021E-1
  8.869     0.3533E-2  0.8473E-1  0.3109E-2  0.8052E-1
  8.879     0.3546E-2  0.8508E-1  0.3118E-2  0.8083E-1
  8.889     0.3559E-2  0.8544E-1  0.3126E-2  0.8114E-1
  8.899     0.3572E-2  0.8579E-1  0.3135E-2  0.8145E-1
  8.909     0.3585E-2  0.8615E-1  0.3145E-2  0.8177E-1
  8.919     0.3599E-2  0.8651E-1  0.3154E-2  0.8208E-1
  8.929     0.3613E-2  0.8687E-1  0.3163E-2  0.8240E-1
  8.939     0.3628E-2  0.8723E-1  0.3173E-2  0.8271E-1
  8.949     0.3642E-2  0.8760E-1  0.3183E-2  0.8303E-1
  8.959     0.3657E-2  0.8796E-1  0.3193E-2  0.8335E-1
  8.969     0.3672E-2  0.8833E-1  0.3203E-2  0.8367E-1
  8.979     0.3688E-2  0.8869E-1  0.3213E-2  0.8399E-1
  8.989     0.3704E-2  0.8906E-1  0.3224E-2  0.8431E-1
  8.999     0.3720E-2  0.8943E-1  0.3235E-2  0.8463E-1
  9.009     0.3737E-2  0.8980E-1  0.3246E-2  0.8496E-1
  9.019     0.3753E-2  0.9018E-1  0.3257E-2  0.8528E-1
  9.029     0.3771E-2  0.9055E-1  0.3268E-2  0.8561E-1
  9.039     0.3789E-2  0.9093E-1  0.3280E-2  0.8593E-1
  9.049     0.3807E-2  0.9131E-1  0.3292E-2  0.8626E-1
  9.059     0.3825E-2  0.9169E-1  0.3304E-2  0.8659E-1
  9.069     0.3844E-2  0.9207E-1  0.3316E-2  0.8692E-1
  9.079     0.3864E-2  0.9246E-1  0.3329E-2  0.8725E-1
  9.089     0.3884E-2  0.9284E-1  0.3342E-2  0.8759E-1
  9.099     0.3904E-2  0.9323E-1  0.3355E-2  0.8792E-1
  9.109     0.3925E-2  0.9362E-1  0.3368E-2  0.8826E-1
  9.119     0.3947E-2  0.9401E-1  0.3382E-2  0.8859E-1
  9.129     0.3969E-2  0.9441E-1  0.3397E-2  0.8893E-1
  9.139     0.3991E-2  0.9480E-1  0.3411E-2  0.8927E-1
  9.149     0.4015E-2  0.9520E-1  0.3426E-2  0.8961E-1
  9.159     0.4039E-2  0.9560E-1  0.3442E-2  0.8995E-1
  9.169     0.4063E-2  0.9600E-1  0.3458E-2  0.9030E-1
  9.179     0.4089E-2  0.9641E-1  0.3474E-2  0.9064E-1
  9.189     0.4115E-2  0.9682E-1  0.3491E-2  0.9099E-1
  9.199     0.4142E-2  0.9723E-1  0.3508E-2  0.9134E-1
  9.209     0.4169E-2  0.9764E-1  0.3526E-2  0.9169E-1
  9.219     0.4198E-2  0.9806E-1  0.3544E-2  0.9204E-1
  9.229     0.4227E-2  0.9848E-1  0.3563E-2  0.9239E-1
  9.239     0.4258E-2  0.9890E-1  0.3583E-2  0.9275E-1
  9.249     0.4289E-2  0.9932E-1  0.3603E-2  0.9311E-1
  9.259     0.4322E-2  0.9975E-1  0.3624E-2  0.9347E-1
  9.269     0.4356E-2  0.1002     0.3646E-2  0.9383E-1
  9.279     0.4390E-2  0.1006     0.3668E-2  0.9419E-1
  9.289     0.4426E-2  0.1010     0.3692E-2  0.9456E-1
  9.299     0.4464E-2  0.1015     0.3716E-2  0.9492E-1
  9.309     0.4503E-2  0.1019     0.3741E-2  0.9529E-1
  9.319     0.4543E-2  0.1024     0.3767E-2  0.9567E-1
  9.329     0.4585E-2  0.1028     0.3794E-2  0.9604E-1
  9.339     0.4628E-2  0.1033     0.3822E-2  0.9642E-1
  9.349     0.4673E-2  0.1037     0.3852E-2  0.9680E-1
  9.359     0.4720E-2  0.1042     0.3883E-2  0.9718E-1
  9.369     0.4769E-2  0.1047     0.3915E-2  0.9756E-1
  9.379     0.4820E-2  0.1052     0.3949E-2  0.9795E-1
  9.389     0.4873E-2  0.1056     0.3984E-2  0.9834E-1
  9.399     0.4929E-2  0.1061     0.4021E-2  0.9874E-1
  9.409     0.4987E-2  0.1066     0.4060E-2  0.9914E-1
  9.419     0.5048E-2  0.1071     0.4101E-2  0.9954E-1
  9.429     0.5112E-2  0.1076     0.4144E-2  0.9994E-1
  9.439     0.5178E-2  0.1081     0.4189E-2  0.1004   
  9.449     0.5248E-2  0.1086     0.4237E-2  0.1008   
  9.459     0.5322E-2  0.1091     0.4288E-2  0.1012   
  9.469     0.5399E-2  0.1096     0.4341E-2  0.1016   
  9.479     0.5481E-2  0.1102     0.4398E-2  0.1020   
  9.489     0.5567E-2  0.1107     0.4458E-2  0.1025   
  9.499     0.5657E-2  0.1113     0.4522E-2  0.1029   
  9.510     0.5753E-2  0.1118     0.4590E-2  0.1033   
  9.520     0.5854E-2  0.1124     0.4663E-2  0.1038   
  9.530     0.5962E-2  0.1129     0.4740E-2  0.1042   
  9.540     0.6075E-2  0.1135     0.4824E-2  0.1047   
  9.550     0.6196E-2  0.1141     0.4913E-2  0.1052   
  9.560     0.6325E-2  0.1147     0.5008E-2  0.1056   
  9.570     0.6461E-2  0.1153     0.5111E-2  0.1061   
  9.580     0.6607E-2  0.1159     0.5222E-2  0.1066   
  9.590     0.6763E-2  0.1166     0.5343E-2  0.1071   
  9.600     0.6930E-2  0.1172     0.5473E-2  0.1076   
  9.610     0.7109E-2  0.1179     0.5614E-2  0.1081   
  9.620     0.7301E-2  0.1185     0.5768E-2  0.1086   
  9.630     0.7507E-2  0.1192     0.5935E-2  0.1091   
  9.640     0.7730E-2  0.1199     0.6118E-2  0.1097   
  9.650     0.7970E-2  0.1206     0.6319E-2  0.1102   
  9.660     0.8230E-2  0.1214     0.6540E-2  0.1108   
  9.670     0.8513E-2  0.1221     0.6783E-2  0.1113   
  9.680     0.8819E-2  0.1229     0.7051E-2  0.1119   
  9.690     0.9153E-2  0.1237     0.7348E-2  0.1125   
  9.700     0.9517E-2  0.1245     0.7678E-2  0.1131   
  9.710     0.9916E-2  0.1253     0.8045E-2  0.1137   
  9.720     0.1035E-1  0.1261     0.8455E-2  0.1143   
  9.730     0.1083E-1  0.1270     0.8913E-2  0.1149   
  9.740     0.1136E-1  0.1279     0.9426E-2  0.1156   
   9.74975    0.01195    0.12882    0.01000    0.11618
   9.75976    0.01260    0.12975    0.01065    0.11678
   9.76977    0.01332    0.13070    0.01138    0.11737
   9.77978    0.01412    0.13167    0.01219    0.11792
   9.78979    0.01502    0.13265    0.01311    0.11843
   9.79980    0.01602    0.13364    0.01413    0.11887
   9.80981    0.01714    0.13463    0.01527    0.11921
   9.81982    0.01839    0.13560    0.01651    0.11942
   9.82983    0.01980    0.13654    0.01786    0.11946
   9.83984    0.02137    0.13743    0.01929    0.11928
   9.84985    0.02313    0.13824    0.02076    0.11884
   9.85986    0.02509    0.13893    0.02220    0.11810
   9.86987    0.02726    0.13946    0.02355    0.11703
   9.87988    0.02964    0.13976    0.02468    0.11565
   9.88989    0.03221    0.13978    0.02552    0.11400
   9.89990    0.03493    0.13945    0.02596    0.11216
   9.90991    0.03776    0.13868    0.02597    0.11026
   9.91992    0.04060    0.13742    0.02553    0.10843
   9.92993    0.04334    0.13562    0.02470    0.10678
   9.93994    0.04584    0.13328    0.02357    0.10541
   9.94995    0.04795    0.13044    0.02224    0.10436
   9.95996    0.04953    0.12718    0.02081    0.10363
   9.96997    0.05047    0.12363    0.01935    0.10321
   9.97998    0.05071    0.11996    0.01794    0.10304
   9.98999    0.05021    0.11636    0.01661    0.10309
  10.00000    0.04905    0.11302    0.01538    0.10332
# 
# 05/23/2017 at 21:58 YAMBO_MAGNETIC @ narro [start]
# 05/23/2017 at 21:58                        [end]
#  
# Timing   [Min/Max/Average]: 01s/01s/01s
#
# .-Input file : ../INPUTS/04_bse_magnetic
# | optics                       # [R OPT] Optics
# | bse                          # [R BSE] Bethe Salpeter Equation.
# | bsk                          # [R BSK] Bethe Salpeter Equation kernel
# | bss                          # [R BSS] Bethe Salpeter Equation solver
# | em1s                         # [R Xs] Static Inverse Dielectric Matrix
# | FFTGvecs=  363         RL    # [FFT] Plane-waves
# | X_Threads=  4                # [OPENMP/X] Number of threads for response functions
# | DIP_Threads=  4              # [OPENMP/X] Number of threads for dipoles
# | Chimod= "hartree"            # [X] IP/Hartree/ALDA/LRC/BSfxc
# | BSEmod= "retarded"           # [BSE] resonant/retarded/coupling
# | BSKmod= "SEX"                # [BSE] IP/Hartree/HF/ALDA/SEX/BSfxc
# | BSSmod= "d"                  # [BSS] (h)aydock/(d)iagonalization/(i)nversion/(t)ddft`
# | BSENGexx=  363         RL    # [BSK] Exchange components
# | BSENGBlk= 1            RL    # [BSK] Screened interaction block size
# | #WehCpl                      # [BSK] eh interaction included also in coupling
# | KfnQPdb= " E < 03_gw_magnetic/ndb.QP" # [EXTQP BSK BSS] Database
# | % BEnRange
# |   0.00000 | 10.00000 | eV    # [BSS] Energy range
# | %
# | % BDmRange
# |   0.10000 |  0.10000 | eV    # [BSS] Damping range
# | %
# | BEnSteps= 1000               # [BSS] Energy steps
# | % BLongDir
# | 0.1000E-4 | 0.000    | 0.000    |        # [BSS] [cc] Electric Field
# | %
# | % BSEBands
# |   1 |  7 |                   # [BSK] Bands range
# | %
# | % BndsRnXs
# |   1 |  7 |                   # [Xs] Polarization function bands
# | %
# | NGsBlkXs= 1            RL    # [Xs] Response block size
# | % DmRngeXs
# |   0.10000 |  0.10000 | eV    # [Xs] Damping range
# | %
# | % LongDrXs
# | 0.1000E-4 | 0.000    | 0.000    |        # [Xs] [cc] Electric Field
# | %
