#                                                           
#  **    **    **     ****     ****  ******     *******     
# //**  **    ****   /**/**   **/** /*////**   **/////**    
#  //****    **//**  /**//** ** /** /*   /**  **     //**   
#   //**    **  //** /** //***  /** /******  /**      /**   
#    /**   **********/**  //*   /** /*//// **/**      /**   
#    /**  /**//////**/**   /    /** /*    /**//**     **    
#    /**  /**     /**/**        /** /*******  //*******     
#    //   //      // //         //  ///////    ///////      
#                                                           
#        Version 4.3.0 Revision 15186 Hash adaf3b3          
#                  MPI+SLK+OpenMP Build                     
#                http://www.yambo-code.org                  
#
# Absorption @ Q(15) [iku] :-.25000    -.36068E-7 0.37500   
#
#
# - Energies      are  Analyt. E
# - Wavefunctions are Slater exchange(X)+Perdew & Zunger(C)
#
# - The Green`s function is T-ordered -
#
#    E/ev[1]       EPS-Im[2]     EPS-Re[3]
#
    10.000       0.31382E-2     1.3800   
    10.030       0.31561E-2     1.3808   
    10.060       0.31741E-2     1.3815   
    10.090       0.31924E-2     1.3823   
    10.120       0.32108E-2     1.3831   
    10.150       0.32295E-2     1.3839   
    10.180       0.32483E-2     1.3846   
    10.210       0.32674E-2     1.3854   
    10.240       0.32867E-2     1.3862   
    10.271       0.33062E-2     1.3870   
    10.301       0.33259E-2     1.3878   
    10.331       0.33459E-2     1.3887   
    10.361       0.33661E-2     1.3895   
    10.391       0.33865E-2     1.3903   
    10.421       0.34071E-2     1.3912   
    10.451       0.34280E-2     1.3920   
    10.481       0.34492E-2     1.3929   
    10.511       0.34706E-2     1.3937   
    10.541       0.34922E-2     1.3946   
    10.571       0.35141E-2     1.3954   
    10.601       0.35363E-2     1.3963   
    10.631       0.35587E-2     1.3972   
    10.661       0.35814E-2     1.3981   
    10.691       0.36043E-2     1.3990   
    10.721       0.36276E-2     1.3999   
    10.752       0.36511E-2     1.4008   
    10.782       0.36749E-2     1.4017   
    10.812       0.36990E-2     1.4027   
    10.842       0.37234E-2     1.4036   
    10.872       0.37481E-2     1.4045   
    10.902       0.37731E-2     1.4055   
    10.932       0.37985E-2     1.4065   
    10.962       0.38241E-2     1.4074   
    10.992       0.38501E-2     1.4084   
    11.022       0.38764E-2     1.4094   
    11.052       0.39030E-2     1.4104   
    11.082       0.39300E-2     1.4114   
    11.112       0.39573E-2     1.4124   
    11.142       0.39850E-2     1.4134   
    11.172       0.40130E-2     1.4144   
    11.202       0.40414E-2     1.4155   
    11.232       0.40702E-2     1.4165   
    11.263       0.40994E-2     1.4176   
    11.293       0.41289E-2     1.4186   
    11.323       0.41589E-2     1.4197   
    11.353       0.41892E-2     1.4208   
    11.383       0.42200E-2     1.4219   
    11.413       0.42511E-2     1.4230   
    11.443       0.42827E-2     1.4241   
    11.473       0.43148E-2     1.4252   
    11.503       0.43473E-2     1.4263   
    11.533       0.43802E-2     1.4275   
    11.563       0.44136E-2     1.4286   
    11.593       0.44475E-2     1.4298   
    11.623       0.44818E-2     1.4310   
    11.653       0.45166E-2     1.4321   
    11.683       0.45520E-2     1.4333   
    11.713       0.45878E-2     1.4345   
    11.743       0.46242E-2     1.4357   
    11.774       0.46611E-2     1.4370   
    11.804       0.46985E-2     1.4382   
    11.834       0.47365E-2     1.4395   
    11.864       0.47751E-2     1.4407   
    11.894       0.48142E-2     1.4420   
    11.924       0.48539E-2     1.4433   
    11.954       0.48943E-2     1.4446   
    11.984       0.49352E-2     1.4459   
    12.014       0.49768E-2     1.4472   
    12.044       0.50190E-2     1.4485   
    12.074       0.50619E-2     1.4499   
    12.104       0.51054E-2     1.4513   
    12.134       0.51497E-2     1.4526   
    12.164       0.51946E-2     1.4540   
    12.194       0.52403E-2     1.4554   
    12.224       0.52867E-2     1.4568   
    12.255       0.53339E-2     1.4583   
    12.285       0.53818E-2     1.4597   
    12.315       0.54305E-2     1.4612   
    12.345       0.54801E-2     1.4627   
    12.375       0.55305E-2     1.4641   
    12.405       0.55817E-2     1.4657   
    12.435       0.56338E-2     1.4672   
    12.465       0.56868E-2     1.4687   
    12.495       0.57407E-2     1.4703   
    12.525       0.57956E-2     1.4718   
    12.555       0.58514E-2     1.4734   
    12.585       0.59083E-2     1.4750   
    12.615       0.59661E-2     1.4767   
    12.645       0.60250E-2     1.4783   
    12.675       0.60850E-2     1.4800   
    12.705       0.61460E-2     1.4816   
    12.735       0.62082E-2     1.4833   
    12.766       0.62716E-2     1.4850   
    12.796       0.63362E-2     1.4868   
    12.826       0.64020E-2     1.4885   
    12.856       0.64690E-2     1.4903   
    12.886       0.65374E-2     1.4921   
    12.916       0.66071E-2     1.4939   
    12.946       0.66782E-2     1.4958   
    12.976       0.67507E-2     1.4976   
    13.006       0.68247E-2     1.4995   
    13.036       0.69002E-2     1.5014   
    13.066       0.69773E-2     1.5033   
    13.096       0.70560E-2     1.5053   
    13.126       0.71363E-2     1.5073   
    13.156       0.72184E-2     1.5093   
    13.186       0.73022E-2     1.5113   
    13.216       0.73879E-2     1.5133   
    13.246       0.74754E-2     1.5154   
    13.277       0.75649E-2     1.5175   
    13.307       0.76565E-2     1.5197   
    13.337       0.77501E-2     1.5218   
    13.367       0.78459E-2     1.5240   
    13.397       0.79440E-2     1.5262   
    13.427       0.80444E-2     1.5285   
    13.457       0.81472E-2     1.5307   
    13.487       0.82526E-2     1.5331   
    13.517       0.83605E-2     1.5354   
    13.547       0.84712E-2     1.5378   
    13.577       0.85847E-2     1.5402   
    13.607       0.87012E-2     1.5426   
    13.637       0.88207E-2     1.5451   
    13.667       0.89434E-2     1.5476   
    13.697       0.90694E-2     1.5502   
    13.727       0.91989E-2     1.5528   
    13.758       0.93321E-2     1.5554   
    13.788       0.94691E-2     1.5581   
    13.818       0.96100E-2     1.5608   
    13.848       0.97552E-2     1.5635   
    13.878       0.99047E-2     1.5663   
    13.908       0.10059E-1     1.5692   
    13.938       0.10218E-1     1.5721   
    13.968       0.10382E-1     1.5750   
    13.998       0.10551E-1     1.5780   
    14.028       0.10727E-1     1.5811   
    14.058       0.10908E-1     1.5842   
    14.088       0.11096E-1     1.5873   
    14.118       0.11290E-1     1.5905   
    14.148       0.11492E-1     1.5938   
    14.178       0.11701E-1     1.5971   
    14.208       0.11919E-1     1.6005   
    14.238       0.12146E-1     1.6040   
    14.269       0.12382E-1     1.6075   
    14.299       0.12628E-1     1.6111   
    14.329       0.12886E-1     1.6148   
    14.359       0.13156E-1     1.6185   
    14.389       0.13440E-1     1.6224   
    14.419       0.13738E-1     1.6263   
    14.449       0.14053E-1     1.6303   
    14.479       0.14386E-1     1.6344   
    14.509016      0.014739      1.638618
    14.539077      0.015116      1.642933
    14.569138      0.015520      1.647361
    14.599198      0.015954      1.651909
    14.629258      0.016426      1.656586
    14.659319      0.016941      1.661401
    14.689378      0.017510      1.666364
    14.719439      0.018145      1.671490
    14.749499      0.018865      1.676789
    14.779558      0.019695      1.682278
    14.809619      0.020675      1.687968
    14.839679      0.021859      1.693866
    14.869739      0.023331      1.699962
    14.899799      0.025206      1.706198
    14.929859      0.027618      1.712416
    14.959920      0.030628      1.718286
    14.989979      0.034003      1.723316
    15.020040      0.036954      1.727178
    15.050100      0.038361      1.730474
    15.080159      0.038137      1.734786
    15.110220      0.037566      1.740973
    15.140280      0.037793      1.748659
    15.170341      0.039295      1.757169
    15.200401      0.042287      1.765898
    15.230460      0.046907      1.774086
    15.260521      0.052882      1.780539
    15.290580      0.058596      1.784012
    15.320641      0.061104      1.785266
    15.350701      0.059405      1.787877
    15.380760      0.055999      1.794294
    15.410821      0.053407      1.804016
    15.440881      0.052489      1.815748
    15.470942      0.053267      1.828674
    15.501002      0.055662      1.842436
    15.531061      0.059748      1.856874
    15.561122      0.065820      1.871789
    15.591181      0.074360      1.886685
    15.621242      0.085759      1.900401
    15.651302      0.099422      1.910973
    15.681361      0.112552      1.916849
    15.711422      0.120980      1.919661
    15.741482      0.123300      1.924790
    15.771543      0.123381      1.936700
    15.801603      0.126348      1.955152
    15.831662      0.134990      1.977622
    15.861723      0.150676      2.001527
    15.891782      0.173994      2.023744
    15.921843      0.203595      2.040786
    15.951903      0.236263      2.051026
    15.981964      0.269522      2.054705
    16.012024      0.300815      2.052553
    16.042082      0.328793      2.047950
    16.072144      0.356326      2.043420
    16.102203      0.387229      2.037187
    16.132265      0.422678      2.024071
    16.162325      0.459158      1.996834
    16.192385      0.483012      1.951752
    16.222445      0.480501      1.903439
    16.252504      0.459040      1.871571
    16.282566      0.436162      1.859585
    16.312624      0.422176      1.857511
    16.342686      0.414020      1.855114
    16.372744      0.405327      1.852849
    16.402805      0.397202      1.853569
    16.432865      0.390937      1.854994
    16.462925      0.383726      1.855327
    16.492987      0.371055      1.856905
    16.523045      0.352439      1.867964
    16.553106      0.337080      1.894714
    16.583166      0.336229      1.933119
    16.613226      0.354854      1.973492
    16.643286      0.392703      2.006385
    16.673346      0.447035      2.022448
    16.703405      0.510011      2.010031
    16.733467      0.560509      1.960989
    16.763527      0.570191      1.890741
    16.793587      0.536060      1.835891
    16.823647      0.484159      1.816844
    16.853706      0.438587      1.828090
    16.883768      0.408682      1.855892
    16.913826      0.394004      1.889652
    16.943888      0.391527      1.924326
    16.973946      0.399232      1.956208
    17.004007      0.411805      1.982578
    17.034067      0.424790      2.008202
    17.064127      0.443778      2.038133
    17.094189      0.477359      2.066034
    17.124247      0.522846      2.077025
    17.154308      0.561261      2.064196
    17.184368      0.573808      2.043986
    17.214430      0.567856      2.043204
    17.244488      0.570306      2.066191
    17.274548      0.595355      2.093168
    17.304609      0.633333      2.104774
    17.334669      0.664850      2.101859
    17.364729      0.684788      2.099559
    17.394789      0.700694      2.106887
    17.424849      0.722890      2.125986
    17.454908      0.762524      2.151038
    17.484970      0.825705      2.167609
    17.515030      0.904764      2.154934
    17.545090      0.970729      2.105371
    17.575150      1.000099      2.044006
    17.605209      1.005240      2.002166
    17.635271      1.014826      1.981247
    17.665331      1.040615      1.961226
    17.695391      1.071704      1.923296
    17.725449      1.085492      1.870277
    17.755510      1.077395      1.823253
    17.785570      1.060861      1.791651
    17.815632      1.045184      1.771406
    17.845690      1.030189      1.756494
    17.875750      1.010239      1.750164
    17.905811      0.990615      1.764618
    17.935871      0.992117      1.802729
    17.965933      1.034974      1.845202
    17.995991      1.118061      1.858361
    18.026051      1.212898      1.817463
    18.056110      1.279871      1.725688
    18.086172      1.292524      1.614977
    18.116232      1.258827      1.526199
    18.146292      1.213789      1.473700
    18.176352      1.179476      1.436441
    18.206411      1.142636      1.396260
    18.236473      1.088393      1.366163
    18.266533      1.026352      1.364009
    18.296593      0.975949      1.394218
    18.326653      0.958640      1.448432
    18.356712      0.989189      1.502735
    18.386772      1.065800      1.523404
    18.416834      1.158523      1.475564
    18.446892      1.205384      1.360179
    18.476954      1.171612      1.237971
    18.507013      1.090725      1.162588
    18.537073      1.010732      1.132901
    18.567135      0.948703      1.118232
    18.597193      0.885486      1.098560
    18.627254      0.800655      1.091387
    18.657312      0.709295      1.122343
    18.687374      0.640135      1.188613
    18.717434      0.606249      1.270738
    18.747496      0.607861      1.351146
    18.777555      0.640064      1.414029
    18.807613      0.686990      1.444667
    18.837675      0.721701      1.447183
    18.867735      0.737405      1.449389
    18.897797      0.758629      1.462457
    18.927855      0.800420      1.462655
    18.957914      0.840247      1.424919
    18.987974      0.840802      1.362256
    19.018036      0.796030      1.315040
    19.048096      0.734531      1.308330
    19.078156      0.688909      1.333385
    19.108215      0.666466      1.362665
    19.138275      0.648480      1.382305
    19.168337      0.620245      1.405180
    19.198397      0.589380      1.446650
    19.228456      0.570724      1.508185
    19.258514      0.575298      1.581640
    19.288576      0.606449      1.654743
    19.318636      0.660919      1.717731
    19.348698      0.733952      1.764631
    19.378757      0.821297      1.791353
    19.408815      0.920274      1.792366
    19.438877      1.023264      1.755628
    19.468937      1.104008      1.673833
    19.498999      1.133934      1.570473
    19.529057      1.116477      1.480824
    19.559116      1.070162      1.421857
    19.589176      1.015800      1.402867
    19.619238      0.980969      1.416962
    19.649298      0.977596      1.437555
    19.679358      0.992790      1.441942
    19.709417      1.004075      1.429586
    19.739477      1.005520      1.417432
    19.769539      1.010406      1.409183
    19.799599      1.017855      1.390249
    19.829659      1.008977      1.362043
    19.859718      0.977968      1.345240
    19.889778      0.939037      1.357384
    19.919840      0.915939      1.400157
    19.949900      0.928246      1.457709
    19.979959      0.979850      1.503232
    20.010019      1.053332      1.514885
    20.040079      1.124307      1.492586
    20.070139      1.183172      1.447888
    20.100201      1.227408      1.383987
    20.130259      1.245441      1.305006
    20.160320      1.230723      1.232234
    20.190380      1.204549      1.184031
    20.220440      1.191473      1.142605
    20.250502      1.174670      1.078761
    20.280560      1.117515      1.007085
    20.310621      1.022961      0.968891
    20.340679      0.924234      0.980037
    20.370741      0.848829      1.028874
    20.400801      0.806957      1.094101
    20.430862      0.795377      1.158152
    20.460920      0.804983      1.210656
    20.490980      0.825285      1.248234
    20.521042      0.847374      1.273676
    20.551102      0.868828      1.294351
    20.581163      0.895446      1.312873
    20.611221      0.930221      1.321429
    20.641281      0.963170      1.312232
    20.671341      0.979709      1.293028
    20.701403      0.980578      1.280459
    20.731462      0.975490      1.281821
    20.761522      0.974546      1.301121
    20.791582      0.994683      1.336372
    20.821642      1.052028      1.368596
    20.851704      1.143641      1.364480
    20.881763      1.234792      1.296601
    20.911823      1.270196      1.179958
    20.941881      1.235518      1.076328
    20.971943      1.173985      1.019752
    21.002003      1.120375      0.993905
    21.032064      1.072851      0.974360
    21.062124      1.012955      0.964888
    21.092182      0.948822      0.988740
    21.122244      0.910764      1.044673
    21.152304      0.913500      1.105487
    21.182365      0.944853      1.145012
    21.212423      0.980166      1.159214
    21.242483      1.008899      1.163137
    21.272543      1.038593      1.163831
    21.302605      1.070595      1.155770
    21.332664      1.100465      1.139875
    21.362724      1.129291      1.117309
    21.392784      1.156203      1.085166
    21.422844      1.175089      1.040947
    21.452906      1.176320      0.991889
    21.482965      1.165681      0.953640
    21.513025      1.162511      0.921111
    21.543083      1.161200      0.870051
    21.573145      1.130092      0.802755
    21.603205      1.060416      0.754222
    21.633266      0.978505      0.747565
    21.663326      0.914397      0.775484
    21.693386      0.878963      0.814041
    21.723446      0.861426      0.844451
    21.753506      0.844281      0.867608
    21.783567      0.824977      0.897560
    21.813625      0.814719      0.938604
    21.843687      0.820350      0.985114
    21.873745      0.846210      1.032012
    21.903807      0.898240      1.066509
    21.933867      0.964977      1.066464
    21.963928      1.012594      1.032064
    21.993988      1.028573      0.999688
    22.024046      1.046616      0.990147
    22.054108      1.095513      0.973343
    22.084167      1.152987      0.907109
    22.114229      1.163330      0.795120
    22.144287      1.103630      0.692676
    22.174347      1.008189      0.641793
    22.204407      0.916364      0.637987
    22.234468      0.841502      0.663498
    22.264528      0.787959      0.708698
    22.294588      0.761548      0.762466
    22.324648      0.758694      0.808285
    22.354708      0.762664      0.840902
    22.384769      0.766495      0.873853
    22.414829      0.784356      0.912771
    22.444889      0.825437      0.941064
    22.474949      0.875585      0.941431
    22.505009      0.912466      0.919602
    22.535070      0.933332      0.896211
    22.565130      0.955092      0.878036
    22.595190      0.987089      0.849401
    22.625248      1.016118      0.795401
    22.655310      1.022671      0.718728
    22.685369      0.993283      0.632532
    22.715431      0.921872      0.558623
    22.745489      0.820531      0.522028
    22.775549      0.716798      0.531546
    22.805611      0.632816      0.574529
    22.835670      0.572556      0.633214
    22.865732      0.531266      0.699995
    22.895790      0.508507      0.773881
    22.925850      0.508105      0.851370
    22.955910      0.532782      0.924726
    22.985971      0.581367      0.983505
    23.016031      0.646497      1.017260
    23.046091      0.714706      1.019995
    23.076151      0.769762      0.995007
    23.106211      0.801921      0.955088
    23.136272      0.811188      0.912442
    23.166332      0.799633      0.875590
    23.196392      0.772472      0.854167
    23.226452      0.740501      0.852539
    23.256512      0.712206      0.870178
    23.286572      0.697924      0.906156
    23.316633      0.710921      0.950400
    23.346691      0.754313      0.980955
    23.376753      0.811607      0.978430
    23.406813      0.857601      0.942728
    23.436872      0.877098      0.888863
    23.466934      0.867240      0.834160
    23.496992      0.834436      0.791927
    23.527054      0.787315      0.768356
    23.557112      0.734660      0.767693
    23.587173      0.688090      0.789289
    23.617233      0.655893      0.825928
    23.647295      0.640911      0.868481
    23.677353      0.639918      0.908343
    23.707413      0.645672      0.944341
    23.737474      0.658732      0.980342
    23.767534      0.682911      1.011100
    23.797596      0.710429      1.029491
    23.827652      0.730791      1.042657
    23.857714      0.748957      1.062572
    23.887774      0.776482      1.087315
    23.917835      0.814999      1.108238
    23.947895      0.861639      1.121788
    23.977953      0.914773      1.125225
    24.008015      0.971328      1.116199
    24.038074      1.027922      1.092541
    24.068136      1.078456      1.053344
    24.098196      1.116367      1.000828
    24.128254      1.134376      0.942356
    24.158314      1.134605      0.891758
    24.188375      1.129161      0.853116
    24.218435      1.124184      0.821573
    24.248497      1.121168      0.793548
    24.278557      1.121161      0.765122
    24.308615      1.121056      0.731222
    24.338676      1.114085      0.691242
    24.368736      1.093531      0.650456
    24.398798      1.060232      0.620135
    24.428858      1.023306      0.604567
    24.458916      0.988760      0.603282
    24.488976      0.964818      0.614757
    24.519037      0.958494      0.628165
    24.549097      0.962714      0.629735
    24.579159      0.962910      0.620783
    24.609217      0.956299      0.611177
    24.639277      0.945738      0.605776
    24.669338      0.936915      0.608152
    24.699398      0.937594      0.613906
    24.729460      0.948072      0.614099
    24.759518      0.961329      0.601840
    24.789577      0.965835      0.580042
    24.819639      0.960111      0.560616
    24.849699      0.953266      0.548235
    24.879759      0.952473      0.537804
    24.909817      0.957667      0.518379
    24.939878      0.952516      0.483454
    24.969938      0.923506      0.453393
    25.000000      0.889904      0.446739
# 
# 01/08/2018 at 17:17 YAMBO @ polluce [start]
# 01/08/2018 at 17:17                 [end]
#  
# Timing   [Min/Max/Average]: 10s/10s/10s
#
# .-Input file : yambo.in
# | optics                         # [R OPT] Optics
# | chi                            # [R CHI] Dyson equation for Chi.
# | BoseTemp= 0.000000     eV      # Bosonic Temperature
# | FFTGvecs= 1807         RL      # [FFT] Plane-waves
# | X_Threads= 1                   # [OPENMP/X] Number of threads for response functions
# | DIP_Threads= 1                 # [OPENMP/X] Number of threads for dipoles
# | Chimod= "IP"                   # [X] IP/Hartree/ALDA/LRC/BSfxc
# | NGsBlkXd= 1            RL      # [Xd] Response block size
# | % QpntsRXd
# |   1 | 19 |                     # [Xd] Transferred momenta
# | %
# | % BndsRnXd
# |   2 |  7 |                     # [Xd] Polarization function bands
# | %
# | % EnRngeXd
# |  10.00000 | 25.00000 | eV      # [Xd] Energy range
# | %
# | % DmRngeXd
# |   0.10000 |  0.10000 | eV      # [Xd] Damping range
# | %
# | ETStpsXd=  500                 # [Xd] Total Energy steps
# | % LongDrXd
# | 0.1000E-4 | 0.000    | 0.000    |        # [Xd] [cc] Electric Field
# | %
# | % XfnQP_E
# |  5.350000 | 1.000000 | 1.000000 |        # [EXTQP Xd] E parameters  (c/v) eV|adim|adim
# | %
