#                                                           
#  **    **    **     ****     ****  ******     *******     
# //**  **    ****   /**/**   **/** /*////**   **/////**    
#  //****    **//**  /**//** ** /** /*   /**  **     //**   
#   //**    **  //** /** //***  /** /******  /**      /**   
#    /**   **********/**  //*   /** /*//// **/**      /**   
#    /**  /**//////**/**   /    /** /*    /**//**     **    
#    /**  /**     /**/**        /** /*******  //*******     
#    //   //      // //         //  ///////    ///////      
#                                                           
#        Version 4.3.0 Revision 15186 Hash adaf3b3          
#                  MPI+SLK+OpenMP Build                     
#                http://www.yambo-code.org                  
#
# Absorption @ Q(9) [iku] : 0.2500000 -0.2500000  0.2500000
#
#
# - Energies      are  Analyt. E
# - Wavefunctions are Slater exchange(X)+Perdew & Zunger(C)
#
# - The Green`s function is T-ordered -
#
#    E/ev[1]       EPS-Im[2]     EPS-Re[3]
#
    10.000       0.29272E-2     1.3736   
    10.030       0.29426E-2     1.3742   
    10.060       0.29581E-2     1.3749   
    10.090       0.29738E-2     1.3757   
    10.120       0.29897E-2     1.3764   
    10.150       0.30058E-2     1.3771   
    10.180       0.30220E-2     1.3778   
    10.210       0.30383E-2     1.3785   
    10.240       0.30549E-2     1.3793   
    10.271       0.30716E-2     1.3800   
    10.301       0.30885E-2     1.3807   
    10.331       0.31056E-2     1.3815   
    10.361       0.31228E-2     1.3822   
    10.391       0.31403E-2     1.3830   
    10.421       0.31579E-2     1.3838   
    10.451       0.31757E-2     1.3845   
    10.481       0.31937E-2     1.3853   
    10.511       0.32119E-2     1.3861   
    10.541       0.32303E-2     1.3869   
    10.571       0.32489E-2     1.3877   
    10.601       0.32677E-2     1.3885   
    10.631       0.32867E-2     1.3893   
    10.661       0.33059E-2     1.3901   
    10.691       0.33253E-2     1.3909   
    10.721       0.33450E-2     1.3917   
    10.752       0.33648E-2     1.3926   
    10.782       0.33849E-2     1.3934   
    10.812       0.34052E-2     1.3942   
    10.842       0.34257E-2     1.3951   
    10.872       0.34465E-2     1.3959   
    10.902       0.34675E-2     1.3968   
    10.932       0.34887E-2     1.3977   
    10.962       0.35102E-2     1.3985   
    10.992       0.35319E-2     1.3994   
    11.022       0.35539E-2     1.4003   
    11.052       0.35762E-2     1.4012   
    11.082       0.35986E-2     1.4021   
    11.112       0.36214E-2     1.4030   
    11.142       0.36444E-2     1.4039   
    11.172       0.36677E-2     1.4049   
    11.202       0.36913E-2     1.4058   
    11.232       0.37151E-2     1.4067   
    11.263       0.37393E-2     1.4077   
    11.293       0.37637E-2     1.4086   
    11.323       0.37884E-2     1.4096   
    11.353       0.38134E-2     1.4106   
    11.383       0.38387E-2     1.4116   
    11.413       0.38643E-2     1.4125   
    11.443       0.38903E-2     1.4135   
    11.473       0.39165E-2     1.4145   
    11.503       0.39431E-2     1.4156   
    11.533       0.39700E-2     1.4166   
    11.563       0.39973E-2     1.4176   
    11.593       0.40249E-2     1.4186   
    11.623       0.40528E-2     1.4197   
    11.653       0.40811E-2     1.4207   
    11.683       0.41098E-2     1.4218   
    11.713       0.41388E-2     1.4229   
    11.743       0.41682E-2     1.4239   
    11.774       0.41980E-2     1.4250   
    11.804       0.42281E-2     1.4261   
    11.834       0.42587E-2     1.4272   
    11.864       0.42897E-2     1.4284   
    11.894       0.43210E-2     1.4295   
    11.924       0.43528E-2     1.4306   
    11.954       0.43850E-2     1.4318   
    11.984       0.44177E-2     1.4329   
    12.014       0.44507E-2     1.4341   
    12.044       0.44843E-2     1.4353   
    12.074       0.45183E-2     1.4365   
    12.104       0.45527E-2     1.4377   
    12.134       0.45876E-2     1.4389   
    12.164       0.46230E-2     1.4401   
    12.194       0.46590E-2     1.4413   
    12.224       0.46954E-2     1.4426   
    12.255       0.47323E-2     1.4438   
    12.285       0.47697E-2     1.4451   
    12.315       0.48077E-2     1.4464   
    12.345       0.48462E-2     1.4476   
    12.375       0.48853E-2     1.4489   
    12.405       0.49250E-2     1.4503   
    12.435       0.49652E-2     1.4516   
    12.465       0.50060E-2     1.4529   
    12.495       0.50475E-2     1.4543   
    12.525       0.50895E-2     1.4556   
    12.555       0.51322E-2     1.4570   
    12.585       0.51755E-2     1.4584   
    12.615       0.52195E-2     1.4598   
    12.645       0.52641E-2     1.4612   
    12.675       0.53095E-2     1.4626   
    12.705       0.53555E-2     1.4641   
    12.735       0.54023E-2     1.4656   
    12.766       0.54498E-2     1.4670   
    12.796       0.54980E-2     1.4685   
    12.826       0.55470E-2     1.4700   
    12.856       0.55968E-2     1.4715   
    12.886       0.56474E-2     1.4731   
    12.916       0.56989E-2     1.4746   
    12.946       0.57511E-2     1.4762   
    12.976       0.58043E-2     1.4778   
    13.006       0.58583E-2     1.4793   
    13.036       0.59132E-2     1.4810   
    13.066       0.59691E-2     1.4826   
    13.096       0.60259E-2     1.4842   
    13.126       0.60837E-2     1.4859   
    13.156       0.61424E-2     1.4876   
    13.186       0.62023E-2     1.4893   
    13.216       0.62631E-2     1.4910   
    13.246       0.63250E-2     1.4927   
    13.277       0.63881E-2     1.4945   
    13.307       0.64523E-2     1.4963   
    13.337       0.65176E-2     1.4981   
    13.367       0.65842E-2     1.4999   
    13.397       0.66519E-2     1.5017   
    13.427       0.67210E-2     1.5036   
    13.457       0.67913E-2     1.5055   
    13.487       0.68630E-2     1.5074   
    13.517       0.69361E-2     1.5093   
    13.547       0.70105E-2     1.5112   
    13.577       0.70865E-2     1.5132   
    13.607       0.71639E-2     1.5152   
    13.637       0.72429E-2     1.5172   
    13.667       0.73234E-2     1.5192   
    13.697       0.74057E-2     1.5213   
    13.727       0.74896E-2     1.5234   
    13.758       0.75752E-2     1.5255   
    13.788       0.76627E-2     1.5276   
    13.818       0.77520E-2     1.5298   
    13.848       0.78433E-2     1.5320   
    13.878       0.79365E-2     1.5342   
    13.908       0.80319E-2     1.5365   
    13.938       0.81293E-2     1.5387   
    13.968       0.82290E-2     1.5410   
    13.998       0.83309E-2     1.5434   
    14.028       0.84352E-2     1.5458   
    14.058       0.85420E-2     1.5482   
    14.088       0.86514E-2     1.5506   
    14.118       0.87634E-2     1.5531   
    14.148       0.88782E-2     1.5556   
    14.178       0.89958E-2     1.5581   
    14.208       0.91165E-2     1.5607   
    14.238       0.92404E-2     1.5633   
    14.269       0.93675E-2     1.5659   
    14.299       0.94981E-2     1.5686   
    14.329       0.96323E-2     1.5713   
    14.359       0.97703E-2     1.5741   
    14.389       0.99123E-2     1.5769   
    14.419       0.10059E-1     1.5798   
    14.449       0.10209E-1     1.5827   
    14.479       0.10365E-1     1.5856   
    14.509       0.10526E-1     1.5886   
    14.539       0.10692E-1     1.5917   
    14.569       0.10864E-1     1.5947   
    14.599       0.11042E-1     1.5979   
    14.629       0.11228E-1     1.6011   
    14.659       0.11421E-1     1.6043   
    14.689       0.11622E-1     1.6076   
    14.719       0.11834E-1     1.6110   
    14.749       0.12056E-1     1.6145   
    14.780       0.12291E-1     1.6180   
    14.810       0.12541E-1     1.6215   
    14.840       0.12810E-1     1.6252   
    14.870       0.13101E-1     1.6289   
    14.900       0.13421E-1     1.6327   
    14.930       0.13779E-1     1.6366   
    14.960       0.14188E-1     1.6406   
    14.990       0.14669E-1     1.6446   
    15.020040      0.015252      1.648800
    15.050100      0.015982      1.653014
    15.080159      0.016909      1.657216
    15.110220      0.018055      1.661254
    15.140280      0.019282      1.664894
    15.170341      0.020157      1.668050
    15.200401      0.020260      1.671152
    15.230460      0.019782      1.674813
    15.260521      0.019231      1.679151
    15.290580      0.018875      1.683952
    15.320641      0.018743      1.689020
    15.350701      0.018791      1.694256
    15.380760      0.018973      1.699623
    15.410821      0.019256      1.705112
    15.440881      0.019619      1.710726
    15.470942      0.020048      1.716475
    15.501002      0.020538      1.722369
    15.531061      0.021087      1.728422
    15.561122      0.021694      1.734646
    15.591181      0.022364      1.741057
    15.621242      0.023101      1.747673
    15.651302      0.023916      1.754510
    15.681361      0.024817      1.761590
    15.711422      0.025821      1.768936
    15.741482      0.026948      1.776574
    15.771543      0.028223      1.784535
    15.801603      0.029681      1.792855
    15.831662      0.031372      1.801574
    15.861723      0.033363      1.810741
    15.891782      0.035747      1.820404
    15.921843      0.038663      1.830613
    15.951903      0.042303      1.841409
    15.981964      0.046944      1.852801
    16.012024      0.052997      1.864739
    16.042082      0.061097      1.876982
    16.072144      0.072108      1.888761
    16.102203      0.086712      1.898245
    16.132265      0.104078      1.902307
    16.162325      0.119975      1.898422
    16.192385      0.128461      1.888808
    16.222445      0.127699      1.879634
    16.252504      0.120134      1.875523
    16.282566      0.109567      1.878815
    16.312624      0.100440      1.889151
    16.342686      0.095369      1.903586
    16.372744      0.094298      1.918944
    16.402805      0.095236      1.933352
    16.432865      0.095690      1.947495
    16.462925      0.095411      1.963866
    16.492987      0.096321      1.983612
    16.523045      0.100000      2.006196
    16.553106      0.107237      2.030889
    16.583166      0.118755      2.057178
    16.613226      0.135690      2.084396
    16.643286      0.159633      2.111008
    16.673346      0.191865      2.133586
    16.703405      0.230888      2.146636
    16.733467      0.269916      2.146392
    16.763527      0.301319      2.136100
    16.793587      0.323223      2.121789
    16.823647      0.336260      2.106467
    16.853706      0.338608      2.092644
    16.883768      0.329448      2.088227
    16.913826      0.316843      2.101685
    16.943888      0.313830      2.132733
    16.973946      0.329822      2.172969
    17.004007      0.368582      2.210560
    17.034067      0.427204      2.231021
    17.064127      0.490256      2.222245
    17.094189      0.535027      2.191045
    17.124247      0.558488      2.159483
    17.154308      0.572975      2.133393
    17.184368      0.578547      2.111137
    17.214430      0.579132      2.102672
    17.244488      0.594023      2.104981
    17.274548      0.627446      2.091914
    17.304609      0.649906      2.045827
    17.334669      0.627443      1.992454
    17.364729      0.571564      1.976110
    17.394789      0.521639      2.006073
    17.424849      0.501651      2.063746
    17.454908      0.518047      2.128017
    17.484970      0.568875      2.179288
    17.515030      0.641436      2.197909
    17.545090      0.706711      2.175555
    17.575150      0.735225      2.133772
    17.605209      0.730489      2.111842
    17.635271      0.726591      2.124417
    17.665331      0.747548      2.154246
    17.695391      0.796364      2.182307
    17.725449      0.873248      2.192596
    17.755510      0.964662      2.159984
    17.785570      1.028283      2.081604
    17.815632      1.043653      2.000186
    17.845690      1.039368      1.941684
    17.875750      1.033013      1.894757
    17.905811      1.023736      1.854879
    17.935871      1.014237      1.820521
    17.965933      1.005153      1.791598
    17.995991      1.006406      1.764580
    18.026051      1.015173      1.716909
    18.056110      1.000235      1.643365
    18.086172      0.943581      1.571164
    18.116232      0.852612      1.525048
    18.146292      0.742842      1.521849
    18.176352      0.640373      1.567162
    18.206411      0.566090      1.647342
    18.236473      0.525271      1.745274
    18.266533      0.516271      1.850476
    18.296593      0.538263      1.957309
    18.326653      0.593702      2.060291
    18.356712      0.687058      2.148769
    18.386772      0.817437      2.202166
    18.416834      0.962247      2.196476
    18.446892      1.077000      2.138676
    18.476954      1.152307      2.078401
    18.507013      1.237486      2.031209
    18.537073      1.357466      1.940694
    18.567135      1.449893      1.750094
    18.597193      1.411340      1.502456
    18.627254      1.234076      1.325105
    18.657312      1.017039      1.279307
    18.687374      0.838430      1.331343
    18.717434      0.718065      1.432041
    18.747496      0.650171      1.552001
    18.777555      0.626565      1.677840
    18.807613      0.643757      1.803039
    18.837675      0.703967      1.920837
    18.867735      0.813201      2.017173
    18.897797      0.972378      2.062457
    18.927855      1.152773      2.012854
    18.957914      1.272899      1.853749
    18.987974      1.255451      1.663077
    19.018036      1.129500      1.554236
    19.048096      0.990461      1.559175
    19.078156      0.900496      1.640240
    19.108215      0.876950      1.752893
    19.138275      0.919310      1.863757
    19.168337      1.020406      1.942951
    19.198397      1.159922      1.957643
    19.228456      1.286250      1.883862
    19.258514      1.325757      1.755879
    19.288576      1.271619      1.670759
    19.318636      1.204783      1.674973
    19.348698      1.189286      1.730290
    19.378757      1.227650      1.783210
    19.408815      1.292500      1.816643
    19.438877      1.382130      1.840364
    19.468937      1.515254      1.831221
    19.498999      1.663163      1.738711
    19.529057      1.745722      1.566543
    19.559116      1.727363      1.395661
    19.589176      1.655315      1.288318
    19.619238      1.591512      1.246536
    19.649298      1.578575      1.233938
    19.679358      1.622693      1.187256
    19.709417      1.662392      1.049395
    19.739477      1.594767      0.855649
    19.769539      1.408900      0.727329
    19.799599      1.200129      0.722203
    19.829659      1.045325      0.804596
    19.859718      0.965521      0.920365
    19.889778      0.953801      1.028652
    19.919840      0.990701      1.100584
    19.949900      1.047597      1.118080
    19.979959      1.083116      1.076859
    20.010019      1.051504      1.013451
    20.040079      0.961843      0.996921
    20.070139      0.874254      1.051638
    20.100201      0.831793      1.153054
    20.130259      0.849383      1.269279
    20.160320      0.931345      1.370498
    20.190380      1.072317      1.418621
    20.220440      1.233825      1.368882
    20.250502      1.329586      1.220504
    20.280560      1.306656      1.065361
    20.310621      1.227563      0.986447
    20.340679      1.173261      0.960284
    20.370741      1.145354      0.921588
    20.400801      1.086687      0.858410
    20.430862      0.975458      0.827235
    20.460920      0.857372      0.864863
    20.490980      0.776717      0.954870
    20.521042      0.748639      1.068078
    20.551102      0.775640      1.181314
    20.581163      0.857362      1.271286
    20.611221      0.982649      1.306703
    20.641281      1.110610      1.261340
    20.671341      1.184178      1.155352
    20.701403      1.194634      1.045239
    20.731462      1.173580      0.948615
    20.761522      1.122342      0.852603
    20.791582      1.021620      0.776533
    20.821642      0.892005      0.758501
    20.851704      0.776884      0.797300
    20.881763      0.693680      0.865496
    20.911823      0.635596      0.945072
    20.941881      0.595541      1.035729
    20.971943      0.577587      1.139818
    21.002003      0.588703      1.253433
    21.032064      0.634508      1.369889
    21.062124      0.721445      1.479706
    21.092182      0.855457      1.565086
    21.122244      1.030136      1.595681
    21.152304      1.206972      1.545058
    21.182365      1.331014      1.433957
    21.212423      1.396294      1.319932
    21.242483      1.443054      1.223886
    21.272543      1.494949      1.121215
    21.302605      1.533970      0.984396
    21.332664      1.525208      0.821231
    21.362724      1.454566      0.663356
    21.392784      1.330761      0.543850
    21.422844      1.182478      0.482389
    21.452906      1.037557      0.475617
    21.482965      0.913469      0.515500
    21.513025      0.829051      0.588630
    21.543083      0.793491      0.668759
    21.573145      0.796847      0.730092
    21.603205      0.818426      0.762248
    21.633266      0.845420      0.766522
    21.663326      0.865537      0.736445
    21.693386      0.846552      0.679274
    21.723446      0.776691      0.639595
    21.753506      0.690602      0.646537
    21.783567      0.620271      0.689149
    21.813625      0.574653      0.747724
    21.843687      0.550522      0.807962
    21.873745      0.539134      0.863900
    21.903807      0.533630      0.918684
    21.933867      0.536229      0.979512
    21.963928      0.558033      1.045818
    21.993988      0.606199      1.104767
    22.024046      0.675677      1.140892
    22.054108      0.754162      1.145041
    22.084167      0.824890      1.111004
    22.114229      0.858791      1.047278
    22.144287      0.845000      0.994329
    22.174347      0.818315      0.979815
    22.204407      0.812012      0.983652
    22.234468      0.818284      0.975647
    22.264528      0.812152      0.957246
    22.294588      0.789763      0.947538
    22.324648      0.759690      0.957691
    22.354708      0.736309      0.995884
    22.384769      0.743306      1.057787
    22.414829      0.798451      1.119308
    22.444889      0.899454      1.144229
    22.474949      1.012584      1.101617
    22.505009      1.085420      1.001693
    22.535070      1.103577      0.892075
    22.565130      1.093290      0.792488
    22.595190      1.060802      0.690316
    22.625248      0.987731      0.591510
    22.655310      0.874681      0.526185
    22.685369      0.748549      0.510110
    22.715431      0.632406      0.536611
    22.745489      0.537733      0.593432
    22.775549      0.469040      0.668653
    22.805611      0.425982      0.752293
    22.835670      0.405535      0.837882
    22.865732      0.404885      0.922497
    22.895790      0.423829      1.004890
    22.925850      0.465196      1.081998
    22.955910      0.532513      1.145780
    22.985971      0.624830      1.181146
    23.016031      0.727405      1.169957
    23.046091      0.809185      1.106934
    23.076151      0.839371      1.012924
    23.106211      0.809433      0.925716
    23.136272      0.737035      0.879845
    23.166332      0.658907      0.888334
    23.196392      0.604833      0.935050
    23.226452      0.581139      0.996423
    23.256512      0.580670      1.060521
    23.286572      0.600919      1.127253
    23.316633      0.648714      1.192052
    23.346691      0.725637      1.240175
    23.376753      0.821531      1.260006
    23.406813      0.928760      1.249919
    23.436872      1.047099      1.197097
    23.466934      1.146924      1.075910
    23.496992      1.166557      0.907801
    23.527054      1.096596      0.772435
    23.557112      1.003115      0.709277
    23.587173      0.935631      0.683293
    23.617233      0.883988      0.653060
    23.647295      0.818728      0.617878
    23.677353      0.733561      0.598627
    23.707413      0.639523      0.608505
    23.737474      0.552699      0.650717
    23.767534      0.487651      0.716820
    23.797596      0.448933      0.792709
    23.827652      0.432514      0.867099
    23.857714      0.429814      0.935206
    23.887774      0.434059      1.000918
    23.917835      0.447648      1.070808
    23.947895      0.479162      1.145109
    23.977953      0.536860      1.216092
    24.008015      0.623692      1.268743
    24.038074      0.730623      1.284900
    24.068136      0.835307      1.254910
    24.098196      0.911478      1.186919
    24.128254      0.946906      1.108775
    24.158314      0.959626      1.040763
    24.188375      0.963272      0.971114
    24.218435      0.941420      0.892714
    24.248497      0.881395      0.828696
    24.278557      0.803091      0.803673
    24.308615      0.735196      0.810254
    24.338676      0.680594      0.827074
    24.368736      0.626814      0.849487
    24.398798      0.569929      0.887585
    24.428858      0.519963      0.949179
    24.458916      0.489581      1.030233
    24.488976      0.484665      1.121152
    24.519037      0.506465      1.212985
    24.549097      0.553979      1.296881
    24.579159      0.621860      1.364212
    24.609217      0.701120      1.411824
    24.639277      0.787221      1.441386
    24.669338      0.878657      1.449772
    24.699398      0.966300      1.430934
    24.729460      1.032983      1.388562
    24.759518      1.069816      1.342225
    24.789577      1.086278      1.305368
    24.819639      1.082691      1.281638
    24.849699      1.064124      1.294297
    24.879759      1.068000      1.354186
    24.909817      1.126583      1.434639
    24.939878      1.244361      1.498941
    24.969938      1.409563      1.515167
    25.000000      1.591262      1.453706
# 
# 01/08/2018 at 17:17 YAMBO @ polluce [start]
# 01/08/2018 at 17:17                 [end]
#  
# Timing   [Min/Max/Average]: 10s/10s/10s
#
# .-Input file : yambo.in
# | optics                         # [R OPT] Optics
# | chi                            # [R CHI] Dyson equation for Chi.
# | BoseTemp= 0.000000     eV      # Bosonic Temperature
# | FFTGvecs= 1807         RL      # [FFT] Plane-waves
# | X_Threads= 1                   # [OPENMP/X] Number of threads for response functions
# | DIP_Threads= 1                 # [OPENMP/X] Number of threads for dipoles
# | Chimod= "IP"                   # [X] IP/Hartree/ALDA/LRC/BSfxc
# | NGsBlkXd= 1            RL      # [Xd] Response block size
# | % QpntsRXd
# |   1 | 19 |                     # [Xd] Transferred momenta
# | %
# | % BndsRnXd
# |   2 |  7 |                     # [Xd] Polarization function bands
# | %
# | % EnRngeXd
# |  10.00000 | 25.00000 | eV      # [Xd] Energy range
# | %
# | % DmRngeXd
# |   0.10000 |  0.10000 | eV      # [Xd] Damping range
# | %
# | ETStpsXd=  500                 # [Xd] Total Energy steps
# | % LongDrXd
# | 0.1000E-4 | 0.000    | 0.000    |        # [Xd] [cc] Electric Field
# | %
# | % XfnQP_E
# |  5.350000 | 1.000000 | 1.000000 |        # [EXTQP Xd] E parameters  (c/v) eV|adim|adim
# | %
