#                                                           
#  **    **    **     ****     ****  ******     *******     
# //**  **    ****   /**/**   **/** /*////**   **/////**    
#  //****    **//**  /**//** ** /** /*   /**  **     //**   
#   //**    **  //** /** //***  /** /******  /**      /**   
#    /**   **********/**  //*   /** /*//// **/**      /**   
#    /**  /**//////**/**   /    /** /*    /**//**     **    
#    /**  /**     /**/**        /** /*******  //*******     
#    //   //      // //         //  ///////    ///////      
#                                                           
#        Version 4.3.0 Revision 15186 Hash adaf3b3          
#                  MPI+SLK+OpenMP Build                     
#                http://www.yambo-code.org                  
#
# Absorption @ Q(8) [iku] : 0.2500000  0.1250000 -0.1250000
#
#
# - Energies      are  Analyt. E
# - Wavefunctions are Slater exchange(X)+Perdew & Zunger(C)
#
# - The Green`s function is T-ordered -
#
#    E/ev[1]       EPS-Im[2]     EPS-Re[3]
#
    10.000       0.47514E-2     1.5421   
    10.030       0.47807E-2     1.5432   
    10.060       0.48103E-2     1.5444   
    10.090       0.48402E-2     1.5456   
    10.120       0.48705E-2     1.5468   
    10.150       0.49012E-2     1.5480   
    10.180       0.49322E-2     1.5492   
    10.210       0.49636E-2     1.5504   
    10.240       0.49954E-2     1.5517   
    10.271       0.50275E-2     1.5529   
    10.301       0.50601E-2     1.5542   
    10.331       0.50931E-2     1.5554   
    10.361       0.51264E-2     1.5567   
    10.391       0.51602E-2     1.5580   
    10.421       0.51944E-2     1.5593   
    10.451       0.52290E-2     1.5606   
    10.481       0.52641E-2     1.5619   
    10.511       0.52996E-2     1.5632   
    10.541       0.53355E-2     1.5646   
    10.571       0.53719E-2     1.5659   
    10.601       0.54088E-2     1.5673   
    10.631       0.54461E-2     1.5687   
    10.661       0.54840E-2     1.5701   
    10.691       0.55223E-2     1.5715   
    10.721       0.55611E-2     1.5729   
    10.752       0.56004E-2     1.5743   
    10.782       0.56403E-2     1.5757   
    10.812       0.56807E-2     1.5772   
    10.842       0.57216E-2     1.5786   
    10.872       0.57630E-2     1.5801   
    10.902       0.58050E-2     1.5816   
    10.932       0.58476E-2     1.5831   
    10.962       0.58908E-2     1.5846   
    10.992       0.59345E-2     1.5861   
    11.022       0.59789E-2     1.5877   
    11.052       0.60238E-2     1.5892   
    11.082       0.60694E-2     1.5908   
    11.112       0.61156E-2     1.5924   
    11.142       0.61625E-2     1.5940   
    11.172       0.62101E-2     1.5956   
    11.202       0.62583E-2     1.5972   
    11.232       0.63072E-2     1.5989   
    11.263       0.63568E-2     1.6005   
    11.293       0.64071E-2     1.6022   
    11.323       0.64582E-2     1.6039   
    11.353       0.65100E-2     1.6056   
    11.383       0.65625E-2     1.6073   
    11.413       0.66159E-2     1.6090   
    11.443       0.66700E-2     1.6108   
    11.473       0.67250E-2     1.6126   
    11.503       0.67808E-2     1.6144   
    11.533       0.68374E-2     1.6162   
    11.563       0.68949E-2     1.6180   
    11.593       0.69533E-2     1.6198   
    11.623       0.70126E-2     1.6217   
    11.653       0.70728E-2     1.6236   
    11.683       0.71339E-2     1.6254   
    11.713       0.71961E-2     1.6274   
    11.743       0.72592E-2     1.6293   
    11.774       0.73233E-2     1.6312   
    11.804       0.73885E-2     1.6332   
    11.834       0.74547E-2     1.6352   
    11.864       0.75220E-2     1.6372   
    11.894       0.75905E-2     1.6393   
    11.924       0.76600E-2     1.6413   
    11.954       0.77308E-2     1.6434   
    11.984       0.78027E-2     1.6455   
    12.014       0.78758E-2     1.6476   
    12.044       0.79502E-2     1.6498   
    12.074       0.80259E-2     1.6519   
    12.104       0.81029E-2     1.6541   
    12.134       0.81813E-2     1.6563   
    12.164       0.82610E-2     1.6586   
    12.194       0.83422E-2     1.6608   
    12.224       0.84248E-2     1.6631   
    12.255       0.85090E-2     1.6654   
    12.285       0.85946E-2     1.6678   
    12.315       0.86819E-2     1.6701   
    12.345       0.87707E-2     1.6725   
    12.375       0.88613E-2     1.6749   
    12.405       0.89535E-2     1.6774   
    12.435       0.90476E-2     1.6799   
    12.465       0.91434E-2     1.6824   
    12.495       0.92411E-2     1.6849   
    12.525       0.93408E-2     1.6875   
    12.555       0.94424E-2     1.6901   
    12.585       0.95460E-2     1.6927   
    12.615       0.96518E-2     1.6953   
    12.645       0.97597E-2     1.6980   
    12.675       0.98698E-2     1.7008   
    12.705       0.99823E-2     1.7035   
    12.735       0.10097E-1     1.7063   
    12.766       0.10214E-1     1.7091   
    12.796       0.10334E-1     1.7120   
    12.826       0.10457E-1     1.7149   
    12.856       0.10582E-1     1.7178   
    12.886       0.10710E-1     1.7208   
    12.916       0.10841E-1     1.7238   
    12.946       0.10975E-1     1.7269   
    12.976       0.11111E-1     1.7300   
    13.006       0.11252E-1     1.7331   
    13.036       0.11395E-1     1.7363   
    13.066       0.11542E-1     1.7395   
    13.096       0.11693E-1     1.7428   
    13.126       0.11847E-1     1.7461   
    13.156       0.12005E-1     1.7494   
    13.186       0.12168E-1     1.7529   
    13.216       0.12334E-1     1.7563   
    13.246       0.12505E-1     1.7598   
    13.277       0.12680E-1     1.7634   
    13.307       0.12861E-1     1.7670   
    13.337       0.13046E-1     1.7707   
    13.367       0.13237E-1     1.7744   
    13.396792      0.013432      1.778192
    13.426853      0.013634      1.782039
    13.456913      0.013842      1.785946
    13.486974      0.014056      1.789917
    13.517034      0.014277      1.793954
    13.547093      0.014505      1.798059
    13.577154      0.014740      1.802232
    13.607213      0.014983      1.806479
    13.637274      0.015235      1.810797
    13.667335      0.015496      1.815193
    13.697394      0.015766      1.819669
    13.727455      0.016046      1.824227
    13.757514      0.016337      1.828870
    13.787575      0.016639      1.833602
    13.817636      0.016954      1.838427
    13.847694      0.017283      1.843346
    13.877755      0.017626      1.848366
    13.907814      0.017986      1.853490
    13.937875      0.018363      1.858724
    13.967936      0.018760      1.864071
    13.997995      0.019178      1.869538
    14.028056      0.019620      1.875133
    14.058115      0.020089      1.880860
    14.088176      0.020588      1.886730
    14.118237      0.021123      1.892748
    14.148295      0.021698      1.898927
    14.178356      0.022320      1.905278
    14.208415      0.022998      1.911812
    14.238476      0.023743      1.918544
    14.268537      0.024570      1.925493
    14.298596      0.025498      1.932675
    14.328657      0.026554      1.940117
    14.358716      0.027776      1.947842
    14.388777      0.029215      1.955883
    14.418838      0.030950      1.964266
    14.448898      0.033093      1.973018
    14.478957      0.035815      1.982144
    14.509016      0.039374      1.991593
    14.539077      0.044135      2.001167
    14.569138      0.050538      2.010333
    14.599198      0.058788      2.017939
    14.629258      0.067955      2.022300
    14.659319      0.075228      2.022864
    14.689378      0.078374      2.022233
    14.719439      0.078764      2.023003
    14.749499      0.077788      2.024654
    14.779558      0.074437      2.027253
    14.809619      0.069052      2.032940
    14.839679      0.064045      2.042349
    14.869739      0.061016      2.054179
    14.899799      0.060253      2.066972
    14.929859      0.061424      2.079589
    14.959920      0.063638      2.091160
    14.989979      0.065398      2.101726
    15.020040      0.065918      2.112767
    15.050100      0.066213      2.125564
    15.080159      0.067659      2.139837
    15.110220      0.070786      2.154482
    15.140280      0.075122      2.168298
    15.170341      0.079089      2.180824
    15.200401      0.081219      2.193520
    15.230460      0.082269      2.208472
    15.260521      0.084170      2.225941
    15.290580      0.087936      2.244777
    15.320641      0.093286      2.263696
    15.350701      0.098831      2.282281
    15.380760      0.103388      2.301948
    15.410821      0.107814      2.324649
    15.440881      0.113989      2.350818
    15.470942      0.123228      2.379923
    15.501002      0.136433      2.411380
    15.531061      0.154576      2.444524
    15.561122      0.178648      2.478158
    15.591181      0.208915      2.510540
    15.621242      0.244805      2.540769
    15.651302      0.287552      2.568873
    15.681361      0.340358      2.591024
    15.711422      0.401037      2.598078
    15.741482      0.456536      2.585476
    15.771543      0.495619      2.564919
    15.801603      0.525490      2.548345
    15.831662      0.553069      2.531281
    15.861723      0.572604      2.511425
    15.891782      0.580920      2.497138
    15.921843      0.585922      2.497041
    15.951903      0.601051      2.508687
    15.981964      0.632814      2.518015
    16.012024      0.670353      2.509064
    16.042082      0.689554      2.487320
    16.072144      0.688344      2.482605
    16.102203      0.696772      2.508117
    16.132265      0.741081      2.543228
    16.162325      0.819988      2.554242
    16.192385      0.905807      2.521700
    16.222445      0.971326      2.455360
    16.252504      1.009811      2.370144
    16.282566      1.014204      2.272832
    16.312624      0.973878      2.182956
    16.342686      0.902333      2.128896
    16.372744      0.828560      2.112367
    16.402805      0.762049      2.118881
    16.432865      0.700405      2.143612
    16.462925      0.644629      2.189686
    16.492987      0.602831      2.260135
    16.523045      0.586365      2.351313
    16.553106      0.603490      2.454045
    16.583166      0.659186      2.557522
    16.613226      0.757031      2.648655
    16.643286      0.897035      2.709310
    16.673346      1.069831      2.717454
    16.703405      1.253972      2.652167
    16.733467      1.409207      2.497813
    16.763527      1.472765      2.273686
    16.793587      1.412121      2.055692
    16.823647      1.267532      1.916164
    16.853706      1.106134      1.868008
    16.883768      0.967073      1.883842
    16.913826      0.857390      1.937455
    16.943888      0.776230      2.018466
    16.973946      0.729127      2.120426
    17.004007      0.721703      2.231194
    17.034067      0.753908      2.336686
    17.064127      0.822377      2.424059
    17.094189      0.921606      2.477253
    17.124247      1.030673      2.475088
    17.154308      1.103623      2.418322
    17.184368      1.108195      2.355655
    17.214430      1.071761      2.343144
    17.244488      1.051529      2.384157
    17.274548      1.073789      2.439354
    17.304609      1.121512      2.475008
    17.334669      1.164963      2.493231
    17.364729      1.198888      2.516055
    17.394789      1.236085      2.555913
    17.424849      1.297199      2.614789
    17.454908      1.405564      2.673239
    17.484970      1.562934      2.690436
    17.515030      1.730268      2.628017
    17.545090      1.837441      2.500457
    17.575150      1.865918      2.385723
    17.605209      1.876349      2.325111
    17.635271      1.915503      2.285849
    17.665331      1.975107      2.226520
    17.695391      2.020515      2.138000
    17.725449      2.030349      2.048625
    17.755510      2.022511      1.988053
    17.785570      2.029121      1.955579
    17.815632      2.070275      1.925717
    17.845690      2.136924      1.861148
    17.875750      2.185982      1.748688
    17.905811      2.183675      1.622640
    17.935871      2.145016      1.528657
    17.965933      2.117422      1.475344
    17.995991      2.133797      1.420038
    18.026051      2.162355      1.306931
    18.056110      2.131199      1.147190
    18.086172      2.023376      1.012096
    18.116232      1.888304      0.941616
    18.146292      1.771448      0.918305
    18.176352      1.677809      0.906731
    18.206411      1.582812      0.896825
    18.236473      1.477420      0.910933
    18.266533      1.382249      0.964269
    18.296593      1.321041      1.051937
    18.326653      1.316532      1.158520
    18.356712      1.387071      1.245968
    18.386772      1.515355      1.254556
    18.416834      1.624007      1.149243
    18.446892      1.627727      0.986171
    18.476954      1.538062      0.864561
    18.507013      1.428197      0.809868
    18.537073      1.334585      0.787388
    18.567135      1.244704      0.767663
    18.597193      1.133388      0.760744
    18.627254      1.009524      0.798025
    18.657312      0.908438      0.884299
    18.687374      0.852635      0.997404
    18.717434      0.845362      1.113226
    18.747496      0.883100      1.213346
    18.777555      0.959211      1.276030
    18.807613      1.045700      1.276330
    18.837675      1.090104      1.223943
    18.867735      1.075609      1.176858
    18.897797      1.046293      1.167746
    18.927855      1.036800      1.169151
    18.957914      1.027668      1.147867
    18.987974      0.981970      1.119367
    19.018036      0.903924      1.125098
    19.048096      0.828645      1.180232
    19.078156      0.785063      1.270702
    19.108215      0.783573      1.372807
    19.138275      0.821588      1.465659
    19.168337      0.887802      1.531951
    19.198397      0.960332      1.564391
    19.228456      1.020454      1.574713
    19.258514      1.065464      1.579452
    19.288576      1.100352      1.590613
    19.318636      1.136768      1.617978
    19.348698      1.196181      1.661100
    19.378757      1.296786      1.700089
    19.408815      1.440782      1.703851
    19.438877      1.608001      1.637094
    19.468937      1.745503      1.482839
    19.498999      1.797691      1.275120
    19.529057      1.752580      1.076721
    19.559116      1.640362      0.935977
    19.589176      1.505656      0.869552
    19.619238      1.390739      0.871525
    19.649298      1.330784      0.911137
    19.679358      1.330949      0.936833
    19.709417      1.350719      0.908831
    19.739477      1.334194      0.844291
    19.769539      1.279113      0.795619
    19.799599      1.225036      0.773722
    19.829659      1.183442      0.748847
    19.859718      1.125918      0.709558
    19.889778      1.036024      0.686169
    19.919840      0.939567      0.703936
    19.949900      0.867382      0.750580
    19.979959      0.822143      0.798135
    20.010019      0.784253      0.836512
    20.040079      0.744743      0.878379
    20.070139      0.713104      0.929126
    20.100201      0.692726      0.982001
    20.130259      0.681158      1.036138
    20.160320      0.683159      1.092265
    20.190380      0.706093      1.140206
    20.220440      0.742327      1.158318
    20.250502      0.757101      1.139562
    20.280560      0.722509      1.119975
    20.310621      0.659890      1.141210
    20.340679      0.607436      1.204810
    20.370741      0.582065      1.291234
    20.400801      0.584256      1.385612
    20.430862      0.612811      1.480488
    20.460920      0.667920      1.567174
    20.490980      0.743162      1.635089
    20.521042      0.825657      1.682782
    20.551102      0.910971      1.719535
    20.581163      1.007977      1.748070
    20.611221      1.121946      1.756557
    20.641281      1.245382      1.731171
    20.671341      1.362422      1.662712
    20.701403      1.446779      1.549895
    20.731462      1.467396      1.418639
    20.761522      1.428589      1.317878
    20.791582      1.367760      1.270863
    20.821642      1.320463      1.272522
    20.851704      1.309836      1.298958
    20.881763      1.335797      1.320454
    20.911823      1.381720      1.322341
    20.941881      1.438150      1.304592
    20.971943      1.501352      1.260605
    21.002003      1.558368      1.180480
    21.032064      1.579594      1.060956
    21.062124      1.530427      0.939077
    21.092182      1.433167      0.874310
    21.122244      1.349450      0.873235
    21.152304      1.309619      0.892876
    21.182365      1.294992      0.896820
    21.212423      1.277217      0.888447
    21.242483      1.257329      0.886140
    21.272543      1.250357      0.884071
    21.302605      1.246793      0.864088
    21.332664      1.224397      0.833167
    21.362724      1.181539      0.813011
    21.392784      1.132275      0.814571
    21.422844      1.090483      0.835798
    21.452906      1.062337      0.869283
    21.482965      1.051611      0.911848
    21.513025      1.067942      0.953593
    21.543083      1.106337      0.972589
    21.573145      1.143257      0.962484
    21.603205      1.165310      0.937536
    21.633266      1.177270      0.908283
    21.663326      1.182181      0.868306
    21.693386      1.160756      0.816131
    21.723446      1.102242      0.782580
    21.753506      1.034121      0.792567
    21.783567      0.988212      0.837551
    21.813625      0.977458      0.893263
    21.843687      0.994104      0.937266
    21.873745      1.021058      0.965192
    21.903807      1.054263      0.983996
    21.933867      1.097221      0.989328
    21.963928      1.138818      0.973305
    21.993988      1.166530      0.948794
    22.024046      1.195053      0.929465
    22.054108      1.242019      0.895346
    22.084167      1.285698      0.815237
    22.114229      1.277755      0.698335
    22.144287      1.201886      0.596620
    22.174347      1.090028      0.547291
    22.204407      0.978137      0.550958
    22.234468      0.887294      0.593862
    22.264528      0.827381      0.660199
    22.294588      0.803289      0.733822
    22.324648      0.810789      0.795007
    22.354708      0.831075      0.832698
    22.384769      0.847116      0.856620
    22.414829      0.863059      0.882155
    22.444889      0.894837      0.905572
    22.474949      0.941373      0.904413
    22.505009      0.973771      0.870128
    22.535070      0.971165      0.831144
    22.565130      0.955022      0.816090
    22.595190      0.955858      0.812293
    22.625248      0.970041      0.789624
    22.655310      0.970000      0.740720
    22.685369      0.937480      0.683417
    22.715431      0.872290      0.638401
    22.745489      0.783583      0.622749
    22.775549      0.691592      0.645675
    22.805611      0.615736      0.698444
    22.835670      0.560204      0.766545
    22.865732      0.521730      0.843745
    22.895790      0.500413      0.929005
    22.925850      0.499197      1.019501
    22.955910      0.520352      1.110584
    22.985971      0.566168      1.196308
    23.016031      0.637711      1.266663
    23.046091      0.728640      1.307700
    23.076151      0.820511      1.311095
    23.106211      0.893707      1.285090
    23.136272      0.941095      1.244927
    23.166332      0.961088      1.203766
    23.196392      0.959964      1.177877
    23.226452      0.955830      1.170833
    23.256512      0.953116      1.172767
    23.286572      0.948439      1.189564
    23.316633      0.959741      1.228735
    23.346691      1.007234      1.271008
    23.376753      1.084863      1.286432
    23.406813      1.167156      1.262772
    23.436872      1.234096      1.207370
    23.466934      1.275316      1.129563
    23.496992      1.279379      1.042359
    23.527054      1.246536      0.969745
    23.557112      1.194868      0.924915
    23.587173      1.136789      0.905814
    23.617233      1.079060      0.914889
    23.647295      1.038283      0.951670
    23.677353      1.027466      0.999404
    23.707413      1.042226      1.038131
    23.737474      1.067156      1.059486
    23.767534      1.090386      1.069944
    23.797596      1.114275      1.076306
    23.827652      1.140198      1.073779
    23.857714      1.159471      1.059853
    23.887774      1.162456      1.042683
    23.917835      1.150458      1.038332
    23.947895      1.138795      1.054844
    23.977953      1.139686      1.085011
    24.008015      1.154539      1.122476
    24.038074      1.188080      1.165146
    24.068136      1.246523      1.203382
    24.098196      1.326908      1.223407
    24.128254      1.419463      1.218785
    24.158314      1.520840      1.186278
    24.188375      1.622653      1.110306
    24.218435      1.690326      0.982894
    24.248497      1.684876      0.837652
    24.278557      1.616457      0.735137
    24.308615      1.540013      0.693594
    24.338676      1.486969      0.683539
    24.368736      1.450142      0.680167
    24.398798      1.417934      0.684974
    24.428858      1.395704      0.705641
    24.458916      1.398185      0.738885
    24.488976      1.436144      0.764856
    24.519037      1.498569      0.755528
    24.549097      1.550882      0.701853
    24.579159      1.567872      0.628163
    24.609217      1.553618      0.559814
    24.639277      1.519594      0.509311
    24.669338      1.482495      0.480528
    24.699398      1.452496      0.462775
    24.729460      1.427005      0.448207
    24.759518      1.401237      0.434096
    24.789577      1.368367      0.425645
    24.819639      1.333157      0.435310
    24.849699      1.312294      0.465336
    24.879759      1.319685      0.503613
    24.909817      1.358405      0.528670
    24.939878      1.409948      0.521126
    24.969938      1.450020      0.489254
    25.000000      1.479042      0.448512
# 
# 01/08/2018 at 17:17 YAMBO @ polluce [start]
# 01/08/2018 at 17:17                 [end]
#  
# Timing   [Min/Max/Average]: 10s/10s/10s
#
# .-Input file : yambo.in
# | optics                         # [R OPT] Optics
# | chi                            # [R CHI] Dyson equation for Chi.
# | BoseTemp= 0.000000     eV      # Bosonic Temperature
# | FFTGvecs= 1807         RL      # [FFT] Plane-waves
# | X_Threads= 1                   # [OPENMP/X] Number of threads for response functions
# | DIP_Threads= 1                 # [OPENMP/X] Number of threads for dipoles
# | Chimod= "IP"                   # [X] IP/Hartree/ALDA/LRC/BSfxc
# | NGsBlkXd= 1            RL      # [Xd] Response block size
# | % QpntsRXd
# |   1 | 19 |                     # [Xd] Transferred momenta
# | %
# | % BndsRnXd
# |   2 |  7 |                     # [Xd] Polarization function bands
# | %
# | % EnRngeXd
# |  10.00000 | 25.00000 | eV      # [Xd] Energy range
# | %
# | % DmRngeXd
# |   0.10000 |  0.10000 | eV      # [Xd] Damping range
# | %
# | ETStpsXd=  500                 # [Xd] Total Energy steps
# | % LongDrXd
# | 0.1000E-4 | 0.000    | 0.000    |        # [Xd] [cc] Electric Field
# | %
# | % XfnQP_E
# |  5.350000 | 1.000000 | 1.000000 |        # [EXTQP Xd] E parameters  (c/v) eV|adim|adim
# | %
