#                                                           
#  **    **    **     ****     ****  ******     *******     
# //**  **    ****   /**/**   **/** /*////**   **/////**    
#  //****    **//**  /**//** ** /** /*   /**  **     //**   
#   //**    **  //** /** //***  /** /******  /**      /**   
#    /**   **********/**  //*   /** /*//// **/**      /**   
#    /**  /**//////**/**   /    /** /*    /**//**     **    
#    /**  /**     /**/**        /** /*******  //*******     
#    //   //      // //         //  ///////    ///////      
#                                                           
#        Version 4.3.0 Revision 15186 Hash adaf3b3          
#                  MPI+SLK+OpenMP Build                     
#                http://www.yambo-code.org                  
#
# Absorption @ Q(14) [iku] : 0.3750000  0.0000000  0.0000000
#
#
# - Energies      are  Analyt. E
# - Wavefunctions are Slater exchange(X)+Perdew & Zunger(C)
#
# - The Green`s function is T-ordered -
#
#    E/ev[1]       EPS-Im[2]     EPS-Re[3]
#
    10.000       0.39791E-2     1.4633   
    10.030       0.40027E-2     1.4643   
    10.060       0.40266E-2     1.4653   
    10.090       0.40508E-2     1.4662   
    10.120       0.40752E-2     1.4672   
    10.150       0.41000E-2     1.4682   
    10.180       0.41250E-2     1.4692   
    10.210       0.41503E-2     1.4703   
    10.240       0.41759E-2     1.4713   
    10.271       0.42018E-2     1.4723   
    10.301       0.42280E-2     1.4734   
    10.331       0.42545E-2     1.4744   
    10.361       0.42814E-2     1.4755   
    10.391       0.43085E-2     1.4765   
    10.421       0.43360E-2     1.4776   
    10.451       0.43638E-2     1.4787   
    10.481       0.43919E-2     1.4798   
    10.511       0.44204E-2     1.4809   
    10.541       0.44493E-2     1.4820   
    10.571       0.44784E-2     1.4831   
    10.601       0.45080E-2     1.4843   
    10.631       0.45379E-2     1.4854   
    10.661       0.45682E-2     1.4866   
    10.691       0.45988E-2     1.4877   
    10.721       0.46298E-2     1.4889   
    10.752       0.46613E-2     1.4901   
    10.782       0.46931E-2     1.4912   
    10.812       0.47253E-2     1.4924   
    10.842       0.47580E-2     1.4937   
    10.872       0.47910E-2     1.4949   
    10.902       0.48245E-2     1.4961   
    10.932       0.48584E-2     1.4973   
    10.962       0.48928E-2     1.4986   
    10.992       0.49276E-2     1.4999   
    11.022       0.49628E-2     1.5011   
    11.052       0.49986E-2     1.5024   
    11.082       0.50348E-2     1.5037   
    11.112       0.50715E-2     1.5050   
    11.142       0.51086E-2     1.5063   
    11.172       0.51463E-2     1.5077   
    11.202       0.51845E-2     1.5090   
    11.232       0.52232E-2     1.5103   
    11.263       0.52625E-2     1.5117   
    11.293       0.53022E-2     1.5131   
    11.323       0.53426E-2     1.5145   
    11.353       0.53835E-2     1.5159   
    11.383       0.54249E-2     1.5173   
    11.413       0.54670E-2     1.5187   
    11.443       0.55097E-2     1.5202   
    11.473       0.55529E-2     1.5216   
    11.503       0.55968E-2     1.5231   
    11.533       0.56413E-2     1.5246   
    11.563       0.56865E-2     1.5261   
    11.593       0.57323E-2     1.5276   
    11.623       0.57788E-2     1.5291   
    11.653       0.58260E-2     1.5306   
    11.683       0.58739E-2     1.5322   
    11.713       0.59225E-2     1.5337   
    11.743       0.59718E-2     1.5353   
    11.774       0.60219E-2     1.5369   
    11.804       0.60727E-2     1.5385   
    11.834       0.61244E-2     1.5402   
    11.864       0.61768E-2     1.5418   
    11.894       0.62300E-2     1.5435   
    11.924       0.62841E-2     1.5451   
    11.954       0.63390E-2     1.5468   
    11.984       0.63948E-2     1.5486   
    12.014       0.64515E-2     1.5503   
    12.044       0.65092E-2     1.5520   
    12.074       0.65677E-2     1.5538   
    12.104       0.66272E-2     1.5556   
    12.134       0.66877E-2     1.5574   
    12.164       0.67492E-2     1.5592   
    12.194       0.68117E-2     1.5610   
    12.224       0.68753E-2     1.5629   
    12.255       0.69399E-2     1.5648   
    12.285       0.70057E-2     1.5667   
    12.315       0.70725E-2     1.5686   
    12.345       0.71406E-2     1.5705   
    12.375       0.72098E-2     1.5725   
    12.405       0.72803E-2     1.5745   
    12.435       0.73520E-2     1.5765   
    12.465       0.74250E-2     1.5785   
    12.495       0.74993E-2     1.5805   
    12.525       0.75750E-2     1.5826   
    12.555       0.76520E-2     1.5847   
    12.585       0.77305E-2     1.5868   
    12.615       0.78105E-2     1.5889   
    12.645       0.78919E-2     1.5911   
    12.675       0.79749E-2     1.5933   
    12.705       0.80595E-2     1.5955   
    12.735       0.81458E-2     1.5978   
    12.766       0.82337E-2     1.6000   
    12.796       0.83234E-2     1.6023   
    12.826       0.84148E-2     1.6046   
    12.856       0.85081E-2     1.6070   
    12.886       0.86033E-2     1.6094   
    12.916       0.87005E-2     1.6118   
    12.946       0.87996E-2     1.6142   
    12.976       0.89008E-2     1.6167   
    13.006       0.90042E-2     1.6192   
    13.036       0.91098E-2     1.6217   
    13.066       0.92176E-2     1.6243   
    13.096       0.93278E-2     1.6269   
    13.126       0.94405E-2     1.6295   
    13.156       0.95556E-2     1.6322   
    13.186       0.96734E-2     1.6349   
    13.216       0.97938E-2     1.6376   
    13.246       0.99171E-2     1.6404   
    13.277       0.10043E-1     1.6432   
    13.307       0.10172E-1     1.6460   
    13.337       0.10304E-1     1.6489   
    13.367       0.10440E-1     1.6518   
    13.397       0.10579E-1     1.6548   
    13.427       0.10721E-1     1.6578   
    13.457       0.10866E-1     1.6609   
    13.487       0.11016E-1     1.6640   
    13.517       0.11169E-1     1.6671   
    13.547       0.11327E-1     1.6703   
    13.577       0.11488E-1     1.6736   
    13.607       0.11654E-1     1.6769   
    13.637       0.11824E-1     1.6802   
    13.667       0.12000E-1     1.6836   
    13.697       0.12180E-1     1.6870   
    13.727       0.12365E-1     1.6905   
    13.758       0.12556E-1     1.6941   
    13.788       0.12752E-1     1.6977   
    13.818       0.12954E-1     1.7014   
    13.848       0.13163E-1     1.7051   
    13.878       0.13378E-1     1.7089   
    13.908       0.13600E-1     1.7128   
    13.938       0.13829E-1     1.7167   
    13.967936      0.014065      1.720736
    13.997995      0.014310      1.724812
    14.028056      0.014563      1.728964
    14.058115      0.014824      1.733191
    14.088176      0.015095      1.737500
    14.118237      0.015376      1.741890
    14.148295      0.015668      1.746367
    14.178356      0.015971      1.750932
    14.208415      0.016285      1.755590
    14.238476      0.016613      1.760343
    14.268537      0.016953      1.765196
    14.298596      0.017308      1.770153
    14.328657      0.017679      1.775218
    14.358716      0.018066      1.780396
    14.388777      0.018471      1.785692
    14.418838      0.018896      1.791110
    14.448898      0.019341      1.796658
    14.478957      0.019809      1.802342
    14.509016      0.020302      1.808167
    14.539077      0.020822      1.814143
    14.569138      0.021371      1.820276
    14.599198      0.021953      1.826575
    14.629258      0.022571      1.833051
    14.659319      0.023230      1.839714
    14.689378      0.023933      1.846576
    14.719439      0.024687      1.853650
    14.749499      0.025498      1.860951
    14.779558      0.026374      1.868495
    14.809619      0.027326      1.876301
    14.839679      0.028366      1.884390
    14.869739      0.029508      1.892788
    14.899799      0.030772      1.901521
    14.929859      0.032183      1.910621
    14.959920      0.033773      1.920126
    14.989979      0.035586      1.930079
    15.020040      0.037682      1.940530
    15.050100      0.040142      1.951535
    15.080159      0.043084      1.963160
    15.110220      0.046678      1.975464
    15.140280      0.051180      1.988501
    15.170341      0.056971      2.002271
    15.200401      0.064625      2.016629
    15.230460      0.074961      2.031071
    15.260521      0.088933      2.044271
    15.290580      0.106844      2.053372
    15.320641      0.125990      2.054152
    15.350701      0.138364      2.045451
    15.380760      0.136871      2.035598
    15.410821      0.125684      2.035366
    15.440881      0.114031      2.046385
    15.470942      0.106560      2.064723
    15.501002      0.103931      2.087037
    15.531061      0.105694      2.111689
    15.561122      0.111571      2.138070
    15.591181      0.121785      2.165925
    15.621242      0.137112      2.194868
    15.651302      0.158716      2.223812
    15.681361      0.187386      2.250427
    15.711422      0.221968      2.271766
    15.741482      0.259783      2.287108
    15.771543      0.301087      2.296899
    15.801603      0.345534      2.296274
    15.831662      0.382929      2.282756
    15.861723      0.405893      2.269265
    15.891782      0.425931      2.267550
    15.921843      0.457541      2.272101
    15.951903      0.505727      2.268633
    15.981964      0.562174      2.239868
    16.012024      0.602498      2.182466
    16.042082      0.613611      2.116399
    16.072144      0.601960      2.052337
    16.102203      0.562318      1.994363
    16.132265      0.495947      1.965017
    16.162325      0.428765      1.976167
    16.192385      0.382260      2.015502
    16.222445      0.362359      2.065959
    16.252504      0.367537      2.113792
    16.282566      0.391345      2.146091
    16.312624      0.416969      2.153486
    16.342686      0.420903      2.145560
    16.372744      0.399788      2.150668
    16.402805      0.374754      2.183681
    16.432865      0.363795      2.238693
    16.462925      0.373679      2.305847
    16.492987      0.407127      2.378024
    16.523045      0.467308      2.448509
    16.553106      0.556988      2.507091
    16.583166      0.672814      2.539682
    16.613226      0.803009      2.537073
    16.643286      0.939846      2.496896
    16.673346      1.075371      2.406974
    16.703405      1.182318      2.258568
    16.733467      1.227879      2.061965
    16.763527      1.177588      1.850725
    16.793587      1.031444      1.693773
    16.823647      0.850042      1.634026
    16.853706      0.692210      1.653924
    16.883768      0.579432      1.716017
    16.913826      0.509678      1.791526
    16.943888      0.472611      1.862388
    16.973946      0.452766      1.918554
    17.004007      0.432100      1.963123
    17.034067      0.404508      2.011811
    17.064127      0.379562      2.074293
    17.094189      0.366725      2.148117
    17.124247      0.369493      2.227838
    17.154308      0.389018      2.309044
    17.184368      0.426152      2.386749
    17.214430      0.479176      2.453273
    17.244488      0.537774      2.501502
    17.274548      0.585160      2.538826
    17.304609      0.621562      2.588867
    17.334669      0.670957      2.662346
    17.364729      0.755774      2.745577
    17.394789      0.882354      2.812843
    17.424849      1.037132      2.839581
    17.454908      1.193900      2.819294
    17.484970      1.337379      2.762301
    17.515030      1.461907      2.669470
    17.545090      1.540300      2.543958
    17.575150      1.553659      2.431918
    17.605209      1.543461      2.378857
    17.635271      1.570970      2.368645
    17.665331      1.654595      2.341143
    17.695391      1.751507      2.244446
    17.725449      1.787379      2.090303
    17.755510      1.735822      1.953259
    17.785570      1.644295      1.890323
    17.815632      1.577808      1.898714
    17.845690      1.573760      1.930911
    17.875750      1.614511      1.931804
    17.905811      1.650030      1.896996
    17.935871      1.673450      1.863395
    17.965933      1.717296      1.826156
    17.995991      1.766694      1.742385
    18.026051      1.762595      1.623576
    18.056110      1.701707      1.535460
    18.086172      1.640510      1.494984
    18.116232      1.598744      1.462739
    18.146292      1.550274      1.423033
    18.176352      1.477421      1.392750
    18.206411      1.382144      1.400446
    18.236473      1.296452      1.467534
    18.266533      1.257988      1.581543
    18.296593      1.284420      1.717618
    18.326653      1.390523      1.852743
    18.356712      1.592379      1.944344
    18.386772      1.874105      1.919575
    18.416834      2.144310      1.715242
    18.446892      2.262550      1.373425
    18.476954      2.183632      1.052589
    18.507013      2.019198      0.862670
    18.537073      1.890815      0.758879
    18.567135      1.796752      0.638355
    18.597193      1.646430      0.486274
    18.627254      1.410228      0.390966
    18.657312      1.159044      0.404634
    18.687374      0.955937      0.499116
    18.717434      0.815675      0.630793
    18.747496      0.731177      0.772765
    18.777555      0.693834      0.911412
    18.807613      0.698854      1.036930
    18.837675      0.742259      1.135698
    18.867735      0.810336      1.188635
    18.897797      0.870132      1.186899
    18.927855      0.889156      1.152340
    18.957914      0.861448      1.119522
    18.987974      0.800328      1.117218
    19.018036      0.736480      1.159431
    19.048096      0.698843      1.232606
    19.078156      0.694446      1.311129
    19.108215      0.711013      1.377947
    19.138275      0.733740      1.434529
    19.168337      0.760345      1.488244
    19.198397      0.790109      1.542405
    19.228456      0.826441      1.608336
    19.258514      0.892227      1.690480
    19.288576      1.011906      1.766332
    19.318636      1.187664      1.793439
    19.348698      1.386111      1.730542
    19.378757      1.545856      1.568197
    19.408815      1.608702      1.344355
    19.438877      1.561453      1.130923
    19.468937      1.441936      0.975289
    19.498999      1.286840      0.889896
    19.529057      1.130287      0.877353
    19.559116      1.002273      0.922592
    19.589176      0.918453      1.002567
    19.619238      0.882246      1.093566
    19.649298      0.888285      1.178303
    19.679358      0.932964      1.242495
    19.709417      1.004977      1.263190
    19.739477      1.068036      1.225959
    19.769539      1.078738      1.155367
    19.799599      1.034923      1.107812
    19.829659      0.985061      1.109202
    19.859718      0.967073      1.131248
    19.889778      0.974213      1.133025
    19.919840      0.966236      1.101970
    19.949900      0.912961      1.073984
    19.979959      0.837644      1.091607
    20.010019      0.782726      1.152682
    20.040079      0.765590      1.229541
    20.070139      0.779546      1.297964
    20.100201      0.805323      1.350887
    20.130259      0.833356      1.402561
    20.160320      0.879713      1.464598
    20.190380      0.969033      1.521443
    20.220440      1.104765      1.530686
    20.250502      1.243740      1.450349
    20.280560      1.309092      1.293814
    20.310621      1.267348      1.140548
    20.340679      1.164129      1.056027
    20.370741      1.060002      1.038040
    20.400801      0.972980      1.059080
    20.430862      0.905996      1.113064
    20.460920      0.876970      1.192935
    20.490980      0.898161      1.271728
    20.521042      0.957557      1.316999
    20.551102      1.020740      1.315434
    20.581163      1.059291      1.284459
    20.611221      1.067722      1.248981
    20.641281      1.057099      1.230444
    20.671341      1.054747      1.229249
    20.701403      1.066194      1.216671
    20.731462      1.061478      1.183463
    20.761522      1.024456      1.156072
    20.791582      0.966400      1.157704
    20.821642      0.908691      1.199687
    20.851704      0.876983      1.275287
    20.881763      0.881222      1.363944
    20.911823      0.917677      1.454081
    20.941881      0.990125      1.542027
    20.971943      1.108740      1.611900
    21.002003      1.270176      1.632332
    21.032064      1.442626      1.573401
    21.062124      1.570542      1.433804
    21.092182      1.603277      1.263829
    21.122244      1.559349      1.148383
    21.152304      1.526822      1.106156
    21.182365      1.552830      1.068301
    21.212423      1.595275      0.969577
    21.242483      1.582321      0.822883
    21.272543      1.497793      0.687022
    21.302605      1.365206      0.596009
    21.332664      1.212750      0.566395
    21.362724      1.074398      0.595477
    21.392784      0.970082      0.663532
    21.422844      0.906113      0.750781
    21.452906      0.881751      0.840483
    21.482965      0.893223      0.918028
    21.513025      0.930405      0.965911
    21.543083      0.964372      0.974823
    21.573145      0.967882      0.971340
    21.603205      0.959425      0.989377
    21.633266      0.972230      1.016987
    21.663326      0.999195      1.020291
    21.693386      1.003040      0.998797
    21.723446      0.970240      0.987988
    21.753506      0.920880      1.015108
    21.783567      0.884564      1.086346
    21.813625      0.888200      1.189402
    21.843687      0.946946      1.300427
    21.873745      1.064150      1.391263
    21.903807      1.228902      1.431012
    21.933867      1.409411      1.396609
    21.963928      1.562978      1.293811
    21.993988      1.670984      1.157677
    22.024046      1.755120      1.005825
    22.054108      1.819535      0.807254
    22.084167      1.804371      0.548170
    22.114229      1.653174      0.301234
    22.144287      1.407363      0.162891
    22.174347      1.158628      0.150656
    22.204407      0.962807      0.222333
    22.234468      0.830132      0.331774
    22.264528      0.750608      0.452473
    22.294588      0.715517      0.572846
    22.324648      0.720720      0.682922
    22.354708      0.758794      0.770849
    22.384769      0.816233      0.830558
    22.414829      0.884152      0.866239
    22.444889      0.966830      0.878029
    22.474949      1.065207      0.846392
    22.505009      1.150420      0.745965
    22.535070      1.163417      0.585176
    22.565130      1.067685      0.435433
    22.595190      0.910248      0.369193
    22.625248      0.763120      0.383736
    22.655310      0.654491      0.439185
    22.685369      0.580460      0.506828
    22.715431      0.531003      0.573812
    22.745489      0.496838      0.633299
    22.775549      0.465651      0.683984
    22.805611      0.429035      0.735895
    22.835670      0.392468      0.799457
    22.865732      0.365066      0.874165
    22.895790      0.350245      0.954814
    22.925850      0.347667      1.037479
    22.955910      0.355953      1.119939
    22.985971      0.373410      1.201531
    23.016031      0.399682      1.283476
    23.046091      0.437761      1.366098
    23.076151      0.491236      1.444809
    23.106211      0.557949      1.510471
    23.136272      0.624602      1.557793
    23.166332      0.675440      1.599238
    23.196392      0.713912      1.659463
    23.226452      0.763635      1.751770
    23.256512      0.851174      1.870536
    23.286572      0.997531      1.997669
    23.316633      1.217947      2.104077
    23.346691      1.514187      2.144786
    23.376753      1.853773      2.067324
    23.406813      2.165466      1.848382
    23.436872      2.378836      1.515692
    23.466934      2.449304      1.120996
    23.496992      2.347569      0.740655
    23.527054      2.108756      0.479226
    23.557112      1.843362      0.375334
    23.587173      1.627383      0.376790
    23.617233      1.469198      0.431426
    23.647295      1.364024      0.516093
    23.677353      1.308646      0.615432
    23.707413      1.302259      0.722892
    23.737474      1.360003      0.827119
    23.767534      1.494895      0.885463
    23.797596      1.672922      0.832225
    23.827652      1.789802      0.645806
    23.857714      1.756620      0.419642
    23.887774      1.610717      0.271305
    23.917835      1.440376      0.224940
    23.947895      1.295560      0.252387
    23.977953      1.193130      0.319324
    24.008015      1.125713      0.402679
    24.038074      1.087058      0.502070
    24.068136      1.087296      0.615778
    24.098196      1.135915      0.730468
    24.128254      1.238250      0.826837
    24.158314      1.388911      0.875325
    24.188375      1.555721      0.850340
    24.218435      1.693717      0.760536
    24.248497      1.783906      0.643454
    24.278557      1.845820      0.529968
    24.308615      1.911767      0.406019
    24.338676      1.961791      0.227699
    24.369        1.9256       0.11707E-1
    24.398798      1.796652     -0.152340
    24.428858      1.654297     -0.227782
    24.458916      1.551307     -0.258912
    24.488976      1.477059     -0.291988
    24.519037      1.406234     -0.330531
    24.549097      1.339916     -0.371484
    24.579159      1.265797     -0.430359
    24.609217      1.150932     -0.490396
    24.639277      1.003907     -0.506189
    24.669338      0.867782     -0.469678
    24.699398      0.763272     -0.405079
    24.729460      0.689742     -0.330102
    24.759518      0.646083     -0.256635
    24.789577      0.624714     -0.200426
    24.819639      0.602968     -0.167643
    24.849699      0.562282     -0.138970
    24.879759      0.512453     -0.090335
    24.910       0.47476       -.19419E-1
    24.939878      0.460680      0.063551
    24.969938      0.474207      0.148600
    25.000000      0.518281      0.226289
# 
# 01/08/2018 at 17:17 YAMBO @ polluce [start]
# 01/08/2018 at 17:17                 [end]
#  
# Timing   [Min/Max/Average]: 10s/10s/10s
#
# .-Input file : yambo.in
# | optics                         # [R OPT] Optics
# | chi                            # [R CHI] Dyson equation for Chi.
# | BoseTemp= 0.000000     eV      # Bosonic Temperature
# | FFTGvecs= 1807         RL      # [FFT] Plane-waves
# | X_Threads= 1                   # [OPENMP/X] Number of threads for response functions
# | DIP_Threads= 1                 # [OPENMP/X] Number of threads for dipoles
# | Chimod= "IP"                   # [X] IP/Hartree/ALDA/LRC/BSfxc
# | NGsBlkXd= 1            RL      # [Xd] Response block size
# | % QpntsRXd
# |   1 | 19 |                     # [Xd] Transferred momenta
# | %
# | % BndsRnXd
# |   2 |  7 |                     # [Xd] Polarization function bands
# | %
# | % EnRngeXd
# |  10.00000 | 25.00000 | eV      # [Xd] Energy range
# | %
# | % DmRngeXd
# |   0.10000 |  0.10000 | eV      # [Xd] Damping range
# | %
# | ETStpsXd=  500                 # [Xd] Total Energy steps
# | % LongDrXd
# | 0.1000E-4 | 0.000    | 0.000    |        # [Xd] [cc] Electric Field
# | %
# | % XfnQP_E
# |  5.350000 | 1.000000 | 1.000000 |        # [EXTQP Xd] E parameters  (c/v) eV|adim|adim
# | %
