#                                                           
#  **    **    **     ****     ****  ******     *******     
# //**  **    ****   /**/**   **/** /*////**   **/////**    
#  //****    **//**  /**//** ** /** /*   /**  **     //**   
#   //**    **  //** /** //***  /** /******  /**      /**   
#    /**   **********/**  //*   /** /*//// **/**      /**   
#    /**  /**//////**/**   /    /** /*    /**//**     **    
#    /**  /**     /**/**        /** /*******  //*******     
#    //   //      // //         //  ///////    ///////      
#                                                           
#        Version 4.3.0 Revision 15186 Hash adaf3b3          
#                  MPI+SLK+OpenMP Build                     
#                http://www.yambo-code.org                  
#
# Absorption @ Q(7) [iku] :0.25000    -.25000    0.18034E-7
#
#
# - Energies      are  Analyt. E
# - Wavefunctions are Slater exchange(X)+Perdew & Zunger(C)
#
# - The Green`s function is T-ordered -
#
#    E/ev[1]       EPS-Im[2]     EPS-Re[3]
#
    10.000       0.42176E-2     1.4889   
    10.030       0.42430E-2     1.4899   
    10.060       0.42688E-2     1.4910   
    10.090       0.42948E-2     1.4920   
    10.120       0.43212E-2     1.4931   
    10.150       0.43478E-2     1.4941   
    10.180       0.43748E-2     1.4952   
    10.210       0.44021E-2     1.4963   
    10.240       0.44297E-2     1.4974   
    10.271       0.44576E-2     1.4985   
    10.301       0.44859E-2     1.4996   
    10.331       0.45145E-2     1.5007   
    10.361       0.45435E-2     1.5018   
    10.391       0.45728E-2     1.5029   
    10.421       0.46025E-2     1.5041   
    10.451       0.46325E-2     1.5052   
    10.481       0.46629E-2     1.5064   
    10.511       0.46937E-2     1.5076   
    10.541       0.47249E-2     1.5088   
    10.571       0.47565E-2     1.5100   
    10.601       0.47884E-2     1.5112   
    10.631       0.48208E-2     1.5124   
    10.661       0.48535E-2     1.5136   
    10.691       0.48867E-2     1.5148   
    10.721       0.49203E-2     1.5161   
    10.752       0.49544E-2     1.5173   
    10.782       0.49889E-2     1.5186   
    10.812       0.50238E-2     1.5199   
    10.842       0.50592E-2     1.5211   
    10.872       0.50950E-2     1.5224   
    10.902       0.51314E-2     1.5238   
    10.932       0.51682E-2     1.5251   
    10.962       0.52055E-2     1.5264   
    10.992       0.52433E-2     1.5278   
    11.022       0.52816E-2     1.5291   
    11.052       0.53204E-2     1.5305   
    11.082       0.53598E-2     1.5319   
    11.112       0.53997E-2     1.5332   
    11.142       0.54401E-2     1.5347   
    11.172       0.54812E-2     1.5361   
    11.202       0.55227E-2     1.5375   
    11.232       0.55649E-2     1.5389   
    11.263       0.56077E-2     1.5404   
    11.293       0.56510E-2     1.5419   
    11.323       0.56950E-2     1.5434   
    11.353       0.57396E-2     1.5449   
    11.383       0.57849E-2     1.5464   
    11.413       0.58308E-2     1.5479   
    11.443       0.58774E-2     1.5494   
    11.473       0.59246E-2     1.5510   
    11.503       0.59726E-2     1.5525   
    11.533       0.60213E-2     1.5541   
    11.563       0.60707E-2     1.5557   
    11.593       0.61209E-2     1.5573   
    11.623       0.61718E-2     1.5590   
    11.653       0.62235E-2     1.5606   
    11.683       0.62760E-2     1.5623   
    11.713       0.63293E-2     1.5640   
    11.743       0.63834E-2     1.5657   
    11.774       0.64384E-2     1.5674   
    11.804       0.64942E-2     1.5691   
    11.834       0.65510E-2     1.5708   
    11.864       0.66086E-2     1.5726   
    11.894       0.66672E-2     1.5744   
    11.924       0.67267E-2     1.5762   
    11.954       0.67872E-2     1.5780   
    11.984       0.68487E-2     1.5798   
    12.014       0.69112E-2     1.5817   
    12.044       0.69747E-2     1.5836   
    12.074       0.70394E-2     1.5855   
    12.104       0.71051E-2     1.5874   
    12.134       0.71719E-2     1.5893   
    12.164       0.72399E-2     1.5913   
    12.194       0.73091E-2     1.5932   
    12.224       0.73795E-2     1.5952   
    12.255       0.74511E-2     1.5972   
    12.285       0.75240E-2     1.5993   
    12.315       0.75982E-2     1.6014   
    12.345       0.76738E-2     1.6034   
    12.375       0.77507E-2     1.6055   
    12.405       0.78291E-2     1.6077   
    12.435       0.79088E-2     1.6098   
    12.465       0.79901E-2     1.6120   
    12.495       0.80730E-2     1.6142   
    12.525       0.81574E-2     1.6165   
    12.555       0.82434E-2     1.6187   
    12.585       0.83311E-2     1.6210   
    12.615       0.84205E-2     1.6233   
    12.645       0.85117E-2     1.6257   
    12.675       0.86047E-2     1.6280   
    12.705       0.86995E-2     1.6304   
    12.735       0.87963E-2     1.6328   
    12.766       0.88951E-2     1.6353   
    12.796       0.89960E-2     1.6378   
    12.826       0.90989E-2     1.6403   
    12.856       0.92041E-2     1.6428   
    12.886       0.93115E-2     1.6454   
    12.916       0.94212E-2     1.6480   
    12.946       0.95333E-2     1.6507   
    12.976       0.96479E-2     1.6534   
    13.006       0.97651E-2     1.6561   
    13.036       0.98849E-2     1.6588   
    13.066       0.10007E-1     1.6616   
    13.096       0.10133E-1     1.6644   
    13.126       0.10261E-1     1.6673   
    13.156       0.10393E-1     1.6702   
    13.186       0.10527E-1     1.6731   
    13.216       0.10665E-1     1.6761   
    13.246       0.10806E-1     1.6792   
    13.277       0.10951E-1     1.6822   
    13.307       0.11100E-1     1.6853   
    13.337       0.11252E-1     1.6885   
    13.367       0.11408E-1     1.6917   
    13.397       0.11569E-1     1.6950   
    13.427       0.11734E-1     1.6983   
    13.457       0.11903E-1     1.7016   
    13.487       0.12077E-1     1.7050   
    13.517       0.12256E-1     1.7085   
    13.547       0.12440E-1     1.7120   
    13.577       0.12629E-1     1.7156   
    13.607       0.12824E-1     1.7192   
    13.637       0.13025E-1     1.7229   
    13.667       0.13232E-1     1.7266   
    13.697       0.13446E-1     1.7304   
    13.727       0.13666E-1     1.7343   
    13.757514      0.013894      1.738244
    13.787575      0.014129      1.742257
    13.817636      0.014373      1.746341
    13.847694      0.014625      1.750499
    13.877755      0.014885      1.754734
    13.907814      0.015156      1.759048
    13.937875      0.015436      1.763446
    13.967936      0.015728      1.767928
    13.997995      0.016031      1.772500
    14.028056      0.016347      1.777164
    14.058115      0.016675      1.781923
    14.088176      0.017019      1.786783
    14.118237      0.017377      1.791747
    14.148295      0.017753      1.796821
    14.178356      0.018146      1.802008
    14.208415      0.018560      1.807315
    14.238476      0.018995      1.812748
    14.268537      0.019454      1.818313
    14.298596      0.019940      1.824016
    14.328657      0.020456      1.829867
    14.358716      0.021005      1.835873
    14.388777      0.021591      1.842045
    14.418838      0.022220      1.848394
    14.448898      0.022898      1.854930
    14.478957      0.023632      1.861669
    14.509016      0.024433      1.868625
    14.539077      0.025313      1.875818
    14.569138      0.026288      1.883268
    14.599198      0.027379      1.890998
    14.629258      0.028613      1.899036
    14.659319      0.030030      1.907415
    14.689378      0.031683      1.916170
    14.719439      0.033647      1.925344
    14.749499      0.036034      1.934976
    14.779558      0.039008      1.945096
    14.809619      0.042817      1.955705
    14.839679      0.047828      1.966699
    14.869739      0.054553      1.977741
    14.899799      0.063545      1.987957
    14.929859      0.074813      1.995564
    14.959920      0.086358      1.998327
    14.989979      0.093594      1.996630
    15.020040      0.094190      1.995886
    15.050100      0.092194      2.000626
    15.080159      0.092772      2.009640
    15.110220      0.097804      2.018731
    15.140280      0.105392      2.023502
    15.170341      0.109800      2.022500
    15.200401      0.106102      2.020889
    15.230460      0.096803      2.025403
    15.260521      0.087562      2.036911
    15.290580      0.081084      2.052841
    15.320641      0.077548      2.071064
    15.350701      0.076426      2.090555
    15.380760      0.077231      2.110970
    15.410821      0.079682      2.132291
    15.440881      0.083693      2.154640
    15.470942      0.089362      2.178205
    15.501002      0.096972      2.203194
    15.531061      0.107040      2.229789
    15.561122      0.120392      2.258064
    15.591181      0.138266      2.287745
    15.621242      0.162309      2.317760
    15.651302      0.194022      2.345412
    15.681361      0.232764      2.366066
    15.711422      0.273271      2.376113
    15.741482      0.309020      2.378222
    15.771543      0.338941      2.378289
    15.801603      0.366173      2.380440
    15.831662      0.397489      2.384058
    15.861723      0.434970      2.379490
    15.891782      0.467729      2.359825
    15.921843      0.482856      2.331481
    15.951903      0.475485      2.309762
    15.981964      0.455422      2.311451
    16.012024      0.442607      2.338562
    16.042082      0.448884      2.379845
    16.072144      0.476319      2.423594
    16.102203      0.521958      2.461183
    16.132265      0.581883      2.488446
    16.162325      0.654843      2.500198
    16.192385      0.732822      2.487707
    16.222445      0.801234      2.452678
    16.252504      0.853575      2.404720
    16.282566      0.888718      2.351554
    16.312624      0.906954      2.301381
    16.342686      0.916725      2.264167
    16.372744      0.936037      2.235345
    16.402805      0.966795      2.190833
    16.432865      0.980874      2.117562
    16.462925      0.949306      2.040245
    16.492987      0.880725      2.000837
    16.523045      0.815613      2.014900
    16.553106      0.787930      2.061662
    16.583166      0.804316      2.106367
    16.613226      0.845128      2.123900
    16.643286      0.883505      2.117405
    16.673346      0.918156      2.106632
    16.703405      0.968475      2.086745
    16.733467      1.028179      2.024162
    16.763527      1.044018      1.909578
    16.793587      0.979350      1.802784
    16.823647      0.877518      1.760560
    16.853706      0.794937      1.768964
    16.883768      0.739836      1.787713
    16.913826      0.687948      1.802561
    16.943888      0.626666      1.831462
    16.973946      0.571630      1.888905
    17.004007      0.541592      1.968081
    17.034067      0.544425      2.054105
    17.064127      0.581198      2.131342
    17.094189      0.645795      2.181152
    17.124247      0.715297      2.187071
    17.154308      0.752935      2.158488
    17.184368      0.745967      2.137327
    17.214430      0.724891      2.153779
    17.244488      0.725518      2.197302
    17.274548      0.756426      2.237398
    17.304609      0.798841      2.252677
    17.334669      0.827530      2.247627
    17.364729      0.833057      2.240107
    17.394789      0.815395      2.248073
    17.424849      0.788550      2.291781
    17.454908      0.781572      2.374542
    17.484970      0.816274      2.478358
    17.515030      0.897666      2.578223
    17.545090      1.014617      2.654025
    17.575150      1.150519      2.704067
    17.605209      1.309117      2.735909
    17.635271      1.506269      2.730834
    17.665331      1.728064      2.644556
    17.695391      1.908763      2.451764
    17.725449      1.972589      2.202709
    17.755510      1.919797      1.994060
    17.785570      1.821740      1.874406
    17.815632      1.742372      1.821087
    17.845690      1.695178      1.785834
    17.875750      1.651373      1.743715
    17.905811      1.581935      1.717965
    17.935871      1.508454      1.751823
    17.965933      1.490916      1.842978
    17.995991      1.565786      1.936606
    18.026051      1.717197      1.963451
    18.056110      1.875800      1.884933
    18.086172      1.967202      1.739480
    18.116232      1.996471      1.601773
    18.146292      2.020226      1.477630
    18.176352      2.036959      1.316074
    18.206411      1.980263      1.117283
    18.236473      1.823385      0.960793
    18.266533      1.627292      0.910744
    18.296593      1.469436      0.958014
    18.326653      1.393855      1.056457
    18.356712      1.416470      1.146967
    18.386772      1.516545      1.159093
    18.416834      1.611333      1.042184
    18.446892      1.588696      0.842027
    18.476954      1.433075      0.683684
    18.507013      1.226777      0.629291
    18.537073      1.036628      0.663176
    18.567135      0.891976      0.751588
    18.597193      0.798189      0.863083
    18.627254      0.747887      0.978186
    18.657312      0.734970      1.086901
    18.687374      0.754394      1.177530
    18.717434      0.791901      1.240107
    18.747496      0.832713      1.280206
    18.777555      0.880427      1.303652
    18.807613      0.933124      1.294197
    18.837675      0.958030      1.246910
    18.867735      0.933008      1.198818
    18.897797      0.883445      1.184484
    18.927855      0.843337      1.194437
    18.957914      0.811342      1.202425
    18.987974      0.765974      1.208818
    19.018036      0.704423      1.234377
    19.048096      0.643126      1.290534
    19.078156      0.598965      1.372421
    19.108215      0.577912      1.468734
    19.138275      0.579180      1.573793
    19.168337      0.605600      1.686456
    19.198397      0.664535      1.802302
    19.228456      0.763808      1.910362
    19.258514      0.906914      1.991083
    19.288576      1.083540      2.018482
    19.318636      1.263550      1.972918
    19.348698      1.400978      1.857724
    19.378757      1.460046      1.718876
    19.408815      1.462759      1.612625
    19.438877      1.457235      1.541844
    19.468937      1.453277      1.478534
    19.498999      1.435972      1.420337
    19.529057      1.407847      1.377015
    19.559116      1.368633      1.350633
    19.589176      1.322899      1.362546
    19.619238      1.311611      1.422736
    19.649298      1.374162      1.493175
    19.679358      1.504448      1.512085
    19.709417      1.645834      1.444973
    19.739477      1.747158      1.320566
    19.769539      1.814817      1.170738
    19.799599      1.850787      0.982207
    19.829659      1.814194      0.755497
    19.859718      1.671709      0.544535
    19.889778      1.452619      0.421107
    19.919840      1.232408      0.402555
    19.949900      1.059346      0.448537
    19.979959      0.934171      0.515675
    20.010019      0.838609      0.587643
    20.040079      0.766365      0.666601
    20.070139      0.723588      0.746251
    20.100201      0.706243      0.808140
    20.130259      0.690897      0.841356
    20.160320      0.651660      0.862768
    20.190380      0.592571      0.903568
    20.220440      0.538548      0.971817
    20.250502      0.503149      1.055587
    20.280560      0.485496      1.144695
    20.310621      0.482627      1.237711
    20.340679      0.497301      1.335458
    20.370741      0.535285      1.434464
    20.400801      0.601249      1.526168
    20.430862      0.695197      1.596774
    20.460920      0.806040      1.630509
    20.490980      0.908983      1.622515
    20.521042      0.982658      1.592659
    20.551102      1.034963      1.568034
    20.581163      1.090802      1.549315
    20.611221      1.156050      1.511402
    20.641281      1.200642      1.436949
    20.671341      1.185707      1.356726
    20.701403      1.128169      1.329797
    20.731462      1.089267      1.366620
    20.761522      1.105354      1.427592
    20.791582      1.171845      1.469220
    20.821642      1.260940      1.466721
    20.851704      1.338064      1.422325
    20.881763      1.387686      1.361312
    20.911823      1.419343      1.303151
    20.941881      1.450172      1.249178
    20.971943      1.489078      1.183935
    21.002003      1.527420      1.086125
    21.032064      1.529435      0.940939
    21.062124      1.443797      0.783437
    21.092182      1.277565      0.689151
    21.122244      1.094001      0.691851
    21.152304      0.946958      0.771515
    21.182365      0.856399      0.892015
    21.212423      0.820858      1.026890
    21.242483      0.835797      1.162421
    21.272543      0.903070      1.286876
    21.302605      1.024708      1.377394
    21.332664      1.183148      1.399878
    21.362724      1.326585      1.337984
    21.392784      1.403748      1.229223
    21.422844      1.417526      1.135264
    21.452906      1.415013      1.085350
    21.482965      1.444571      1.058408
    21.513025      1.516616      0.997596
    21.543083      1.578387      0.854495
    21.573145      1.546950      0.655541
    21.603205      1.401958      0.490455
    21.633266      1.198318      0.420666
    21.663326      1.001754      0.447676
    21.693386      0.850522      0.540181
    21.723446      0.753525      0.664925
    21.753506      0.705951      0.800676
    21.783567      0.701671      0.935490
    21.813625      0.735709      1.060517
    21.843687      0.801501      1.168844
    21.873745      0.893887      1.259896
    21.903807      1.019629      1.331091
    21.933867      1.183325      1.358285
    21.963928      1.356188      1.313221
    21.993988      1.493210      1.208504
    22.024046      1.589549      1.082236
    22.054108      1.668389      0.937434
    22.084167      1.720101      0.745170
    22.114229      1.688931      0.509255
    22.144287      1.543181      0.299517
    22.174347      1.326148      0.185868
    22.204407      1.110995      0.177694
    22.234468      0.942911      0.238979
    22.264528      0.830096      0.330666
    22.294588      0.765236      0.428500
    22.324648      0.738093      0.516794
    22.354708      0.733629      0.587143
    22.384769      0.739662      0.643396
    22.414829      0.755820      0.691695
    22.444889      0.788592      0.729540
    22.474949      0.838594      0.739810
    22.505009      0.880052      0.705790
    22.535070      0.876093      0.647977
    22.565130      0.829851      0.611970
    22.595190      0.778216      0.612034
    22.625248      0.743072      0.629666
    22.655310      0.722572      0.645987
    22.685369      0.706663      0.652946
    22.715431      0.683430      0.649848
    22.745489      0.641473      0.646985
    22.775549      0.583698      0.662861
    22.805611      0.527051      0.704221
    22.835670      0.482740      0.764111
    22.865732      0.453541      0.836150
    22.895790      0.441659      0.916779
    22.925850      0.449883      1.001335
    22.955910      0.479015      1.083436
    22.985971      0.526175      1.157424
    23.016031      0.587563      1.223015
    23.046091      0.667749      1.282026
    23.076151      0.777100      1.323490
    23.106211      0.912412      1.320893
    23.136272      1.041412      1.251664
    23.166332      1.115525      1.130777
    23.196392      1.119828      1.010246
    23.226452      1.083825      0.922946
    23.256512      1.033903      0.868234
    23.286572      0.983160      0.840394
    23.316633      0.942320      0.830163
    23.346691      0.910759      0.822296
    23.376753      0.875259      0.813108
    23.406813      0.830331      0.812993
    23.436872      0.780732      0.830116
    23.466934      0.734624      0.870831
    23.496992      0.708674      0.935361
    23.527054      0.717318      1.008152
    23.557112      0.758995      1.066118
    23.587173      0.815410      1.095466
    23.617233      0.869178      1.101619
    23.647295      0.917191      1.093256
    23.677353      0.959424      1.072157
    23.707413      0.993447      1.036723
    23.737474      1.008876      0.985859
    23.767534      0.992984      0.934049
    23.797596      0.952852      0.902169
    23.827652      0.904397      0.895907
    23.857714      0.858734      0.913414
    23.887774      0.823790      0.950246
    23.917835      0.805641      1.001299
    23.947895      0.809495      1.057107
    23.977953      0.830728      1.106359
    24.008015      0.861324      1.148850
    24.038074      0.902472      1.185691
    24.068136      0.953478      1.210471
    24.098196      1.005340      1.218210
    24.128254      1.043814      1.214678
    24.158314      1.066781      1.221906
    24.188375      1.097664      1.252401
    24.218435      1.158636      1.291919
    24.248497      1.253631      1.316455
    24.278557      1.370636      1.306199
    24.308615      1.490698      1.253590
    24.338676      1.596900      1.157931
    24.368736      1.667526      1.024382
    24.398798      1.685705      0.875224
    24.428858      1.652321      0.736811
    24.458916      1.580679      0.628753
    24.488976      1.488543      0.559392
    24.519037      1.391935      0.530303
    24.549097      1.305552      0.538202
    24.579159      1.243341      0.575507
    24.609217      1.215209      0.625058
    24.639277      1.214790      0.668553
    24.669338      1.230533      0.703570
    24.699398      1.265314      0.732194
    24.729460      1.323759      0.736333
    24.759518      1.376400      0.695760
    24.789577      1.385831      0.638559
    24.819639      1.367301      0.609237
    24.849699      1.359039      0.609797
    24.879759      1.376863      0.618482
    24.909817      1.419698      0.614346
    24.939878      1.470102      0.582397
    24.969938      1.509239      0.534806
    25.000000      1.551239      0.484523
# 
# 01/08/2018 at 17:17 YAMBO @ polluce [start]
# 01/08/2018 at 17:17                 [end]
#  
# Timing   [Min/Max/Average]: 10s/10s/10s
#
# .-Input file : yambo.in
# | optics                         # [R OPT] Optics
# | chi                            # [R CHI] Dyson equation for Chi.
# | BoseTemp= 0.000000     eV      # Bosonic Temperature
# | FFTGvecs= 1807         RL      # [FFT] Plane-waves
# | X_Threads= 1                   # [OPENMP/X] Number of threads for response functions
# | DIP_Threads= 1                 # [OPENMP/X] Number of threads for dipoles
# | Chimod= "IP"                   # [X] IP/Hartree/ALDA/LRC/BSfxc
# | NGsBlkXd= 1            RL      # [Xd] Response block size
# | % QpntsRXd
# |   1 | 19 |                     # [Xd] Transferred momenta
# | %
# | % BndsRnXd
# |   2 |  7 |                     # [Xd] Polarization function bands
# | %
# | % EnRngeXd
# |  10.00000 | 25.00000 | eV      # [Xd] Energy range
# | %
# | % DmRngeXd
# |   0.10000 |  0.10000 | eV      # [Xd] Damping range
# | %
# | ETStpsXd=  500                 # [Xd] Total Energy steps
# | % LongDrXd
# | 0.1000E-4 | 0.000    | 0.000    |        # [Xd] [cc] Electric Field
# | %
# | % XfnQP_E
# |  5.350000 | 1.000000 | 1.000000 |        # [EXTQP Xd] E parameters  (c/v) eV|adim|adim
# | %
