#                                                           
#  **    **    **     ****     ****  ******     *******     
# //**  **    ****   /**/**   **/** /*////**   **/////**    
#  //****    **//**  /**//** ** /** /*   /**  **     //**   
#   //**    **  //** /** //***  /** /******  /**      /**   
#    /**   **********/**  //*   /** /*//// **/**      /**   
#    /**  /**//////**/**   /    /** /*    /**//**     **    
#    /**  /**     /**/**        /** /*******  //*******     
#    //   //      // //         //  ///////    ///////      
#                                                           
#        Version 4.3.0 Revision 15186 Hash adaf3b3          
#                  MPI+SLK+OpenMP Build                     
#                http://www.yambo-code.org                  
#
# Absorption @ Q(12) [iku] : 0.0000000  0.0000000 -0.2500000
#
#
# - Energies      are  Analyt. E
# - Wavefunctions are Slater exchange(X)+Perdew & Zunger(C)
#
# - The Green`s function is T-ordered -
#
#    E/ev[1]       EPS-Im[2]     EPS-Re[3]
#
    10.000       0.58462E-2     1.6275   
    10.030       0.58853E-2     1.6290   
    10.060       0.59249E-2     1.6305   
    10.090       0.59650E-2     1.6319   
    10.120       0.60056E-2     1.6334   
    10.150       0.60467E-2     1.6350   
    10.180       0.60883E-2     1.6365   
    10.210       0.61305E-2     1.6380   
    10.240       0.61733E-2     1.6396   
    10.271       0.62166E-2     1.6411   
    10.301       0.62605E-2     1.6427   
    10.331       0.63050E-2     1.6443   
    10.361       0.63500E-2     1.6459   
    10.391       0.63957E-2     1.6475   
    10.421       0.64420E-2     1.6491   
    10.451       0.64889E-2     1.6508   
    10.481       0.65364E-2     1.6524   
    10.511       0.65846E-2     1.6541   
    10.541       0.66335E-2     1.6558   
    10.571       0.66830E-2     1.6575   
    10.601       0.67332E-2     1.6592   
    10.631       0.67842E-2     1.6610   
    10.661       0.68358E-2     1.6627   
    10.691       0.68882E-2     1.6645   
    10.721       0.69413E-2     1.6663   
    10.752       0.69952E-2     1.6681   
    10.782       0.70498E-2     1.6699   
    10.812       0.71053E-2     1.6718   
    10.842       0.71615E-2     1.6736   
    10.872       0.72186E-2     1.6755   
    10.902       0.72765E-2     1.6774   
    10.932       0.73353E-2     1.6793   
    10.962       0.73950E-2     1.6812   
    10.992       0.74555E-2     1.6832   
    11.022       0.75170E-2     1.6851   
    11.052       0.75794E-2     1.6871   
    11.082       0.76427E-2     1.6891   
    11.112       0.77071E-2     1.6911   
    11.142       0.77724E-2     1.6932   
    11.172       0.78387E-2     1.6952   
    11.202       0.79061E-2     1.6973   
    11.232       0.79746E-2     1.6994   
    11.263       0.80441E-2     1.7015   
    11.293       0.81148E-2     1.7037   
    11.323       0.81865E-2     1.7059   
    11.353       0.82595E-2     1.7081   
    11.383       0.83337E-2     1.7103   
    11.413       0.84090E-2     1.7125   
    11.443       0.84856E-2     1.7148   
    11.473       0.85635E-2     1.7171   
    11.503       0.86427E-2     1.7194   
    11.533       0.87233E-2     1.7217   
    11.563       0.88052E-2     1.7240   
    11.593       0.88886E-2     1.7264   
    11.623       0.89733E-2     1.7288   
    11.653       0.90596E-2     1.7313   
    11.683       0.91474E-2     1.7337   
    11.713       0.92367E-2     1.7362   
    11.743       0.93276E-2     1.7387   
    11.774       0.94202E-2     1.7413   
    11.804       0.95145E-2     1.7439   
    11.834       0.96104E-2     1.7465   
    11.864       0.97082E-2     1.7491   
    11.894       0.98078E-2     1.7518   
    11.924       0.99092E-2     1.7544   
    11.954       0.10013E-1     1.7572   
    11.984       0.10118E-1     1.7599   
    12.014       0.10225E-1     1.7627   
    12.044       0.10335E-1     1.7655   
    12.074       0.10446E-1     1.7684   
    12.104       0.10560E-1     1.7713   
    12.134       0.10676E-1     1.7742   
    12.164       0.10795E-1     1.7772   
    12.194       0.10916E-1     1.7802   
    12.224       0.11039E-1     1.7832   
    12.255       0.11165E-1     1.7863   
    12.285       0.11293E-1     1.7894   
    12.315       0.11425E-1     1.7925   
    12.345       0.11559E-1     1.7957   
    12.375       0.11696E-1     1.7989   
    12.405       0.11836E-1     1.8022   
    12.435       0.11979E-1     1.8055   
    12.465       0.12125E-1     1.8089   
    12.495       0.12275E-1     1.8123   
    12.525       0.12428E-1     1.8157   
    12.555110      0.012584      1.819231
    12.585171      0.012745      1.822775
    12.615231      0.012908      1.826368
    12.645290      0.013076      1.830012
    12.675350      0.013248      1.833707
    12.705410      0.013425      1.837454
    12.735471      0.013605      1.841256
    12.765531      0.013790      1.845113
    12.795590      0.013980      1.849026
    12.825650      0.014175      1.852998
    12.855711      0.014375      1.857029
    12.885772      0.014580      1.861121
    12.915832      0.014790      1.865275
    12.945891      0.015007      1.869494
    12.975951      0.015229      1.873780
    13.006011      0.015458      1.878133
    13.036072      0.015693      1.882556
    13.066132      0.015935      1.887051
    13.096191      0.016184      1.891620
    13.126252      0.016441      1.896265
    13.156312      0.016705      1.900988
    13.186373      0.016978      1.905792
    13.216433      0.017259      1.910679
    13.246492      0.017549      1.915652
    13.276553      0.017849      1.920714
    13.306613      0.018159      1.925867
    13.336673      0.018479      1.931114
    13.366733      0.018810      1.936460
    13.396792      0.019153      1.941905
    13.426853      0.019509      1.947457
    13.456913      0.019877      1.953116
    13.486974      0.020260      1.958887
    13.517034      0.020657      1.964776
    13.547093      0.021070      1.970785
    13.577154      0.021500      1.976921
    13.607213      0.021947      1.983186
    13.637274      0.022414      1.989589
    13.667335      0.022901      1.996134
    13.697394      0.023411      2.002827
    13.727455      0.023944      2.009676
    13.757514      0.024503      2.016686
    13.787575      0.025089      2.023867
    13.817636      0.025706      2.031225
    13.847694      0.026355      2.038771
    13.877755      0.027040      2.046515
    13.907814      0.027765      2.054466
    13.937875      0.028532      2.062637
    13.967936      0.029348      2.071042
    13.997995      0.030216      2.079693
    14.028056      0.031143      2.088606
    14.058115      0.032136      2.097800
    14.088176      0.033205      2.107293
    14.118237      0.034357      2.117107
    14.148295      0.035607      2.127269
    14.178356      0.036967      2.137803
    14.208415      0.038456      2.148743
    14.238476      0.040096      2.160124
    14.268537      0.041914      2.171990
    14.298596      0.043944      2.184387
    14.328657      0.046231      2.197375
    14.358716      0.048830      2.211015
    14.388777      0.051817      2.225390
    14.418838      0.055292      2.240591
    14.448898      0.059391      2.256726
    14.478957      0.064303      2.273922
    14.509016      0.070295      2.292330
    14.539077      0.077755      2.312107
    14.569138      0.087252      2.333412
    14.599198      0.099645      2.356339
    14.629258      0.116239      2.380797
    14.659319      0.139006      2.406173
    14.689378      0.170763      2.430550
    14.719439      0.214781      2.449075
    14.749499      0.271963      2.451456
    14.779558      0.332453      2.422616
    14.809619      0.367696      2.358486
    14.839679      0.352684      2.288490
    14.869739      0.302179      2.250104
    14.899799      0.248188      2.248394
    14.929859      0.206284      2.269033
    14.959920      0.177798      2.299835
    14.989979      0.159831      2.334627
    15.020040      0.149496      2.370940
    15.050100      0.144790      2.408020
    15.080159      0.144526      2.445841
    15.110220      0.148141      2.484669
    15.140280      0.155577      2.524851
    15.170341      0.167254      2.566695
    15.200401      0.184124      2.610269
    15.230460      0.207735      2.655015
    15.260521      0.240039      2.698924
    15.290580      0.281994      2.737252
    15.320641      0.329355      2.762843
    15.350701      0.368634      2.774110
    15.380760      0.388479      2.786619
    15.410821      0.398660      2.820254
    15.440881      0.419226      2.877962
    15.470942      0.463679      2.951522
    15.501002      0.540525      3.030905
    15.531061      0.657767      3.102741
    15.561122      0.819630      3.144057
    15.591181      1.012092      3.122856
    15.621242      1.193599      3.022071
    15.651302      1.323580      2.859237
    15.681361      1.380275      2.663452
    15.711422      1.355004      2.473000
    15.741482      1.261422      2.322107
    15.771543      1.119824      2.238711
    15.801603      0.973520      2.242807
    15.831662      0.869485      2.316934
    15.861723      0.827910      2.426722
    15.891782      0.852828      2.543422
    15.921843      0.945407      2.639748
    15.951903      1.098701      2.677413
    15.981964      1.271347      2.610619
    16.012024      1.373282      2.437158
    16.042082      1.339211      2.247388
    16.072144      1.213751      2.146378
    16.102203      1.094116      2.150906
    16.132265      1.037145      2.210378
    16.162325      1.047012      2.266769
    16.192385      1.094905      2.282372
    16.222445      1.143388      2.249883
    16.252504      1.165065      2.180058
    16.282566      1.139450      2.092605
    16.312624      1.056633      2.020712
    16.342686      0.934724      2.002621
    16.372744      0.815195      2.050502
    16.402805      0.729291      2.146667
    16.432865      0.686801      2.267963
    16.462925      0.687755      2.398802
    16.492987      0.732646      2.528560
    16.523045      0.824474      2.644032
    16.553106      0.962050      2.722462
    16.583166      1.122937      2.735965
    16.613226      1.260204      2.684377
    16.643286      1.353484      2.608850
    16.673346      1.426691      2.527427
    16.703405      1.482978      2.421268
    16.733467      1.492272      2.287748
    16.763527      1.429698      2.163973
    16.793587      1.315269      2.096724
    16.823647      1.189331      2.100168
    16.853706      1.087331      2.169186
    16.883768      1.039936      2.280940
    16.913826      1.060388      2.397722
    16.943888      1.138207      2.476588
    16.973946      1.227689      2.484776
    17.004007      1.260583      2.445415
    17.034067      1.226712      2.439290
    17.064127      1.192131      2.506939
    17.094189      1.214679      2.618381
    17.124247      1.307421      2.719453
    17.154308      1.440253      2.764386
    17.184368      1.556678      2.752818
    17.214430      1.638410      2.730504
    17.244488      1.710771      2.711436
    17.274548      1.766471      2.683986
    17.304609      1.788740      2.677153
    17.334669      1.807145      2.730869
    17.364729      1.882792      2.848318
    17.394789      2.070423      2.980731
    17.424849      2.377734      3.044001
    17.454908      2.748553      2.967218
    17.484970      3.104926      2.736353
    17.515030      3.385134      2.356571
    17.545090      3.496961      1.861954
    17.575150      3.391205      1.377925
    17.605209      3.134310      1.013535
    17.635271      2.812446      0.788338
    17.665331      2.473303      0.697163
    17.695391      2.166881      0.737125
    17.725449      1.946467      0.878079
    17.755510      1.840667      1.065044
    17.785570      1.846203      1.244678
    17.815632      1.947400      1.376064
    17.845690      2.115616      1.415709
    17.875750      2.286356      1.336195
    17.905811      2.384232      1.170494
    17.935871      2.397044      1.002255
    17.965933      2.393110      0.861966
    17.995991      2.398294      0.684516
    18.026051      2.331241      0.437271
    18.056110      2.127055      0.205080
    18.086172      1.832208      0.082807
    18.116232      1.531355      0.086544
    18.146292      1.277416      0.183289
    18.176352      1.089005      0.334094
    18.206411      0.965806      0.507981
    18.236473      0.898163      0.684827
    18.266533      0.874041      0.855583
    18.296593      0.886286      1.021139
    18.326653      0.940124      1.183876
    18.356712      1.049424      1.334404
    18.386772      1.224663      1.445151
    18.416834      1.453894      1.470658
    18.446892      1.678489      1.374880
    18.476954      1.819103      1.190203
    18.507013      1.870753      1.000025
    18.537073      1.891862      0.817350
    18.567135      1.872381      0.595514
    18.597193      1.744655      0.360989
    18.627254      1.515978      0.205953
    18.657312      1.266468      0.162031
    18.687374      1.045525      0.197368
    18.717434      0.865516      0.282796
    18.747496      0.730826      0.397636
    18.777555      0.639189      0.524271
    18.807613      0.584225      0.651545
    18.837675      0.560665      0.773243
    18.867735      0.565772      0.883611
    18.897797      0.596382      0.973135
    18.927855      0.640327      1.028777
    18.957914      0.669818      1.049179
    18.987974      0.663508      1.063300
    19.018036      0.637284      1.105375
    19.048096      0.624054      1.179605
    19.078156      0.644662      1.268995
    19.108215      0.707153      1.350662
    19.138275      0.807844      1.395335
    19.168337      0.916099      1.371621
    19.198397      0.968051      1.285133
    19.228456      0.930185      1.208470
    19.258514      0.851604      1.204224
    19.288576      0.795693      1.265677
    19.318636      0.789661      1.357002
    19.348698      0.834934      1.445375
    19.378757      0.917517      1.507388
    19.408815      1.018138      1.538378
    19.438877      1.136838      1.541885
    19.468937      1.277776      1.492103
    19.498999      1.396255      1.354360
    19.529057      1.415408      1.159853
    19.559116      1.325375      1.004069
    19.589176      1.199315      0.934083
    19.619238      1.090993      0.921189
    19.649298      1.004198      0.933993
    19.679358      0.935308      0.962196
    19.709417      0.880715      0.995679
    19.739477      0.829205      1.034834
    19.769539      0.782467      1.090447
    19.799599      0.751273      1.163972
    19.829659      0.744950      1.251533
    19.859718      0.774037      1.342905
    19.889778      0.840994      1.418069
    19.919840      0.932310      1.459770
    19.949900      1.032535      1.466204
    19.979959      1.136341      1.431097
    20.010019      1.213867      1.340346
    20.040079      1.221034      1.229003
    20.070139      1.177586      1.157287
    20.100201      1.135026      1.125567
    20.130259      1.101430      1.104910
    20.160320      1.066511      1.095864
    20.190380      1.046486      1.103325
    20.220440      1.054255      1.098990
    20.250502      1.058026      1.052975
    20.280560      1.009791      0.990333
    20.310621      0.918579      0.967540
    20.340679      0.832904      0.994044
    20.370741      0.772065      1.040154
    20.400801      0.721552      1.089791
    20.430862      0.672814      1.154497
    20.460920      0.639789      1.242800
    20.490980      0.637501      1.346098
    20.521042      0.671854      1.449540
    20.551102      0.741656      1.537234
    20.581163      0.837314      1.594159
    20.611221      0.940766      1.614590
    20.641281      1.041508      1.607608
    20.671341      1.146694      1.571217
    20.701403      1.242406      1.479530
    20.731462      1.276279      1.335411
    20.761522      1.218618      1.194707
    20.791582      1.092029      1.113913
    20.821642      0.947523      1.116777
    20.851704      0.830623      1.187389
    20.881763      0.758666      1.295632
    20.911823      0.731355      1.419695
    20.941881      0.745658      1.546874
    20.971943      0.799818      1.665263
    21.002003      0.886142      1.760434
    21.032064      0.986014      1.826531
    21.062124      1.085743      1.877584
    21.092182      1.197056      1.931473
    21.122244      1.349858      1.979739
    21.152304      1.554877      1.976816
    21.182365      1.768895      1.876130
    21.212423      1.918242      1.690437
    21.242483      1.980257      1.484746
    21.272543      1.980231      1.284665
    21.302605      1.903687      1.099586
    21.332664      1.758083      0.995969
    21.362724      1.629849      1.002087
    21.392784      1.586000      1.058951
    21.422844      1.620595      1.086520
    21.452906      1.669622      1.045831
    21.482965      1.677010      0.974114
    21.513025      1.661004      0.919095
    21.543083      1.651660      0.868326
    21.573145      1.634795      0.803774
    21.603205      1.593330      0.740690
    21.633266      1.539854      0.704423
    21.663326      1.512860      0.687996
    21.693386      1.516886      0.638635
    21.723446      1.489177      0.529378
    21.753506      1.373201      0.418375
    21.783567      1.200784      0.382179
    21.813625      1.041567      0.427510
    21.843687      0.928880      0.518361
    21.873745      0.865709      0.623587
    21.903807      0.844729      0.720062
    21.933867      0.846976      0.791843
    21.963928      0.847639      0.843265
    21.993988      0.840239      0.897396
    22.024046      0.844176      0.966793
    22.054108      0.879533      1.037970
    22.084167      0.946886      1.082711
    22.114229      1.018079      1.079539
    22.144287      1.055982      1.044560
    22.174347      1.061207      1.013744
    22.204407      1.053878      0.992311
    22.234468      1.030424      0.976512
    22.264528      0.992291      0.984930
    22.294588      0.965443      1.021607
    22.324648      0.960053      1.065908
    22.354708      0.965449      1.109714
    22.384769      0.981469      1.160753
    22.414829      1.022622      1.216121
    22.444889      1.093551      1.254023
    22.474949      1.174776      1.259245
    22.505009      1.249887      1.241133
    22.535070      1.320982      1.207631
    22.565130      1.392345      1.157841
    22.595190      1.471131      1.077097
    22.625248      1.532449      0.928834
    22.655310      1.497020      0.722879
    22.685369      1.331014      0.561258
    22.715431      1.112119      0.520581
    22.745489      0.923693      0.581077
    22.775549      0.792643      0.693900
    22.805611      0.714848      0.826365
    22.835670      0.680115      0.962484
    22.865732      0.680293      1.095480
    22.895790      0.711894      1.222593
    22.925850      0.776281      1.339428
    22.955910      0.875890      1.435467
    22.985971      1.007533      1.491941
    23.016031      1.151432      1.485389
    23.046091      1.260066      1.407381
    23.076151      1.284262      1.303650
    23.106211      1.241880      1.243621
    23.136272      1.186512      1.239340
    23.166332      1.135558      1.271195
    23.196392      1.088651      1.342394
    23.226452      1.067369      1.463510
    23.256512      1.101753      1.623971
    23.286572      1.212555      1.800109
    23.316633      1.414967      1.961130
    23.346691      1.716030      2.060294
    23.376753      2.091716      2.034050
    23.406813      2.467024      1.836641
    23.436872      2.747513      1.482317
    23.466934      2.864399      1.032743
    23.496992      2.784747      0.581934
    23.527054      2.546231      0.233299
    23.557112      2.237381      0.027922
    23.587173      1.925537     -0.049559
    23.617233      1.647677     -0.028859
    23.647295      1.422245      0.061624
    23.677353      1.257732      0.194523
    23.707413      1.150650      0.347858
    23.737474      1.097675      0.509283
    23.767534      1.097588      0.662562
    23.797596      1.136281      0.789627
    23.827652      1.190045      0.891277
    23.857714      1.254009      0.985930
    23.887774      1.343819      1.078400
    23.917835      1.471435      1.155125
    23.947895      1.639322      1.193011
    23.977953      1.828348      1.158624
    24.008015      1.981109      1.044031
    24.038074      2.056274      0.900756
    24.068136      2.069386      0.786606
    24.098196      2.068379      0.731765
    24.128254      2.118317      0.722341
    24.158314      2.257652      0.682771
    24.188375      2.437173      0.518173
    24.218435      2.531860      0.211583
    24.248497      2.444347     -0.139512
    24.278557      2.191201     -0.394341
    24.308615      1.882377     -0.485593
    24.338676      1.614213     -0.438300
    24.368736      1.433918     -0.308773
    24.398798      1.351994     -0.153290
    24.429        1.3558       -.16777E-1
    24.458916      1.418728      0.069132
    24.488976      1.502868      0.092362
    24.519037      1.582188      0.067194
    24.549        1.6555       -.34062E-2
    24.579159      1.694270     -0.135533
    24.609217      1.643619     -0.295967
    24.639277      1.508946     -0.403644
    24.669338      1.361910     -0.427780
    24.699398      1.250345     -0.404637
    24.729460      1.170328     -0.372773
    24.759518      1.104450     -0.338348
    24.789577      1.054736     -0.298946
    24.819639      1.020528     -0.267485
    24.849699      0.984154     -0.246669
    24.879759      0.938703     -0.218318
    24.909817      0.901461     -0.170418
    24.939878      0.891465     -0.114904
    24.969938      0.910755     -0.075687
    25.000000      0.940266     -0.074843
# 
# 01/08/2018 at 17:17 YAMBO @ polluce [start]
# 01/08/2018 at 17:17                 [end]
#  
# Timing   [Min/Max/Average]: 10s/10s/10s
#
# .-Input file : yambo.in
# | optics                         # [R OPT] Optics
# | chi                            # [R CHI] Dyson equation for Chi.
# | BoseTemp= 0.000000     eV      # Bosonic Temperature
# | FFTGvecs= 1807         RL      # [FFT] Plane-waves
# | X_Threads= 1                   # [OPENMP/X] Number of threads for response functions
# | DIP_Threads= 1                 # [OPENMP/X] Number of threads for dipoles
# | Chimod= "IP"                   # [X] IP/Hartree/ALDA/LRC/BSfxc
# | NGsBlkXd= 1            RL      # [Xd] Response block size
# | % QpntsRXd
# |   1 | 19 |                     # [Xd] Transferred momenta
# | %
# | % BndsRnXd
# |   2 |  7 |                     # [Xd] Polarization function bands
# | %
# | % EnRngeXd
# |  10.00000 | 25.00000 | eV      # [Xd] Energy range
# | %
# | % DmRngeXd
# |   0.10000 |  0.10000 | eV      # [Xd] Damping range
# | %
# | ETStpsXd=  500                 # [Xd] Total Energy steps
# | % LongDrXd
# | 0.1000E-4 | 0.000    | 0.000    |        # [Xd] [cc] Electric Field
# | %
# | % XfnQP_E
# |  5.350000 | 1.000000 | 1.000000 |        # [EXTQP Xd] E parameters  (c/v) eV|adim|adim
# | %
