#                                                           
#  **    **    **     ****     ****  ******     *******     
# //**  **    ****   /**/**   **/** /*////**   **/////**    
#  //****    **//**  /**//** ** /** /*   /**  **     //**   
#   //**    **  //** /** //***  /** /******  /**      /**   
#    /**   **********/**  //*   /** /*//// **/**      /**   
#    /**  /**//////**/**   /    /** /*    /**//**     **    
#    /**  /**     /**/**        /** /*******  //*******     
#    //   //      // //         //  ///////    ///////      
#                                                           
#        Version 4.3.0 Revision 15186 Hash adaf3b3          
#                  MPI+SLK+OpenMP Build                     
#                http://www.yambo-code.org                  
#
# Absorption @ Q(16) [iku] :-0.1250001  0.5000000  0.0000000
#
#
# - Energies      are  Analyt. E
# - Wavefunctions are Slater exchange(X)+Perdew & Zunger(C)
#
# - The Green`s function is T-ordered -
#
#    E/ev[1]       EPS-Im[2]     EPS-Re[3]
#
    10.000       0.24698E-2     1.3079   
    10.030       0.24831E-2     1.3085   
    10.060       0.24966E-2     1.3091   
    10.090       0.25102E-2     1.3097   
    10.120       0.25240E-2     1.3103   
    10.150       0.25379E-2     1.3109   
    10.180       0.25520E-2     1.3115   
    10.210       0.25662E-2     1.3121   
    10.240       0.25805E-2     1.3127   
    10.271       0.25950E-2     1.3134   
    10.301       0.26097E-2     1.3140   
    10.331       0.26245E-2     1.3146   
    10.361       0.26395E-2     1.3153   
    10.391       0.26547E-2     1.3159   
    10.421       0.26700E-2     1.3166   
    10.451       0.26855E-2     1.3172   
    10.481       0.27012E-2     1.3179   
    10.511       0.27170E-2     1.3185   
    10.541       0.27330E-2     1.3192   
    10.571       0.27492E-2     1.3199   
    10.601       0.27656E-2     1.3206   
    10.631       0.27821E-2     1.3213   
    10.661       0.27988E-2     1.3219   
    10.691       0.28158E-2     1.3226   
    10.721       0.28329E-2     1.3233   
    10.752       0.28502E-2     1.3241   
    10.782       0.28677E-2     1.3248   
    10.812       0.28855E-2     1.3255   
    10.842       0.29034E-2     1.3262   
    10.872       0.29215E-2     1.3269   
    10.902       0.29399E-2     1.3277   
    10.932       0.29584E-2     1.3284   
    10.962       0.29772E-2     1.3292   
    10.992       0.29962E-2     1.3299   
    11.022       0.30154E-2     1.3307   
    11.052       0.30349E-2     1.3314   
    11.082       0.30546E-2     1.3322   
    11.112       0.30745E-2     1.3330   
    11.142       0.30946E-2     1.3338   
    11.172       0.31150E-2     1.3346   
    11.202       0.31357E-2     1.3354   
    11.232       0.31566E-2     1.3362   
    11.263       0.31778E-2     1.3370   
    11.293       0.31992E-2     1.3378   
    11.323       0.32209E-2     1.3386   
    11.353       0.32429E-2     1.3394   
    11.383       0.32651E-2     1.3403   
    11.413       0.32877E-2     1.3411   
    11.443       0.33105E-2     1.3420   
    11.473       0.33336E-2     1.3428   
    11.503       0.33570E-2     1.3437   
    11.533       0.33807E-2     1.3446   
    11.563       0.34047E-2     1.3454   
    11.593       0.34290E-2     1.3463   
    11.623       0.34537E-2     1.3472   
    11.653       0.34786E-2     1.3481   
    11.683       0.35039E-2     1.3490   
    11.713       0.35295E-2     1.3500   
    11.743       0.35555E-2     1.3509   
    11.774       0.35818E-2     1.3518   
    11.804       0.36085E-2     1.3528   
    11.834       0.36356E-2     1.3537   
    11.864       0.36630E-2     1.3547   
    11.894       0.36908E-2     1.3556   
    11.924       0.37189E-2     1.3566   
    11.954       0.37475E-2     1.3576   
    11.984       0.37765E-2     1.3586   
    12.014       0.38058E-2     1.3596   
    12.044       0.38356E-2     1.3606   
    12.074       0.38658E-2     1.3616   
    12.104       0.38965E-2     1.3627   
    12.134       0.39275E-2     1.3637   
    12.164       0.39591E-2     1.3648   
    12.194       0.39911E-2     1.3658   
    12.224       0.40236E-2     1.3669   
    12.255       0.40565E-2     1.3680   
    12.285       0.40899E-2     1.3691   
    12.315       0.41239E-2     1.3702   
    12.345       0.41583E-2     1.3713   
    12.375       0.41933E-2     1.3724   
    12.405       0.42288E-2     1.3735   
    12.435       0.42649E-2     1.3747   
    12.465       0.43015E-2     1.3758   
    12.495       0.43387E-2     1.3770   
    12.525       0.43764E-2     1.3782   
    12.555       0.44148E-2     1.3794   
    12.585       0.44538E-2     1.3806   
    12.615       0.44934E-2     1.3818   
    12.645       0.45336E-2     1.3830   
    12.675       0.45745E-2     1.3842   
    12.705       0.46161E-2     1.3855   
    12.735       0.46584E-2     1.3868   
    12.766       0.47013E-2     1.3880   
    12.796       0.47450E-2     1.3893   
    12.826       0.47895E-2     1.3906   
    12.856       0.48347E-2     1.3919   
    12.886       0.48806E-2     1.3933   
    12.916       0.49274E-2     1.3946   
    12.946       0.49750E-2     1.3960   
    12.976       0.50234E-2     1.3973   
    13.006       0.50727E-2     1.3987   
    13.036       0.51228E-2     1.4001   
    13.066       0.51739E-2     1.4016   
    13.096       0.52259E-2     1.4030   
    13.126       0.52789E-2     1.4044   
    13.156       0.53328E-2     1.4059   
    13.186       0.53878E-2     1.4074   
    13.216       0.54438E-2     1.4089   
    13.246       0.55009E-2     1.4104   
    13.277       0.55591E-2     1.4119   
    13.307       0.56184E-2     1.4135   
    13.337       0.56789E-2     1.4151   
    13.367       0.57406E-2     1.4167   
    13.397       0.58035E-2     1.4183   
    13.427       0.58678E-2     1.4199   
    13.457       0.59333E-2     1.4215   
    13.487       0.60002E-2     1.4232   
    13.517       0.60685E-2     1.4249   
    13.547       0.61382E-2     1.4266   
    13.577       0.62095E-2     1.4283   
    13.607       0.62823E-2     1.4301   
    13.637       0.63567E-2     1.4319   
    13.667       0.64327E-2     1.4337   
    13.697       0.65105E-2     1.4355   
    13.727       0.65901E-2     1.4373   
    13.758       0.66714E-2     1.4392   
    13.788       0.67547E-2     1.4411   
    13.818       0.68400E-2     1.4430   
    13.848       0.69273E-2     1.4450   
    13.878       0.70168E-2     1.4469   
    13.908       0.71084E-2     1.4489   
    13.938       0.72024E-2     1.4510   
    13.968       0.72988E-2     1.4530   
    13.998       0.73976E-2     1.4551   
    14.028       0.74991E-2     1.4572   
    14.058       0.76033E-2     1.4594   
    14.088       0.77103E-2     1.4615   
    14.118       0.78203E-2     1.4637   
    14.148       0.79333E-2     1.4660   
    14.178       0.80496E-2     1.4683   
    14.208       0.81694E-2     1.4706   
    14.238       0.82926E-2     1.4729   
    14.269       0.84197E-2     1.4753   
    14.299       0.85507E-2     1.4778   
    14.329       0.86858E-2     1.4802   
    14.359       0.88254E-2     1.4827   
    14.389       0.89695E-2     1.4853   
    14.419       0.91186E-2     1.4879   
    14.449       0.92729E-2     1.4905   
    14.479       0.94328E-2     1.4932   
    14.509       0.95985E-2     1.4959   
    14.539       0.97706E-2     1.4987   
    14.569       0.99494E-2     1.5016   
    14.599       0.10135E-1     1.5045   
    14.629       0.10329E-1     1.5074   
    14.659       0.10532E-1     1.5104   
    14.689       0.10743E-1     1.5135   
    14.719       0.10965E-1     1.5166   
    14.749       0.11197E-1     1.5198   
    14.780       0.11441E-1     1.5231   
    14.810       0.11699E-1     1.5264   
    14.840       0.11972E-1     1.5299   
    14.870       0.12261E-1     1.5334   
    14.900       0.12569E-1     1.5370   
    14.930       0.12898E-1     1.5407   
    14.960       0.13253E-1     1.5444   
    14.990       0.13636E-1     1.5483   
    15.020       0.14053E-1     1.5523   
    15.050       0.14511E-1     1.5565   
    15.080       0.15019E-1     1.5607   
    15.110220      0.015589      1.565124
    15.140280      0.016238      1.569682
    15.170341      0.016989      1.574412
    15.200401      0.017876      1.579328
    15.230460      0.018944      1.584438
    15.260521      0.020255      1.589746
    15.290580      0.021890      1.595241
    15.320641      0.023963      1.600904
    15.350701      0.026675      1.606665
    15.380760      0.030330      1.612248
    15.410821      0.035143      1.616962
    15.440881      0.040686      1.619606
    15.470942      0.045040      1.619324
    15.501002      0.045645      1.617682
    15.531061      0.042660      1.618083
    15.561122      0.038740      1.621854
    15.591181      0.035705      1.628050
    15.621242      0.033951      1.635518
    15.651302      0.033314      1.643587
    15.681361      0.033543      1.651928
    15.711422      0.034369      1.660407
    15.741482      0.035543      1.669106
    15.771543      0.037029      1.678290
    15.801603      0.039049      1.688136
    15.831662      0.041874      1.698647
    15.861723      0.045774      1.709760
    15.891782      0.051094      1.721321
    15.921843      0.058273      1.732944
    15.951903      0.067642      1.743757
    15.981964      0.078811      1.752379
    16.012024      0.090062      1.757774
    16.042082      0.098891      1.760536
    16.072144      0.103534      1.763512
    16.102203      0.105439      1.770678
    16.132265      0.108888      1.783257
    16.162325      0.117293      1.799283
    16.192385      0.132252      1.815672
    16.222445      0.153686      1.828915
    16.252504      0.179773      1.836149
    16.282566      0.208391      1.835282
    16.312624      0.235180      1.823274
    16.342686      0.251056      1.802479
    16.372744      0.253575      1.784155
    16.402805      0.250864      1.774271
    16.432865      0.248623      1.770011
    16.462925      0.247296      1.768497
    16.492987      0.246097      1.769450
    16.523045      0.246401      1.774164
    16.553106      0.251683      1.780678
    16.583166      0.260990      1.783806
    16.613226      0.268963      1.783352
    16.643286      0.275400      1.784246
    16.673346      0.285911      1.786332
    16.703405      0.302102      1.781819
    16.733467      0.314564      1.763828
    16.763527      0.309846      1.739710
    16.793587      0.288749      1.725897
    16.823647      0.263966      1.729125
    16.853706      0.245207      1.745015
    16.883768      0.235010      1.767701
    16.913826      0.234518      1.793863
    16.943888      0.245397      1.818349
    16.973946      0.264568      1.833313
    17.004007      0.281196      1.835655
    17.034067      0.286381      1.835068
    17.064127      0.286428      1.842827
    17.094189      0.291969      1.855850
    17.124247      0.301673      1.864646
    17.154308      0.305870      1.869812
    17.184368      0.303915      1.881918
    17.214430      0.305788      1.903987
    17.244488      0.316360      1.929106
    17.274548      0.332248      1.953511
    17.304609      0.353391      1.979942
    17.334669      0.385606      2.006041
    17.364729      0.428717      2.022500
    17.394789      0.474173      2.024147
    17.424849      0.513094      2.013321
    17.454908      0.540209      1.997716
    17.484970      0.558052      1.985956
    17.515030      0.572123      1.980411
    17.545090      0.584644      1.982807
    17.575150      0.603309      1.997904
    17.605209      0.643353      2.019627
    17.635271      0.710721      2.026520
    17.665331      0.789896      1.995142
    17.695391      0.845571      1.922356
    17.725449      0.853591      1.840528
    17.755510      0.829383      1.783099
    17.785570      0.798613      1.754776
    17.815632      0.777739      1.747383
    17.845690      0.774046      1.743749
    17.875750      0.775168      1.728610
    17.905811      0.762413      1.709006
    17.935871      0.736497      1.706545
    17.965933      0.719809      1.729788
    17.995991      0.730420      1.762269
    18.026051      0.763595      1.783309
    18.056110      0.806940      1.788670
    18.086172      0.858081      1.777248
    18.116232      0.908998      1.740848
    18.146292      0.944703      1.681706
    18.176352      0.955637      1.606611
    18.206411      0.928560      1.529030
    18.236473      0.865361      1.477546
    18.266533      0.791086      1.469341
    18.296593      0.731795      1.499833
    18.326653      0.703410      1.553986
    18.356712      0.713104      1.612765
    18.386772      0.758906      1.654484
    18.416834      0.824008      1.657685
    18.446892      0.874082      1.619756
    18.476954      0.887752      1.571668
    18.507013      0.883280      1.542250
    18.537073      0.887647      1.525974
    18.567135      0.905154      1.499030
    18.597193      0.914541      1.447608
    18.627254      0.892970      1.385476
    18.657312      0.838513      1.336698
    18.687374      0.762022      1.319985
    18.717434      0.686572      1.346765
    18.747496      0.638935      1.407834
    18.777555      0.631029      1.480396
    18.807613      0.659476      1.542865
    18.837675      0.712321      1.581661
    18.867735      0.776594      1.590216
    18.897797      0.835728      1.566035
    18.927855      0.874499      1.520108
    18.957914      0.891844      1.463786
    18.987974      0.882624      1.401556
    19.018036      0.840386      1.351568
    19.048096      0.781867      1.336468
    19.078156      0.737674      1.352208
    19.108215      0.716855      1.372148
    19.138275      0.701970      1.380171
    19.168337      0.673600      1.385126
    19.198397      0.631490      1.409076
    19.228456      0.595728      1.463872
    19.258514      0.586892      1.541524
    19.288576      0.614481      1.625246
    19.318636      0.678684      1.697033
    19.348698      0.770689      1.740361
    19.378757      0.873346      1.745628
    19.408815      0.966686      1.716206
    19.438877      1.042415      1.667551
    19.468937      1.106463      1.606420
    19.498999      1.159095      1.528773
    19.529057      1.191357      1.429495
    19.559116      1.179579      1.316849
    19.589176      1.118594      1.230948
    19.619238      1.046727      1.195147
    19.649298      0.996253      1.190315
    19.679358      0.969465      1.189689
    19.709417      0.952864      1.180361
    19.739477      0.934843      1.164487
    19.769539      0.912637      1.147007
    19.799599      0.885620      1.130216
    19.829659      0.853131      1.115597
    19.859718      0.812447      1.105645
    19.889778      0.762971      1.109100
    19.919840      0.715963      1.134954
    19.949900      0.689162      1.176028
    19.979959      0.683784      1.210824
    20.010019      0.679609      1.230726
    20.040079      0.663952      1.252847
    20.070139      0.649605      1.292546
    20.100201      0.653611      1.344470
    20.130259      0.679507      1.394976
    20.160320      0.723614      1.437725
    20.190380      0.788557      1.468393
    20.220440      0.876379      1.469877
    20.250502      0.966367      1.418912
    20.280560      1.016564      1.318343
    20.310621      0.999553      1.205338
    20.340679      0.921638      1.126397
    20.370741      0.820148      1.110806
    20.400801      0.737648      1.152493
    20.430862      0.696492      1.226374
    20.460920      0.703185      1.306569
    20.490980      0.753842      1.366872
    20.521042      0.828268      1.382746
    20.551102      0.887749      1.349855
    20.581163      0.903858      1.300202
    20.611221      0.889252      1.271838
    20.641281      0.876334      1.270962
    20.671341      0.881733      1.278746
    20.701403      0.900942      1.276838
    20.731462      0.920170      1.258865
    20.761522      0.927805      1.229124
    20.791582      0.916581      1.197785
    20.821642      0.889084      1.179178
    20.851704      0.856987      1.180735
    20.881763      0.833377      1.200820
    20.911823      0.825576      1.229811
    20.941881      0.833621      1.259455
    20.971943      0.856173      1.282513
    21.002003      0.887051      1.291544
    21.032064      0.914266      1.285595
    21.062124      0.929791      1.274985
    21.092182      0.938037      1.271482
    21.122244      0.951699      1.278039
    21.152304      0.981193      1.283513
    21.182365      1.020886      1.270454
    21.212423      1.048494      1.234702
    21.242483      1.049144      1.198084
    21.272543      1.037094      1.181122
    21.302605      1.028831      1.182144
    21.332664      1.033693      1.197828
    21.362724      1.063944      1.216834
    21.392784      1.116757      1.218399
    21.422844      1.174976      1.194181
    21.452906      1.227047      1.151108
    21.482965      1.275810      1.094807
    21.513025      1.323517      1.013548
    21.543083      1.345517      0.893700
    21.573145      1.305431      0.759668
    21.603205      1.207921      0.663088
    21.633266      1.097266      0.625484
    21.663326      1.007630      0.627138
    21.693386      0.941659      0.641556
    21.723446      0.889125      0.658625
    21.753506      0.843424      0.678875
    21.783567      0.804587      0.705500
    21.813625      0.776581      0.738166
    21.843687      0.763471      0.773082
    21.873745      0.767953      0.801533
    21.903807      0.783951      0.810093
    21.933867      0.790820      0.793805
    21.963928      0.770653      0.771278
    21.993988      0.731583      0.767555
    22.024046      0.697184      0.787517
    22.054108      0.681797      0.815016
    22.084167      0.677746      0.832006
    22.114229      0.667778      0.840240
    22.144287      0.650665      0.853631
    22.174347      0.635939      0.874482
    22.204407      0.624955      0.897210
    22.234468      0.614087      0.923186
    22.264528      0.606036      0.956552
    22.294588      0.605540      0.998036
    22.324648      0.619346      1.046319
    22.354708      0.653883      1.093396
    22.384769      0.708796      1.127248
    22.414829      0.775891      1.137721
    22.444889      0.843458      1.120834
    22.474949      0.896552      1.076027
    22.505009      0.916500      1.019714
    22.535070      0.912405      0.982281
    22.565130      0.915807      0.964231
    22.595190      0.934870      0.938495
    22.625248      0.948347      0.891280
    22.655310      0.939336      0.835586
    22.685369      0.910349      0.785871
    22.715431      0.867124      0.745497
    22.745489      0.807892      0.717516
    22.775549      0.735820      0.715052
    22.805611      0.668726      0.744210
    22.835670      0.620953      0.794996
    22.865732      0.593987      0.855810
    22.895790      0.586270      0.923324
    22.925850      0.603243      0.995488
    22.955910      0.652073      1.061266
    22.985971      0.731332      1.102345
    23.016031      0.827184      1.101141
    23.046091      0.913230      1.047442
    23.076151      0.952004      0.953477
    23.106211      0.926946      0.865471
    23.136272      0.868567      0.821269
    23.166332      0.813734      0.815949
    23.196392      0.772882      0.829935
    23.226452      0.741072      0.854557
    23.256512      0.717901      0.895138
    23.286572      0.718574      0.952506
    23.316633      0.756652      1.008181
    23.346691      0.826638      1.034809
    23.376753      0.900255      1.014682
    23.406813      0.941886      0.961778
    23.436872      0.946312      0.913752
    23.466934      0.940039      0.887777
    23.496992      0.941313      0.871524
    23.527054      0.948353      0.851733
    23.557112      0.954187      0.822584
    23.587173      0.946108      0.782943
    23.617233      0.911424      0.748912
    23.647295      0.860180      0.743933
    23.677353      0.816264      0.773544
    23.707413      0.799393      0.829020
    23.737474      0.823996      0.892641
    23.767534      0.894878      0.936872
    23.797596      0.996190      0.926948
    23.827652      1.077377      0.844992
    23.857714      1.086196      0.730288
    23.887774      1.030071      0.645812
    23.917835      0.952038      0.615199
    23.947895      0.885605      0.630412
    23.977953      0.848119      0.672304
    24.008015      0.843302      0.722305
    24.038074      0.870014      0.765272
    24.068136      0.920829      0.784406
    24.098196      0.974529      0.769096
    24.128254      1.006978      0.731817
    24.158314      1.019111      0.698335
    24.188375      1.030101      0.673543
    24.218435      1.044408      0.645638
    24.248497      1.054629      0.613496
    24.278557      1.064365      0.582817
    24.308615      1.080587      0.544790
    24.338676      1.092364      0.486437
    24.368736      1.078100      0.413592
    24.398798      1.032186      0.350943
    24.428858      0.970448      0.314746
    24.458916      0.911065      0.305637
    24.488976      0.866409      0.313806
    24.519037      0.838447      0.328033
    24.549097      0.827009      0.340774
    24.579159      0.829263      0.341056
    24.609217      0.830476      0.321005
    24.639277      0.814268      0.291253
    24.669338      0.784127      0.269313
    24.699398      0.752609      0.256771
    24.729460      0.723178      0.246323
    24.759518      0.689358      0.232738
    24.789577      0.641110      0.224706
    24.819639      0.586001      0.238728
    24.849699      0.542827      0.275555
    24.879759      0.523274      0.323071
    24.909817      0.528792      0.365169
    24.939878      0.549358      0.388650
    24.969938      0.569390      0.392362
    25.000000      0.580350      0.385676
# 
# 01/08/2018 at 17:17 YAMBO @ polluce [start]
# 01/08/2018 at 17:17                 [end]
#  
# Timing   [Min/Max/Average]: 10s/10s/10s
#
# .-Input file : yambo.in
# | optics                         # [R OPT] Optics
# | chi                            # [R CHI] Dyson equation for Chi.
# | BoseTemp= 0.000000     eV      # Bosonic Temperature
# | FFTGvecs= 1807         RL      # [FFT] Plane-waves
# | X_Threads= 1                   # [OPENMP/X] Number of threads for response functions
# | DIP_Threads= 1                 # [OPENMP/X] Number of threads for dipoles
# | Chimod= "IP"                   # [X] IP/Hartree/ALDA/LRC/BSfxc
# | NGsBlkXd= 1            RL      # [Xd] Response block size
# | % QpntsRXd
# |   1 | 19 |                     # [Xd] Transferred momenta
# | %
# | % BndsRnXd
# |   2 |  7 |                     # [Xd] Polarization function bands
# | %
# | % EnRngeXd
# |  10.00000 | 25.00000 | eV      # [Xd] Energy range
# | %
# | % DmRngeXd
# |   0.10000 |  0.10000 | eV      # [Xd] Damping range
# | %
# | ETStpsXd=  500                 # [Xd] Total Energy steps
# | % LongDrXd
# | 0.1000E-4 | 0.000    | 0.000    |        # [Xd] [cc] Electric Field
# | %
# | % XfnQP_E
# |  5.350000 | 1.000000 | 1.000000 |        # [EXTQP Xd] E parameters  (c/v) eV|adim|adim
# | %
