#                                                           
#  **    **    **     ****     ****  ******     *******     
# //**  **    ****   /**/**   **/** /*////**   **/////**    
#  //****    **//**  /**//** ** /** /*   /**  **     //**   
#   //**    **  //** /** //***  /** /******  /**      /**   
#    /**   **********/**  //*   /** /*//// **/**      /**   
#    /**  /**//////**/**   /    /** /*    /**//**     **    
#    /**  /**     /**/**        /** /*******  //*******     
#    //   //      // //         //  ///////    ///////      
#                                                           
#        Version 4.3.0 Revision 15186 Hash adaf3b3          
#                  MPI+SLK+OpenMP Build                     
#                http://www.yambo-code.org                  
#
# Absorption @ Q(3) [iku] : 0.1250000 -0.1250000 -0.1250000
#
#
# - Energies      are  Analyt. E
# - Wavefunctions are Slater exchange(X)+Perdew & Zunger(C)
#
# - The Green`s function is T-ordered -
#
#    E/ev[1]       EPS-Im[2]     EPS-Re[3]
#
    10.000       0.60661E-2     1.6543   
    10.030       0.61064E-2     1.6558   
    10.060       0.61473E-2     1.6573   
    10.090       0.61886E-2     1.6589   
    10.120       0.62305E-2     1.6604   
    10.150       0.62729E-2     1.6620   
    10.180       0.63158E-2     1.6636   
    10.210       0.63594E-2     1.6652   
    10.240       0.64034E-2     1.6668   
    10.271       0.64481E-2     1.6684   
    10.301       0.64933E-2     1.6700   
    10.331       0.65391E-2     1.6717   
    10.361       0.65855E-2     1.6733   
    10.391       0.66326E-2     1.6750   
    10.421       0.66802E-2     1.6767   
    10.451       0.67286E-2     1.6784   
    10.481       0.67775E-2     1.6801   
    10.511       0.68271E-2     1.6819   
    10.541       0.68774E-2     1.6836   
    10.571       0.69284E-2     1.6854   
    10.601       0.69801E-2     1.6872   
    10.631       0.70325E-2     1.6890   
    10.661       0.70856E-2     1.6908   
    10.691       0.71395E-2     1.6926   
    10.721       0.71941E-2     1.6945   
    10.752       0.72495E-2     1.6963   
    10.782       0.73057E-2     1.6982   
    10.812       0.73627E-2     1.7001   
    10.842       0.74206E-2     1.7020   
    10.872       0.74792E-2     1.7040   
    10.902       0.75387E-2     1.7059   
    10.932       0.75991E-2     1.7079   
    10.962       0.76603E-2     1.7099   
    10.992       0.77225E-2     1.7119   
    11.022       0.77856E-2     1.7139   
    11.052       0.78497E-2     1.7160   
    11.082       0.79147E-2     1.7181   
    11.112       0.79807E-2     1.7202   
    11.142       0.80477E-2     1.7223   
    11.172       0.81157E-2     1.7244   
    11.202       0.81848E-2     1.7266   
    11.232       0.82549E-2     1.7287   
    11.263       0.83262E-2     1.7309   
    11.293       0.83985E-2     1.7332   
    11.323       0.84720E-2     1.7354   
    11.353       0.85467E-2     1.7377   
    11.383       0.86226E-2     1.7400   
    11.413       0.86997E-2     1.7423   
    11.443       0.87781E-2     1.7446   
    11.473       0.88578E-2     1.7470   
    11.503       0.89387E-2     1.7494   
    11.533       0.90211E-2     1.7518   
    11.563       0.91048E-2     1.7542   
    11.593       0.91899E-2     1.7567   
    11.623       0.92764E-2     1.7591   
    11.653       0.93644E-2     1.7617   
    11.683       0.94540E-2     1.7642   
    11.713       0.95451E-2     1.7668   
    11.743       0.96378E-2     1.7694   
    11.774       0.97321E-2     1.7720   
    11.804       0.98281E-2     1.7746   
    11.834       0.99258E-2     1.7773   
    11.864       0.10025E-1     1.7800   
    11.894       0.10127E-1     1.7828   
    11.924       0.10230E-1     1.7856   
    11.954       0.10335E-1     1.7884   
    11.984       0.10442E-1     1.7912   
    12.014       0.10551E-1     1.7941   
    12.044       0.10662E-1     1.7970   
    12.074       0.10775E-1     1.7999   
    12.104       0.10890E-1     1.8029   
    12.134       0.11008E-1     1.8059   
    12.164       0.11128E-1     1.8090   
    12.194       0.11250E-1     1.8121   
    12.224       0.11375E-1     1.8152   
    12.255       0.11502E-1     1.8183   
    12.285       0.11632E-1     1.8215   
    12.315       0.11764E-1     1.8248   
    12.345       0.11900E-1     1.8281   
    12.375       0.12038E-1     1.8314   
    12.405       0.12179E-1     1.8347   
    12.435       0.12323E-1     1.8382   
    12.464929      0.012470      1.841606
    12.494989      0.012620      1.845102
    12.525049      0.012773      1.848644
    12.555110      0.012930      1.852235
    12.585171      0.013091      1.855871
    12.615231      0.013255      1.859558
    12.645290      0.013423      1.863295
    12.675350      0.013595      1.867083
    12.705410      0.013770      1.870923
    12.735471      0.013950      1.874818
    12.765531      0.014134      1.878768
    12.795590      0.014323      1.882774
    12.825650      0.014516      1.886838
    12.855711      0.014715      1.890960
    12.885772      0.014918      1.895144
    12.915832      0.015126      1.899389
    12.945891      0.015339      1.903698
    12.975951      0.015559      1.908073
    13.006011      0.015784      1.912514
    13.036072      0.016015      1.917024
    13.066132      0.016252      1.921605
    13.096191      0.016496      1.926258
    13.126252      0.016746      1.930986
    13.156312      0.017004      1.935790
    13.186373      0.017269      1.940673
    13.216433      0.017542      1.945636
    13.246492      0.017823      1.950683
    13.276553      0.018112      1.955816
    13.306613      0.018411      1.961037
    13.336673      0.018718      1.966349
    13.366733      0.019036      1.971756
    13.396792      0.019363      1.977258
    13.426853      0.019702      1.982862
    13.456913      0.020051      1.988567
    13.486974      0.020413      1.994379
    13.517034      0.020787      2.000303
    13.547093      0.021174      2.006340
    13.577154      0.021576      2.012496
    13.607213      0.021992      2.018771
    13.637274      0.022424      2.025177
    13.667335      0.022872      2.031712
    13.697394      0.023338      2.038385
    13.727455      0.023824      2.045200
    13.757514      0.024329      2.052161
    13.787575      0.024856      2.059278
    13.817636      0.025406      2.066556
    13.847694      0.025981      2.074000
    13.877755      0.026582      2.081619
    13.907814      0.027212      2.089422
    13.937875      0.027873      2.097415
    13.967936      0.028568      2.105611
    13.997995      0.029300      2.114016
    14.028056      0.030072      2.122644
    14.058115      0.030888      2.131507
    14.088176      0.031753      2.140618
    14.118237      0.032671      2.149989
    14.148295      0.033648      2.159640
    14.178356      0.034693      2.169586
    14.208415      0.035812      2.179846
    14.238476      0.037016      2.190443
    14.268537      0.038316      2.201403
    14.298596      0.039728      2.212749
    14.328657      0.041269      2.224518
    14.358716      0.042960      2.236743
    14.388777      0.044831      2.249465
    14.418838      0.046917      2.262733
    14.448898      0.049265      2.276601
    14.478957      0.051938      2.291131
    14.509016      0.055020      2.306396
    14.539077      0.058629      2.322483
    14.569138      0.062932      2.339478
    14.599198      0.068172      2.357470
    14.629258      0.074704      2.376518
    14.659319      0.083055      2.396587
    14.689378      0.093972      2.417386
    14.719439      0.108362      2.438025
    14.749499      0.126741      2.456485
    14.779558      0.147528      2.469739
    14.809619      0.165483      2.477006
    14.839679      0.176479      2.484309
    14.869739      0.185241      2.498863
    14.899799      0.200722      2.519902
    14.929859      0.228472      2.539976
    14.959920      0.268110      2.547745
    14.989979      0.308225      2.531421
    15.020040      0.325414      2.493646
    15.050100      0.308523      2.460939
    15.080159      0.275618      2.454336
    15.110220      0.247622      2.469806
    15.140280      0.230439      2.494371
    15.170341      0.219411      2.520134
    15.200401      0.208761      2.548009
    15.230460      0.198831      2.582180
    15.260521      0.193055      2.623144
    15.290580      0.193084      2.669096
    15.320641      0.199037      2.718766
    15.350701      0.210884      2.771836
    15.380760      0.229096      2.828542
    15.410821      0.254908      2.889303
    15.440881      0.290561      2.954345
    15.470942      0.339639      3.023087
    15.501002      0.407284      3.092777
    15.531061      0.499259      3.155887
    15.561122      0.616770      3.196934
    15.591181      0.744054      3.197144
    15.621242      0.846660      3.160976
    15.651302      0.914799      3.128998
    15.681361      0.986743      3.120812
    15.711422      1.088840      3.103970
    15.741482      1.196039      3.046435
    15.771543      1.276748      2.965815
    15.801603      1.347416      2.883310
    15.831662      1.419499      2.771730
    15.861723      1.450673      2.610005
    15.891782      1.388129      2.440053
    15.921843      1.246155      2.343969
    15.951903      1.103465      2.348854
    15.981964      1.012954      2.413467
    16.012024      0.974247      2.491216
    16.042082      0.964187      2.568080
    16.072144      0.979152      2.656207
    16.102203      1.042133      2.753102
    16.132265      1.170430      2.825129
    16.162325      1.348209      2.822072
    16.192385      1.514311      2.714094
    16.222445      1.600524      2.531658
    16.252504      1.583750      2.338723
    16.282566      1.483460      2.191692
    16.312624      1.342484      2.118550
    16.342686      1.203547      2.119380
    16.372744      1.097057      2.172863
    16.402805      1.031757      2.253257
    16.432865      1.007751      2.341855
    16.462925      1.020286      2.418702
    16.492987      1.047011      2.467393
    16.523045      1.056983      2.503122
    16.553106      1.057318      2.564006
    16.583166      1.088595      2.654200
    16.613226      1.172367      2.738641
    16.643286      1.289960      2.780473
    16.673346      1.402861      2.780562
    16.703405      1.509098      2.767589
    16.733467      1.634246      2.729733
    16.763527      1.757297      2.623429
    16.793587      1.806169      2.449796
    16.823647      1.733542      2.290282
    16.853706      1.590871      2.237962
    16.883768      1.478544      2.299841
    16.913826      1.455298      2.415315
    16.943888      1.523946      2.511000
    16.973946      1.634880      2.530457
    17.004007      1.705793      2.484699
    17.034067      1.718091      2.458215
    17.064127      1.747824      2.486955
    17.094189      1.849438      2.506800
    17.124247      1.978331      2.435254
    17.154308      2.023773      2.283372
    17.184368      1.954684      2.169473
    17.214430      1.863968      2.157766
    17.244488      1.823260      2.201060
    17.274548      1.822666      2.248308
    17.304609      1.844178      2.298591
    17.334669      1.896796      2.344220
    17.364729      1.959611      2.361411
    17.394789      1.994667      2.380598
    17.424849      2.038084      2.459503
    17.454908      2.172702      2.578452
    17.484970      2.428116      2.644096
    17.515030      2.736863      2.567271
    17.545090      2.981227      2.364754
    17.575150      3.146382      2.135801
    17.605209      3.297886      1.880577
    17.635271      3.400668      1.539115
    17.665331      3.374864      1.148388
    17.695391      3.204187      0.786025
    17.725449      2.912112      0.535211
    17.755510      2.597979      0.450736
    17.785570      2.361954      0.484409
    17.815632      2.228628      0.553049
    17.845690      2.172577      0.591915
    17.875750      2.133770      0.571319
    17.905811      2.054001      0.527951
    17.935871      1.953492      0.526527
    17.965933      1.896375      0.555091
    17.995991      1.880991      0.549861
    18.026051      1.847712      0.497646
    18.056110      1.770418      0.443933
    18.086172      1.671901      0.418041
    18.116232      1.570838      0.419354
    18.146292      1.478064      0.450858
    18.176352      1.417756      0.506684
    18.206411      1.403400      0.557002
    18.236473      1.423898      0.565663
    18.266533      1.432688      0.504910
    18.296593      1.360797      0.409472
    18.326653      1.211837      0.368492
    18.356712      1.060744      0.413284
    18.386772      0.957226      0.508616
    18.416834      0.905456      0.613832
    18.446892      0.891314      0.709495
    18.476954      0.908523      0.790164
    18.507013      0.957217      0.839020
    18.537073      1.013175      0.828625
    18.567135      1.022145      0.763846
    18.597193      0.954794      0.702221
    18.627254      0.843269      0.697832
    18.657312      0.739332      0.755554
    18.687374      0.671264      0.850624
    18.717434      0.645229      0.958463
    18.747496      0.659463      1.060305
    18.777555      0.707013      1.137523
    18.807613      0.767063      1.173897
    18.837675      0.807405      1.176917
    18.867735      0.821895      1.179959
    18.897797      0.837678      1.193076
    18.927855      0.863639      1.190663
    18.957914      0.868467      1.158959
    18.987974      0.824648      1.132265
    19.018036      0.756070      1.150819
    19.048096      0.702601      1.212093
    19.078156      0.679406      1.290798
    19.108215      0.678509      1.368193
    19.138275      0.687185      1.444118
    19.168337      0.705623      1.527034
    19.198397      0.742852      1.617607
    19.228456      0.804302      1.708335
    19.258514      0.889040      1.793954
    19.288576      1.002331      1.872938
    19.318636      1.152516      1.929173
    19.348698      1.325073      1.940847
    19.378757      1.498717      1.914931
    19.408815      1.687737      1.858202
    19.438877      1.894507      1.730061
    19.468937      2.059998      1.506249
    19.498999      2.132867      1.226521
    19.529057      2.105005      0.936402
    19.559116      1.976275      0.672264
    19.589176      1.757214      0.481765
    19.619238      1.500510      0.411359
    19.649298      1.284515      0.450304
    19.679358      1.147080      0.541073
    19.709417      1.079675      0.633155
    19.739477      1.058641      0.702685
    19.769539      1.065567      0.737854
    19.799599      1.074749      0.727897
    19.829659      1.050544      0.685149
    19.859718      0.979337      0.648878
    19.889778      0.884606      0.652546
    19.919840      0.802968      0.695169
    19.949900      0.750167      0.751510
    19.979959      0.715870      0.800036
    20.010019      0.679858      0.842285
    20.040079      0.641185      0.896928
    20.070139      0.618261      0.968039
    20.100201      0.622096      1.040922
    20.130259      0.647880      1.099967
    20.160320      0.685359      1.140718
    20.190380      0.733016      1.160978
    20.220440      0.783151      1.144090
    20.250502      0.797799      1.084887
    20.280560      0.746175      1.027331
    20.310621      0.654799      1.020606
    20.340679      0.568523      1.067271
    20.370741      0.508338      1.146067
    20.400801      0.476780      1.239316
    20.430862      0.471372      1.337108
    20.460920      0.490201      1.433123
    20.490980      0.531483      1.520805
    20.521042      0.590342      1.593496
    20.551102      0.659865      1.648798
    20.581163      0.736435      1.685205
    20.611221      0.811353      1.698129
    20.641281      0.870566      1.694912
    20.671341      0.914749      1.691583
    20.701403      0.954968      1.690815
    20.731462      0.991136      1.685709
    20.761522      1.014065      1.677897
    20.791582      1.016702      1.682474
    20.821642      1.013347      1.723869
    20.851704      1.040226      1.802935
    20.881763      1.120153      1.892195
    20.911823      1.253852      1.961083
    20.941881      1.430037      1.983811
    20.971943      1.628162      1.940461
    21.002003      1.819446      1.812308
    21.032064      1.939904      1.594758
    21.062124      1.926821      1.367373
    21.092182      1.834011      1.236439
    21.122244      1.772849      1.196573
    21.152304      1.781481      1.163667
    21.182365      1.817889      1.075356
    21.212423      1.815528      0.926507
    21.242483      1.723317      0.768473
    21.272543      1.558859      0.682415
    21.302605      1.401026      0.692335
    21.332664      1.302529      0.752779
    21.362724      1.259564      0.809418
    21.392784      1.237197      0.840423
    21.422844      1.209711      0.858349
    21.452906      1.174812      0.882278
    21.482965      1.145966      0.923647
    21.513025      1.141551      0.972041
    21.543083      1.153991      1.005329
    21.573145      1.161181      1.030337
    21.603205      1.172747      1.070199
    21.633266      1.219566      1.115231
    21.663326      1.303608      1.123531
    21.693386      1.381103      1.070526
    21.723446      1.407793      0.983960
    21.753506      1.382808      0.910179
    21.783567      1.335768      0.875400
    21.813625      1.302328      0.872978
    21.843687      1.290246      0.873564
    21.873745      1.282060      0.870068
    21.903807      1.282803      0.872828
    21.933867      1.304543      0.862311
    21.963928      1.318344      0.818028
    21.993988      1.294401      0.770963
    22.024046      1.259102      0.756916
    22.054108      1.251243      0.759921
    22.084167      1.271772      0.741365
    22.114229      1.290761      0.676906
    22.144287      1.261391      0.573539
    22.174347      1.157327      0.484517
    22.204407      1.012805      0.463231
    22.234468      0.884244      0.510101
    22.264528      0.798852      0.590936
    22.294588      0.751503      0.674928
    22.324648      0.724450      0.751295
    22.354708      0.706338      0.825809
    22.384769      0.699869      0.907926
    22.414829      0.718064      0.996786
    22.444889      0.768569      1.076840
    22.474949      0.842401      1.130858
    22.505009      0.922529      1.157882
    22.535070      1.008359      1.167134
    22.565130      1.109233      1.147760
    22.595190      1.210385      1.075231
    22.625248      1.273482      0.943514
    22.655310      1.255757      0.779559
    22.685369      1.147290      0.647431
    22.715431      0.996453      0.591067
    22.745489      0.850064      0.600753
    22.775549      0.725136      0.656582
    22.805611      0.629939      0.744290
    22.835670      0.567505      0.849813
    22.865732      0.535518      0.962929
    22.895790      0.531255      1.078186
    22.925850      0.554365      1.191956
    22.955910      0.606742      1.299074
    22.985971      0.690264      1.390277
    23.016031      0.802902      1.451066
    23.046091      0.931393      1.462904
    23.076151      1.043930      1.418187
    23.106211      1.111247      1.338013
    23.136272      1.127405      1.249895
    23.166332      1.091935      1.177244
    23.196392      1.018901      1.151953
    23.226452      0.948440      1.186648
    23.256512      0.910982      1.260998
    23.286572      0.912991      1.352555
    23.316633      0.957462      1.446610
    23.346691      1.045304      1.521408
    23.376753      1.157665      1.554565
    23.406813      1.266096      1.549079
    23.436872      1.365211      1.521015
    23.466934      1.456218      1.468003
    23.496992      1.523781      1.391386
    23.527054      1.562157      1.309115
    23.557112      1.580472      1.229631
    23.587173      1.578394      1.151230
    23.617233      1.551017      1.086058
    23.647295      1.512098      1.048712
    23.677353      1.482654      1.035769
    23.707413      1.471587      1.027230
    23.737474      1.463047      1.007015
    23.767534      1.437468      0.989826
    23.797596      1.410476      0.998099
    23.827652      1.406237      1.019456
    23.857714      1.421790      1.031623
    23.887774      1.440492      1.026865
    23.917835      1.448654      1.016348
    23.947895      1.456695      1.013371
    23.977953      1.474631      1.002167
    24.008015      1.478102      0.973392
    24.038074      1.452040      0.956741
    24.068136      1.420377      0.978403
    24.098196      1.417539      1.034234
    24.128254      1.465557      1.097344
    24.158314      1.566570      1.130425
    24.188375      1.695284      1.093018
    24.218435      1.789160      0.970966
    24.248497      1.789722      0.814199
    24.278557      1.706494      0.698213
    24.308615      1.590121      0.652770
    24.338676      1.480300      0.674390
    24.368736      1.405234      0.746561
    24.398798      1.380023      0.845830
    24.428858      1.408334      0.947326
    24.458916      1.482769      1.030227
    24.488976      1.592149      1.081061
    24.519037      1.724118      1.089434
    24.549097      1.861900      1.047116
    24.579159      1.984959      0.954632
    24.609217      2.075339      0.817716
    24.639277      2.111817      0.650977
    24.669338      2.085247      0.481312
    24.699398      1.993668      0.335635
    24.729460      1.853324      0.254290
    24.759518      1.714401      0.253980
    24.789577      1.619249      0.314673
    24.819639      1.592258      0.399443
    24.849699      1.628029      0.461033
    24.879759      1.691278      0.475946
    24.909817      1.756643      0.448985
    24.939878      1.807244      0.382157
    24.969938      1.820241      0.291559
    25.000000      1.797455      0.203802
# 
# 01/08/2018 at 17:17 YAMBO @ polluce [start]
# 01/08/2018 at 17:17                 [end]
#  
# Timing   [Min/Max/Average]: 10s/10s/10s
#
# .-Input file : yambo.in
# | optics                         # [R OPT] Optics
# | chi                            # [R CHI] Dyson equation for Chi.
# | BoseTemp= 0.000000     eV      # Bosonic Temperature
# | FFTGvecs= 1807         RL      # [FFT] Plane-waves
# | X_Threads= 1                   # [OPENMP/X] Number of threads for response functions
# | DIP_Threads= 1                 # [OPENMP/X] Number of threads for dipoles
# | Chimod= "IP"                   # [X] IP/Hartree/ALDA/LRC/BSfxc
# | NGsBlkXd= 1            RL      # [Xd] Response block size
# | % QpntsRXd
# |   1 | 19 |                     # [Xd] Transferred momenta
# | %
# | % BndsRnXd
# |   2 |  7 |                     # [Xd] Polarization function bands
# | %
# | % EnRngeXd
# |  10.00000 | 25.00000 | eV      # [Xd] Energy range
# | %
# | % DmRngeXd
# |   0.10000 |  0.10000 | eV      # [Xd] Damping range
# | %
# | ETStpsXd=  500                 # [Xd] Total Energy steps
# | % LongDrXd
# | 0.1000E-4 | 0.000    | 0.000    |        # [Xd] [cc] Electric Field
# | %
# | % XfnQP_E
# |  5.350000 | 1.000000 | 1.000000 |        # [EXTQP Xd] E parameters  (c/v) eV|adim|adim
# | %
