#                                                           
#  **    **    **     ****     ****  ******     *******     
# //**  **    ****   /**/**   **/** /*////**   **/////**    
#  //****    **//**  /**//** ** /** /*   /**  **     //**   
#   //**    **  //** /** //***  /** /******  /**      /**   
#    /**   **********/**  //*   /** /*//// **/**      /**   
#    /**  /**//////**/**   /    /** /*    /**//**     **    
#    /**  /**     /**/**        /** /*******  //*******     
#    //   //      // //         //  ///////    ///////      
#                                                           
#        Version 4.3.0 Revision 15186 Hash adaf3b3          
#                  MPI+SLK+OpenMP Build                     
#                http://www.yambo-code.org                  
#
# Absorption @ Q(13) [iku] : 0.1250000 -0.3750000  0.0000000
#
#
# - Energies      are  Analyt. E
# - Wavefunctions are Slater exchange(X)+Perdew & Zunger(C)
#
# - The Green`s function is T-ordered -
#
#    E/ev[1]       EPS-Im[2]     EPS-Re[3]
#
    10.000       0.37346E-2     1.4400   
    10.030       0.37564E-2     1.4409   
    10.060       0.37786E-2     1.4418   
    10.090       0.38010E-2     1.4428   
    10.120       0.38236E-2     1.4437   
    10.150       0.38465E-2     1.4446   
    10.180       0.38697E-2     1.4456   
    10.210       0.38931E-2     1.4465   
    10.240       0.39168E-2     1.4475   
    10.271       0.39408E-2     1.4484   
    10.301       0.39650E-2     1.4494   
    10.331       0.39896E-2     1.4504   
    10.361       0.40144E-2     1.4514   
    10.391       0.40395E-2     1.4524   
    10.421       0.40649E-2     1.4534   
    10.451       0.40907E-2     1.4544   
    10.481       0.41167E-2     1.4554   
    10.511       0.41430E-2     1.4565   
    10.541       0.41697E-2     1.4575   
    10.571       0.41966E-2     1.4585   
    10.601       0.42239E-2     1.4596   
    10.631       0.42516E-2     1.4607   
    10.661       0.42795E-2     1.4617   
    10.691       0.43079E-2     1.4628   
    10.721       0.43365E-2     1.4639   
    10.752       0.43656E-2     1.4650   
    10.782       0.43950E-2     1.4661   
    10.812       0.44247E-2     1.4672   
    10.842       0.44548E-2     1.4684   
    10.872       0.44854E-2     1.4695   
    10.902       0.45163E-2     1.4706   
    10.932       0.45476E-2     1.4718   
    10.962       0.45793E-2     1.4730   
    10.992       0.46114E-2     1.4742   
    11.022       0.46439E-2     1.4753   
    11.052       0.46769E-2     1.4765   
    11.082       0.47103E-2     1.4777   
    11.112       0.47441E-2     1.4790   
    11.142       0.47784E-2     1.4802   
    11.172       0.48131E-2     1.4814   
    11.202       0.48483E-2     1.4827   
    11.232       0.48840E-2     1.4839   
    11.263       0.49201E-2     1.4852   
    11.293       0.49568E-2     1.4865   
    11.323       0.49939E-2     1.4878   
    11.353       0.50316E-2     1.4891   
    11.383       0.50698E-2     1.4904   
    11.413       0.51085E-2     1.4917   
    11.443       0.51478E-2     1.4931   
    11.473       0.51876E-2     1.4944   
    11.503       0.52280E-2     1.4958   
    11.533       0.52689E-2     1.4972   
    11.563       0.53105E-2     1.4986   
    11.593       0.53526E-2     1.5000   
    11.623       0.53954E-2     1.5014   
    11.653       0.54388E-2     1.5028   
    11.683       0.54828E-2     1.5043   
    11.713       0.55275E-2     1.5057   
    11.743       0.55728E-2     1.5072   
    11.774       0.56188E-2     1.5087   
    11.804       0.56655E-2     1.5102   
    11.834       0.57129E-2     1.5117   
    11.864       0.57611E-2     1.5132   
    11.894       0.58100E-2     1.5148   
    11.924       0.58596E-2     1.5164   
    11.954       0.59100E-2     1.5179   
    11.984       0.59612E-2     1.5195   
    12.014       0.60132E-2     1.5211   
    12.044       0.60661E-2     1.5227   
    12.074       0.61198E-2     1.5244   
    12.104       0.61743E-2     1.5260   
    12.134       0.62298E-2     1.5277   
    12.164       0.62861E-2     1.5294   
    12.194       0.63434E-2     1.5311   
    12.224       0.64016E-2     1.5328   
    12.255       0.64608E-2     1.5346   
    12.285       0.65210E-2     1.5363   
    12.315       0.65823E-2     1.5381   
    12.345       0.66445E-2     1.5399   
    12.375       0.67079E-2     1.5417   
    12.405       0.67723E-2     1.5436   
    12.435       0.68379E-2     1.5454   
    12.465       0.69046E-2     1.5473   
    12.495       0.69726E-2     1.5492   
    12.525       0.70417E-2     1.5511   
    12.555       0.71121E-2     1.5531   
    12.585       0.71838E-2     1.5550   
    12.615       0.72568E-2     1.5570   
    12.645       0.73312E-2     1.5590   
    12.675       0.74070E-2     1.5611   
    12.705       0.74842E-2     1.5631   
    12.735       0.75628E-2     1.5652   
    12.766       0.76430E-2     1.5673   
    12.796       0.77248E-2     1.5694   
    12.826       0.78081E-2     1.5716   
    12.856       0.78932E-2     1.5737   
    12.886       0.79799E-2     1.5759   
    12.916       0.80683E-2     1.5782   
    12.946       0.81586E-2     1.5804   
    12.976       0.82508E-2     1.5827   
    13.006       0.83448E-2     1.5850   
    13.036       0.84409E-2     1.5874   
    13.066       0.85390E-2     1.5897   
    13.096       0.86392E-2     1.5921   
    13.126       0.87415E-2     1.5946   
    13.156       0.88462E-2     1.5970   
    13.186       0.89532E-2     1.5995   
    13.216       0.90626E-2     1.6020   
    13.246       0.91744E-2     1.6046   
    13.277       0.92889E-2     1.6072   
    13.307       0.94060E-2     1.6098   
    13.337       0.95259E-2     1.6125   
    13.367       0.96487E-2     1.6152   
    13.397       0.97744E-2     1.6179   
    13.427       0.99033E-2     1.6207   
    13.457       0.10035E-1     1.6235   
    13.487       0.10171E-1     1.6264   
    13.517       0.10310E-1     1.6293   
    13.547       0.10452E-1     1.6322   
    13.577       0.10598E-1     1.6352   
    13.607       0.10748E-1     1.6382   
    13.637       0.10903E-1     1.6413   
    13.667       0.11061E-1     1.6444   
    13.697       0.11224E-1     1.6476   
    13.727       0.11392E-1     1.6508   
    13.758       0.11564E-1     1.6541   
    13.788       0.11742E-1     1.6574   
    13.818       0.11925E-1     1.6608   
    13.848       0.12114E-1     1.6642   
    13.878       0.12308E-1     1.6677   
    13.908       0.12509E-1     1.6713   
    13.938       0.12716E-1     1.6749   
    13.968       0.12930E-1     1.6786   
    13.998       0.13152E-1     1.6823   
    14.028       0.13381E-1     1.6861   
    14.058       0.13619E-1     1.6900   
    14.088       0.13865E-1     1.6940   
    14.118237      0.014121      1.697984
    14.148295      0.014386      1.702088
    14.178356      0.014662      1.706273
    14.208415      0.014950      1.710541
    14.238476      0.015250      1.714899
    14.268537      0.015563      1.719346
    14.298596      0.015891      1.723890
    14.328657      0.016234      1.728532
    14.358716      0.016595      1.733279
    14.388777      0.016974      1.738135
    14.418838      0.017375      1.743106
    14.448898      0.017799      1.748199
    14.478957      0.018250      1.753419
    14.509016      0.018730      1.758774
    14.539077      0.019245      1.764273
    14.569138      0.019800      1.769926
    14.599198      0.020402      1.775743
    14.629258      0.021061      1.781736
    14.659319      0.021789      1.787919
    14.689378      0.022603      1.794307
    14.719439      0.023528      1.800917
    14.749499      0.024599      1.807767
    14.779558      0.025866      1.814870
    14.809619      0.027407      1.822232
    14.839679      0.029333      1.829825
    14.869739      0.031801      1.837555
    14.899799      0.034977      1.845155
    14.929859      0.038854      1.852084
    14.959920      0.042792      1.857660
    14.989979      0.045336      1.862036
    15.020040      0.045716      1.866946
    15.050100      0.045123      1.873917
    15.080159      0.045121      1.882831
    15.110220      0.046443      1.892864
    15.140280      0.049296      1.903209
    15.170341      0.053578      1.912992
    15.200401      0.058495      1.921270
    15.230460      0.062268      1.928038
    15.260521      0.063789      1.935253
    15.290580      0.064357      1.944792
    15.320641      0.065788      1.956489
    15.350701      0.068704      1.969385
    15.380760      0.073167      1.982992
    15.410821      0.079542      1.996837
    15.440881      0.087827      2.009665
    15.470942      0.096341      2.020397
    15.501002      0.102695      2.030582
    15.531061      0.107626      2.043717
    15.561122      0.114862      2.060774
    15.591181      0.127457      2.079494
    15.621242      0.146473      2.095941
    15.651302      0.169850      2.105279
    15.681361      0.190942      2.105083
    15.711422      0.202608      2.100234
    15.741482      0.205172      2.099920
    15.771543      0.206183      2.108152
    15.801603      0.211016      2.120920
    15.831662      0.217889      2.134409
    15.861723      0.224806      2.151013
    15.891782      0.235665      2.173170
    15.921843      0.255084      2.197860
    15.951903      0.284000      2.219902
    15.981964      0.320586      2.234405
    16.012024      0.359783      2.237806
    16.042082      0.394980      2.230927
    16.072144      0.421182      2.219033
    16.102203      0.439691      2.211417
    16.132265      0.461968      2.211054
    16.162325      0.495461      2.205591
    16.192385      0.528624      2.182416
    16.222445      0.544802      2.149114
    16.252504      0.544759      2.122209
    16.282566      0.540775      2.107302
    16.312624      0.540995      2.096833
    16.342686      0.540131      2.083265
    16.372744      0.531234      2.071068
    16.402805      0.516372      2.067325
    16.432865      0.500980      2.074157
    16.462925      0.489389      2.090348
    16.492987      0.483152      2.114098
    16.523045      0.484556      2.146757
    16.553106      0.501101      2.186879
    16.583166      0.537841      2.225742
    16.613226      0.593943      2.254601
    16.643286      0.668440      2.264702
    16.673346      0.754179      2.241860
    16.703405      0.831416      2.177682
    16.733467      0.876626      2.074691
    16.763527      0.860215      1.952597
    16.793587      0.776726      1.862446
    16.823647      0.669296      1.837483
    16.853706      0.579155      1.864112
    16.883768      0.517893      1.917030
    16.913826      0.482830      1.980902
    16.943888      0.469992      2.048514
    16.973946      0.476795      2.114994
    17.004007      0.499430      2.177073
    17.034067      0.536728      2.236116
    17.064127      0.595938      2.289380
    17.094189      0.680923      2.319107
    17.124247      0.772413      2.302582
    17.154308      0.829310      2.243895
    17.184368      0.831072      2.187245
    17.214430      0.806616      2.172078
    17.244488      0.798633      2.193208
    17.274548      0.821424      2.218715
    17.304609      0.858646      2.225267
    17.334669      0.887157      2.217322
    17.364729      0.906033      2.212755
    17.394789      0.926912      2.213481
    17.424849      0.951126      2.211488
    17.454908      0.969990      2.205853
    17.484970      0.981213      2.208824
    17.515030      0.999548      2.226058
    17.545090      1.032894      2.244455
    17.575150      1.071710      2.259424
    17.605209      1.119869      2.281974
    17.635271      1.198612      2.303209
    17.665331      1.307644      2.288844
    17.695391      1.409298      2.217286
    17.725449      1.459828      2.112086
    17.755510      1.456345      2.025044
    17.785570      1.440297      1.984435
    17.815632      1.455072      1.971386
    17.845690      1.507655      1.938330
    17.875750      1.555459      1.854525
    17.905811      1.549324      1.748391
    17.935871      1.495180      1.677203
    17.965933      1.443866      1.660398
    17.995991      1.433907      1.665831
    18.026051      1.455320      1.649343
    18.056110      1.471561      1.604865
    18.086172      1.471313      1.555668
    18.116232      1.468834      1.510203
    18.146292      1.470348      1.453968
    18.176352      1.455993      1.373959
    18.206411      1.398505      1.289733
    18.236473      1.304304      1.237532
    18.266533      1.200969      1.230018
    18.296593      1.108807      1.263891
    18.326653      1.046472      1.332012
    18.356712      1.030024      1.415092
    18.386772      1.062211      1.485273
    18.416834      1.126309      1.513266
    18.446892      1.181569      1.490224
    18.476954      1.197795      1.449459
    18.507013      1.192706      1.428167
    18.537073      1.201485      1.421389
    18.567135      1.227784      1.395030
    18.597193      1.236994      1.336152
    18.627254      1.205889      1.272914
    18.657312      1.144149      1.231529
    18.687374      1.065180      1.224724
    18.717434      0.991591      1.263915
    18.747496      0.955092      1.338566
    18.777555      0.970301      1.416482
    18.807613      1.023628      1.464846
    18.837675      1.082359      1.476851
    18.867735      1.134365      1.474936
    18.897797      1.199054      1.463899
    18.927855      1.281101      1.413834
    18.957914      1.340602      1.299296
    18.987974      1.321800      1.149220
    19.018036      1.218733      1.032017
    19.048096      1.080371      0.990457
    19.078156      0.961595      1.013307
    19.108215      0.879372      1.061796
    19.138275      0.818068      1.114933
    19.168337      0.766720      1.178077
    19.198397      0.731546      1.257088
    19.228456      0.722321      1.348825
    19.258514      0.747903      1.443547
    19.288576      0.811645      1.524533
    19.318636      0.907217      1.572717
    19.348698      1.016881      1.570754
    19.378757      1.108360      1.512635
    19.408815      1.146450      1.421096
    19.438877      1.127964      1.342172
    19.468937      1.083403      1.298216
    19.498999      1.032241      1.285203
    19.529057      0.984284      1.303384
    19.559116      0.957159      1.351529
    19.589176      0.969148      1.412898
    19.619238      1.021912      1.459413
    19.649298      1.098827      1.470191
    19.679358      1.177010      1.435620
    19.709417      1.224208      1.359749
    19.739477      1.218004      1.278762
    19.769539      1.179120      1.231358
    19.799599      1.144670      1.220034
    19.829659      1.135075      1.221460
    19.859718      1.142799      1.207707
    19.889778      1.139900      1.174804
    19.919840      1.116321      1.148186
    19.949900      1.095638      1.140326
    19.979959      1.092466      1.127281
    20.010019      1.080828      1.089153
    20.040079      1.032351      1.051083
    20.070139      0.963157      1.048030
    20.100201      0.905762      1.079174
    20.130259      0.870355      1.125645
    20.160320      0.855329      1.180314
    20.190380      0.869148      1.236824
    20.220440      0.914064      1.271032
    20.250502      0.962835      1.261046
    20.280560      0.977325      1.221483
    20.310621      0.951355      1.191290
    20.340679      0.908639      1.193029
    20.370741      0.873727      1.223692
    20.400801      0.855856      1.271571
    20.430862      0.860654      1.331218
    20.460920      0.898058      1.389060
    20.490980      0.961832      1.421050
    20.521042      1.025831      1.417747
    20.551102      1.068452      1.395421
    20.581163      1.092828      1.378827
    20.611221      1.120866      1.374508
    20.641281      1.165996      1.365130
    20.671341      1.218216      1.331565
    20.701403      1.257653      1.270772
    20.731462      1.267160      1.193328
    20.761522      1.240207      1.119214
    20.791582      1.182325      1.068759
    20.821642      1.112632      1.057546
    20.851704      1.056435      1.083230
    20.881763      1.030121      1.129959
    20.911823      1.037723      1.176565
    20.941881      1.070255      1.204524
    20.971943      1.109523      1.205636
    21.002003      1.139902      1.185541
    21.032064      1.152444      1.152601
    21.062124      1.140177      1.122673
    21.092182      1.114734      1.115786
    21.122244      1.100446      1.131960
    21.152304      1.109539      1.151770
    21.182365      1.132882      1.154675
    21.212423      1.145705      1.139012
    21.242483      1.137663      1.130568
    21.272543      1.131091      1.146188
    21.302605      1.146236      1.173462
    21.332664      1.184736      1.195002
    21.362724      1.239392      1.199205
    21.392784      1.299983      1.181445
    21.422844      1.357035      1.141695
    21.452906      1.401973      1.086194
    21.482965      1.439504      1.024568
    21.513025      1.480038      0.942860
    21.543083      1.495443      0.818488
    21.573145      1.440788      0.681637
    21.603205      1.327267      0.591707
    21.633266      1.204819      0.566287
    21.663326      1.107714      0.583755
    21.693386      1.040786      0.615258
    21.723446      0.991698      0.645725
    21.753506      0.947556      0.676529
    21.783567      0.907447      0.718105
    21.813625      0.882610      0.774250
    21.843687      0.884838      0.837276
    21.873745      0.919897      0.891247
    21.903807      0.982807      0.914733
    21.933867      1.049584      0.888898
    21.963928      1.080895      0.820737
    21.993988      1.057629      0.751687
    22.024046      1.004880      0.718336
    22.054108      0.959124      0.717216
    22.084167      0.930674      0.723722
    22.114229      0.907311      0.724460
    22.144287      0.877497      0.723929
    22.174347      0.840499      0.731422
    22.204407      0.801754      0.752819
    22.234468      0.769756      0.789655
    22.264528      0.752312      0.836836
    22.294588      0.751184      0.886818
    22.324648      0.765096      0.934665
    22.354708      0.791820      0.977630
    22.384769      0.832493      1.016494
    22.414829      0.895748      1.044798
    22.444889      0.981249      1.040107
    22.474949      1.061131      0.982373
    22.505009      1.094838      0.886458
    22.535070      1.072778      0.796099
    22.565130      1.022894      0.738734
    22.595190      0.973482      0.705586
    22.625248      0.923687      0.677544
    22.655310      0.860072      0.657534
    22.685369      0.786194      0.660191
    22.715431      0.716874      0.687577
    22.745489      0.659066      0.731054
    22.775549      0.611327      0.786004
    22.805611      0.574246      0.853094
    22.835670      0.551721      0.931857
    22.865732      0.547516      1.019713
    22.895790      0.565100      1.113973
    22.925850      0.610023      1.210983
    22.955910      0.689622      1.302338
    22.985971      0.809256      1.371185
    23.016031      0.962818      1.390777
    23.046091      1.118462      1.336329
    23.076151      1.225057      1.217129
    23.106211      1.259441      1.081442
    23.136272      1.240836      0.964509
    23.166332      1.185585      0.873979
    23.196392      1.102678      0.822935
    23.226452      1.015821      0.821316
    23.256512      0.948485      0.861210
    23.286572      0.914935      0.928623
    23.316633      0.925253      1.005622
    23.346691      0.981077      1.067903
    23.376753      1.068888      1.089298
    23.406813      1.155027      1.056212
    23.436872      1.206023      0.987685
    23.466934      1.219046      0.913220
    23.496992      1.200358      0.845535
    23.527054      1.154456      0.800675
    23.557112      1.102234      0.789445
    23.587173      1.060760      0.802292
    23.617233      1.032499      0.830485
    23.647295      1.022158      0.871298
    23.677353      1.035477      0.915705
    23.707413      1.071489      0.954411
    23.737474      1.130355      0.980220
    23.767534      1.212105      0.978676
    23.797596      1.301094      0.925484
    23.827652      1.348507      0.815084
    23.857714      1.316374      0.699884
    23.887774      1.234080      0.637322
    23.917835      1.150121      0.631424
    23.947895      1.088058      0.663685
    23.977953      1.057369      0.714778
    24.008015      1.055272      0.766724
    24.038074      1.071754      0.811584
    24.068136      1.099732      0.850913
    24.098196      1.140478      0.888495
    24.128254      1.200460      0.922253
    24.158314      1.285650      0.942006
    24.188375      1.392362      0.928662
    24.218435      1.497744      0.868841
    24.248497      1.574601      0.774257
    24.278557      1.621091      0.670908
    24.308615      1.652923      0.562224
    24.338676      1.665776      0.434389
    24.368736      1.633819      0.293197
    24.398798      1.549657      0.174552
    24.428858      1.439705      0.104025
    24.458916      1.335408      0.080605
    24.488976      1.256513      0.085163
    24.519037      1.202921      0.095594
    24.549097      1.163452      0.101801
    24.579159      1.130594      0.104646
    24.609217      1.102254      0.104372
    24.639277      1.075234      0.102350
    24.669338      1.052408      0.100697
    24.699398      1.035286      0.092287
    24.729460      1.014440      0.071582
    24.759518      0.976542      0.043880
    24.789577      0.916429      0.028019
    24.819639      0.849410      0.040355
    24.849699      0.795706      0.078893
    24.879759      0.768049      0.131558
    24.909817      0.770411      0.180807
    24.939878      0.794229      0.210548
    24.969938      0.825077      0.214368
    25.000000      0.848234      0.192905
# 
# 01/08/2018 at 17:17 YAMBO @ polluce [start]
# 01/08/2018 at 17:17                 [end]
#  
# Timing   [Min/Max/Average]: 10s/10s/10s
#
# .-Input file : yambo.in
# | optics                         # [R OPT] Optics
# | chi                            # [R CHI] Dyson equation for Chi.
# | BoseTemp= 0.000000     eV      # Bosonic Temperature
# | FFTGvecs= 1807         RL      # [FFT] Plane-waves
# | X_Threads= 1                   # [OPENMP/X] Number of threads for response functions
# | DIP_Threads= 1                 # [OPENMP/X] Number of threads for dipoles
# | Chimod= "IP"                   # [X] IP/Hartree/ALDA/LRC/BSfxc
# | NGsBlkXd= 1            RL      # [Xd] Response block size
# | % QpntsRXd
# |   1 | 19 |                     # [Xd] Transferred momenta
# | %
# | % BndsRnXd
# |   2 |  7 |                     # [Xd] Polarization function bands
# | %
# | % EnRngeXd
# |  10.00000 | 25.00000 | eV      # [Xd] Energy range
# | %
# | % DmRngeXd
# |   0.10000 |  0.10000 | eV      # [Xd] Damping range
# | %
# | ETStpsXd=  500                 # [Xd] Total Energy steps
# | % LongDrXd
# | 0.1000E-4 | 0.000    | 0.000    |        # [Xd] [cc] Electric Field
# | %
# | % XfnQP_E
# |  5.350000 | 1.000000 | 1.000000 |        # [EXTQP Xd] E parameters  (c/v) eV|adim|adim
# | %
