#                                                           
#  **    **    **     ****     ****  ******     *******     
# //**  **    ****   /**/**   **/** /*////**   **/////**    
#  //****    **//**  /**//** ** /** /*   /**  **     //**   
#   //**    **  //** /** //***  /** /******  /**      /**   
#    /**   **********/**  //*   /** /*//// **/**      /**   
#    /**  /**//////**/**   /    /** /*    /**//**     **    
#    /**  /**     /**/**        /** /*******  //*******     
#    //   //      // //         //  ///////    ///////      
#                                                           
#        Version 4.3.0 Revision 15186 Hash adaf3b3          
#                  MPI+SLK+OpenMP Build                     
#                http://www.yambo-code.org                  
#
# Absorption @ Q(19) [iku] : 0.0000000 -0.5000000  0.0000000
#
#
# - Energies      are  Analyt. E
# - Wavefunctions are Slater exchange(X)+Perdew & Zunger(C)
#
# - The Green`s function is T-ordered -
#
#    E/ev[1]       EPS-Im[2]     EPS-Re[3]
#
    10.000       0.25519E-2     1.3185   
    10.030       0.25656E-2     1.3191   
    10.060       0.25795E-2     1.3197   
    10.090       0.25935E-2     1.3204   
    10.120       0.26076E-2     1.3210   
    10.150       0.26219E-2     1.3216   
    10.180       0.26363E-2     1.3222   
    10.210       0.26509E-2     1.3229   
    10.240       0.26657E-2     1.3235   
    10.271       0.26806E-2     1.3242   
    10.301       0.26956E-2     1.3248   
    10.331       0.27109E-2     1.3255   
    10.361       0.27262E-2     1.3261   
    10.391       0.27418E-2     1.3268   
    10.421       0.27575E-2     1.3275   
    10.451       0.27734E-2     1.3282   
    10.481       0.27895E-2     1.3288   
    10.511       0.28057E-2     1.3295   
    10.541       0.28221E-2     1.3302   
    10.571       0.28387E-2     1.3309   
    10.601       0.28555E-2     1.3316   
    10.631       0.28725E-2     1.3323   
    10.661       0.28897E-2     1.3330   
    10.691       0.29070E-2     1.3338   
    10.721       0.29246E-2     1.3345   
    10.752       0.29423E-2     1.3352   
    10.782       0.29603E-2     1.3359   
    10.812       0.29784E-2     1.3367   
    10.842       0.29968E-2     1.3374   
    10.872       0.30154E-2     1.3382   
    10.902       0.30342E-2     1.3389   
    10.932       0.30532E-2     1.3397   
    10.962       0.30724E-2     1.3405   
    10.992       0.30918E-2     1.3413   
    11.022       0.31115E-2     1.3420   
    11.052       0.31314E-2     1.3428   
    11.082       0.31516E-2     1.3436   
    11.112       0.31720E-2     1.3444   
    11.142       0.31926E-2     1.3452   
    11.172       0.32135E-2     1.3460   
    11.202       0.32346E-2     1.3469   
    11.232       0.32560E-2     1.3477   
    11.263       0.32777E-2     1.3485   
    11.293       0.32996E-2     1.3494   
    11.323       0.33218E-2     1.3502   
    11.353       0.33442E-2     1.3511   
    11.383       0.33670E-2     1.3519   
    11.413       0.33900E-2     1.3528   
    11.443       0.34133E-2     1.3537   
    11.473       0.34369E-2     1.3546   
    11.503       0.34608E-2     1.3555   
    11.533       0.34850E-2     1.3564   
    11.563       0.35095E-2     1.3573   
    11.593       0.35343E-2     1.3582   
    11.623       0.35595E-2     1.3591   
    11.653       0.35849E-2     1.3600   
    11.683       0.36107E-2     1.3610   
    11.713       0.36369E-2     1.3619   
    11.743       0.36634E-2     1.3629   
    11.774       0.36902E-2     1.3638   
    11.804       0.37174E-2     1.3648   
    11.834       0.37450E-2     1.3658   
    11.864       0.37729E-2     1.3668   
    11.894       0.38012E-2     1.3678   
    11.924       0.38299E-2     1.3688   
    11.954       0.38590E-2     1.3698   
    11.984       0.38885E-2     1.3708   
    12.014       0.39184E-2     1.3718   
    12.044       0.39487E-2     1.3729   
    12.074       0.39794E-2     1.3739   
    12.104       0.40106E-2     1.3750   
    12.134       0.40422E-2     1.3761   
    12.164       0.40743E-2     1.3771   
    12.194       0.41068E-2     1.3782   
    12.224       0.41398E-2     1.3793   
    12.255       0.41733E-2     1.3804   
    12.285       0.42072E-2     1.3816   
    12.315       0.42417E-2     1.3827   
    12.345       0.42767E-2     1.3838   
    12.375       0.43122E-2     1.3850   
    12.405       0.43482E-2     1.3862   
    12.435       0.43848E-2     1.3873   
    12.465       0.44219E-2     1.3885   
    12.495       0.44596E-2     1.3897   
    12.525       0.44979E-2     1.3909   
    12.555       0.45367E-2     1.3921   
    12.585       0.45762E-2     1.3934   
    12.615       0.46163E-2     1.3946   
    12.645       0.46571E-2     1.3959   
    12.675       0.46984E-2     1.3972   
    12.705       0.47405E-2     1.3984   
    12.735       0.47832E-2     1.3997   
    12.766       0.48266E-2     1.4010   
    12.796       0.48708E-2     1.4024   
    12.826       0.49156E-2     1.4037   
    12.856       0.49613E-2     1.4051   
    12.886       0.50077E-2     1.4064   
    12.916       0.50548E-2     1.4078   
    12.946       0.51028E-2     1.4092   
    12.976       0.51516E-2     1.4106   
    13.006       0.52013E-2     1.4120   
    13.036       0.52518E-2     1.4135   
    13.066       0.53032E-2     1.4149   
    13.096       0.53555E-2     1.4164   
    13.126       0.54088E-2     1.4179   
    13.156       0.54630E-2     1.4194   
    13.186       0.55183E-2     1.4209   
    13.216       0.55745E-2     1.4224   
    13.246       0.56318E-2     1.4240   
    13.277       0.56901E-2     1.4255   
    13.307       0.57496E-2     1.4271   
    13.337       0.58102E-2     1.4287   
    13.367       0.58720E-2     1.4304   
    13.397       0.59350E-2     1.4320   
    13.427       0.59992E-2     1.4337   
    13.457       0.60647E-2     1.4354   
    13.487       0.61315E-2     1.4371   
    13.517       0.61997E-2     1.4388   
    13.547       0.62693E-2     1.4405   
    13.577       0.63403E-2     1.4423   
    13.607       0.64128E-2     1.4441   
    13.637       0.64869E-2     1.4459   
    13.667       0.65625E-2     1.4477   
    13.697       0.66398E-2     1.4496   
    13.727       0.67187E-2     1.4515   
    13.758       0.67995E-2     1.4534   
    13.788       0.68820E-2     1.4553   
    13.818       0.69664E-2     1.4572   
    13.848       0.70528E-2     1.4592   
    13.878       0.71411E-2     1.4612   
    13.908       0.72316E-2     1.4633   
    13.938       0.73242E-2     1.4653   
    13.968       0.74191E-2     1.4674   
    13.998       0.75163E-2     1.4695   
    14.028       0.76160E-2     1.4717   
    14.058       0.77181E-2     1.4738   
    14.088       0.78229E-2     1.4761   
    14.118       0.79305E-2     1.4783   
    14.148       0.80408E-2     1.4806   
    14.178       0.81542E-2     1.4829   
    14.208       0.82706E-2     1.4852   
    14.238       0.83903E-2     1.4876   
    14.269       0.85134E-2     1.4900   
    14.299       0.86400E-2     1.4925   
    14.329       0.87704E-2     1.4949   
    14.359       0.89046E-2     1.4975   
    14.389       0.90429E-2     1.5000   
    14.419       0.91856E-2     1.5027   
    14.449       0.93327E-2     1.5053   
    14.479       0.94846E-2     1.5080   
    14.509       0.96415E-2     1.5108   
    14.539       0.98037E-2     1.5136   
    14.569       0.99716E-2     1.5164   
    14.599       0.10145E-1     1.5193   
    14.629       0.10325E-1     1.5222   
    14.659       0.10512E-1     1.5253   
    14.689       0.10706E-1     1.5283   
    14.719       0.10908E-1     1.5314   
    14.749       0.11118E-1     1.5346   
    14.780       0.11336E-1     1.5379   
    14.810       0.11564E-1     1.5412   
    14.840       0.11802E-1     1.5446   
    14.870       0.12051E-1     1.5480   
    14.900       0.12312E-1     1.5515   
    14.930       0.12586E-1     1.5551   
    14.960       0.12874E-1     1.5588   
    14.990       0.13177E-1     1.5626   
    15.020       0.13498E-1     1.5665   
    15.050       0.13838E-1     1.5705   
    15.080       0.14199E-1     1.5745   
    15.110       0.14583E-1     1.5787   
    15.140       0.14995E-1     1.5830   
    15.170341      0.015437      1.587415
    15.200401      0.015914      1.591966
    15.230460      0.016432      1.596660
    15.260521      0.016999      1.601507
    15.290580      0.017622      1.606520
    15.320641      0.018314      1.611715
    15.350701      0.019090      1.617108
    15.380760      0.019972      1.622718
    15.410821      0.020988      1.628570
    15.440881      0.022178      1.634687
    15.470942      0.023603      1.641098
    15.501002      0.025347      1.647826
    15.531061      0.027542      1.654884
    15.561122      0.030381      1.662247
    15.591181      0.034155      1.669792
    15.621242      0.039243      1.677158
    15.651302      0.045963      1.683491
    15.681361      0.053929      1.687228
    15.711422      0.060828      1.686928
    15.741482      0.062919      1.684120
    15.771543      0.059601      1.683561
    15.801603      0.054392      1.687829
    15.831662      0.050220      1.695922
    15.861723      0.047891      1.706190
    15.891782      0.047248      1.717662
    15.921843      0.048001      1.729955
    15.951903      0.049964      1.742992
    15.981964      0.053092      1.756840
    16.012024      0.057474      1.771637
    16.042082      0.063341      1.787563
    16.072144      0.071098      1.804820
    16.102203      0.081389      1.823601
    16.132265      0.095213      1.844021
    16.162325      0.114100      1.865948
    16.192385      0.140346      1.888595
    16.222445      0.177091      1.909562
    16.252504      0.227504      1.923056
    16.282566      0.290911      1.918118
    16.312624      0.355173      1.882811
    16.342686      0.398291      1.819768
    16.372744      0.410482      1.747952
    16.402805      0.395898      1.679654
    16.432865      0.355529      1.623903
    16.462925      0.298650      1.594817
    16.492987      0.244690      1.593648
    16.523045      0.204537      1.608368
    16.553106      0.177488      1.627399
    16.583166      0.157646      1.645511
    16.613226      0.140435      1.663792
    16.643286      0.125973      1.684393
    16.673346      0.115715      1.706642
    16.703405      0.109428      1.728643
    16.733467      0.105342      1.749421
    16.763527      0.101784      1.769913
    16.793587      0.098907      1.791699
    16.823647      0.097815      1.815142
    16.853706      0.099164      1.839799
    16.883768      0.103210      1.865188
    16.913826      0.110135      1.890778
    16.943888      0.119863      1.915741
    16.973946      0.131362      1.939254
    17.004007      0.142812      1.962131
    17.034067      0.154397      1.987127
    17.064127      0.169247      2.015281
    17.094189      0.189858      2.044223
    17.124247      0.215299      2.070672
    17.154308      0.242092      2.094795
    17.184368      0.270525      2.120935
    17.214430      0.306463      2.149576
    17.244488      0.352731      2.175056
    17.274548      0.407004      2.194091
    17.304609      0.471498      2.206302
    17.334669      0.550499      2.200632
    17.364729      0.630494      2.159684
    17.394789      0.682539      2.085967
    17.424849      0.689284      2.004813
    17.454908      0.655246      1.948080
    17.484970      0.609455      1.935324
    17.515030      0.581528      1.955538
    17.545090      0.577596      1.988369
    17.575150      0.595171      2.026804
    17.605209      0.642541      2.065266
    17.635271      0.727043      2.080347
    17.665331      0.829630      2.037471
    17.695391      0.895527      1.926829
    17.725449      0.878370      1.796813
    17.755510      0.793258      1.710865
    17.785570      0.687559      1.691914
    17.815632      0.599404      1.728881
    17.845690      0.545922      1.798412
    17.875750      0.528559      1.881507
    17.905811      0.544889      1.967465
    17.935871      0.595619      2.047698
    17.965933      0.681009      2.107032
    17.995991      0.786828      2.124488
    18.026051      0.876393      2.097773
    18.056110      0.928434      2.067647
    18.086172      0.979631      2.069899
    18.116232      1.080318      2.080783
    18.146292      1.236897      2.036505
    18.176352      1.390171      1.883533
    18.206411      1.446627      1.643953
    18.236473      1.372180      1.410620
    18.266533      1.212267      1.254572
    18.296593      1.027145      1.189816
    18.326653      0.858672      1.202166
    18.356712      0.731912      1.264921
    18.386772      0.651340      1.348199
    18.416834      0.605822      1.432828
    18.446892      0.582535      1.516116
    18.476954      0.580843      1.603168
    18.507013      0.609926      1.691029
    18.537073      0.677061      1.764694
    18.567135      0.777910      1.799008
    18.597193      0.882934      1.769899
    18.627254      0.942684      1.686357
    18.657312      0.932045      1.596879
    18.687374      0.869144      1.550368
    18.717434      0.799106      1.567578
    18.747496      0.763379      1.632547
    18.777555      0.779193      1.713501
    18.807613      0.844762      1.780578
    18.837675      0.946414      1.810362
    18.867735      1.060860      1.785831
    18.897797      1.149601      1.706886
    18.927855      1.188722      1.612647
    18.957914      1.206845      1.531447
    18.987974      1.221332      1.437175
    19.018036      1.194279      1.318948
    19.048096      1.106919      1.225736
    19.078156      1.000870      1.187472
    19.108215      0.903167      1.184127
    19.138275      0.807965      1.207319
    19.168337      0.723022      1.267210
    19.198397      0.668442      1.359188
    19.228456      0.654970      1.467352
    19.258514      0.685746      1.576412
    19.288576      0.761428      1.670259
    19.318636      0.875636      1.728552
    19.348698      1.007614      1.735268
    19.378757      1.132533      1.691427
    19.408815      1.233558      1.606547
    19.438877      1.299352      1.495340
    19.468937      1.329022      1.371990
    19.498999      1.323889      1.245463
    19.529057      1.285576      1.118138
    19.559116      1.197395      0.995251
    19.589176      1.052035      0.917964
    19.619238      0.891769      0.920112
    19.649298      0.764139      0.987509
    19.679358      0.686447      1.088500
    19.709417      0.658226      1.199950
    19.739477      0.676474      1.306476
    19.769539      0.738582      1.392266
    19.799599      0.835060      1.436211
    19.829659      0.937961      1.421251
    19.859718      1.009628      1.356720
    19.889778      1.031389      1.276930
    19.919840      1.017961      1.217595
    19.949900      1.007093      1.179883
    19.979959      1.004674      1.126392
    20.010019      0.965834      1.047818
    20.040079      0.868745      0.996364
    20.070139      0.755744      1.011200
    20.100201      0.671632      1.079274
    20.130259      0.632206      1.172871
    20.160320      0.639426      1.270939
    20.190380      0.693395      1.354857
    20.220440      0.789435      1.398891
    20.250502      0.899703      1.371044
    20.280560      0.960300      1.268566
    20.310621      0.923708      1.157314
    20.340679      0.824179      1.112546
    20.370741      0.728754      1.144220
    20.400801      0.673859      1.222450
    20.430862      0.668644      1.318159
    20.460920      0.714219      1.408888
    20.490980      0.807899      1.469714
    20.521042      0.931214      1.469675
    20.551102      1.036800      1.391959
    20.581163      1.069926      1.264648
    20.611221      1.013461      1.153939
    20.641281      0.909754      1.116644
    20.671341      0.822527      1.153086
    20.701403      0.785180      1.226411
    20.731462      0.799367      1.298069
    20.761522      0.844553      1.340398
    20.791582      0.887583      1.351808
    20.821642      0.913706      1.358487
    20.851704      0.938963      1.381976
    20.881763      0.992259      1.420004
    20.911823      1.093807      1.440559
    20.941881      1.225958      1.397521
    20.971943      1.333525      1.275677
    21.002003      1.371476      1.105203
    21.032064      1.320369      0.931091
    21.062124      1.190891      0.811479
    21.092182      1.039254      0.779546
    21.122244      0.919885      0.816437
    21.152304      0.854626      0.880715
    21.182365      0.833928      0.932152
    21.212423      0.821505      0.952205
    21.242483      0.784099      0.964961
    21.272543      0.732863      1.007819
    21.302605      0.701036      1.084411
    21.332664      0.705316      1.175398
    21.362724      0.745287      1.263168
    21.392784      0.816324      1.338697
    21.422844      0.918041      1.396077
    21.452906      1.054821      1.422562
    21.482965      1.222181      1.388396
    21.513025      1.380461      1.260609
    21.543083      1.455589      1.050320
    21.573145      1.405271      0.840307
    21.603205      1.280321      0.711621
    21.633266      1.160725      0.657819
    21.663326      1.062617      0.626153
    21.693386      0.954310      0.605476
    21.723446      0.834340      0.625854
    21.753506      0.735247      0.694382
    21.783567      0.678204      0.790714
    21.813625      0.666902      0.892505
    21.843687      0.697113      0.980819
    21.873745      0.756454      1.038835
    21.903807      0.822906      1.059641
    21.933867      0.876010      1.053620
    21.963928      0.910816      1.041912
    21.993988      0.942813      1.040162
    22.024046      0.997876      1.039671
    22.054108      1.080691      1.000982
    22.084167      1.143649      0.893219
    22.114229      1.126745      0.752476
    22.144287      1.033247      0.647416
    22.174347      0.907774      0.609740
    22.204407      0.792998      0.636222
    22.234468      0.714050      0.703750
    22.264528      0.675988      0.789897
    22.294588      0.679278      0.880970
    22.324648      0.726455      0.962428
    22.354708      0.815608      1.013135
    22.384769      0.930980      1.007443
    22.414829      1.034240      0.930298
    22.444889      1.081512      0.799984
    22.474949      1.050777      0.657792
    22.505009      0.947937      0.553763
    22.535070      0.816291      0.522478
    22.565130      0.705617      0.553822
    22.595190      0.636133      0.614826
    22.625248      0.604386      0.679755
    22.655310      0.601450      0.735071
    22.685369      0.619827      0.770045
    22.715431      0.643565      0.771320
    22.745489      0.640242      0.742468
    22.775549      0.593102      0.720050
    22.805611      0.525108      0.735127
    22.835670      0.466179      0.786611
    22.865732      0.429684      0.859834
    22.895790      0.417607      0.943251
    22.925850      0.429669      1.030561
    22.955910      0.467545      1.117374
    22.985971      0.535533      1.196985
    23.016031      0.637720      1.255524
    23.046091      0.768244      1.269660
    23.076151      0.898542      1.219154
    23.106211      0.987303      1.111224
    23.136272      1.007311      0.979871
    23.166332      0.960606      0.871769
    23.196392      0.883197      0.813375
    23.226452      0.803917      0.796425
    23.256512      0.732989      0.812127
    23.286572      0.681893      0.852314
    23.316633      0.653444      0.901097
    23.346691      0.638951      0.952312
    23.376753      0.638869      1.010611
    23.406813      0.663734      1.070523
    23.436872      0.714447      1.112159
    23.466934      0.768216      1.119114
    23.496992      0.793996      1.107788
    23.527054      0.796869      1.114417
    23.557112      0.806803      1.144146
    23.587173      0.832776      1.180116
    23.617233      0.869582      1.217771
    23.647295      0.918881      1.258875
    23.677353      0.984625      1.305042
    23.707413      1.082116      1.357912
    23.737474      1.235104      1.397439
    23.767534      1.451556      1.377320
    23.797596      1.697700      1.232385
    23.827652      1.862970      0.932135
    23.857714      1.834711      0.575466
    23.887774      1.641018      0.311545
    23.917835      1.390372      0.191587
    23.947895      1.162384      0.191350
    23.977953      0.995662      0.264321
    24.008015      0.894727      0.365318
    24.038074      0.843143      0.467250
    24.068136      0.823662      0.565328
    24.098196      0.833304      0.664363
    24.128254      0.880772      0.762217
    24.158314      0.975083      0.843469
    24.188375      1.112244      0.881219
    24.218435      1.264628      0.855317
    24.248497      1.403162      0.775082
    24.278557      1.526915      0.650760
    24.308615      1.624087      0.463510
    24.338676      1.640632      0.214994
    24.368736      1.534504     -0.028083
    24.398798      1.343815     -0.185493
    24.428858      1.144929     -0.246985
    24.458916      0.977899     -0.249287
    24.488976      0.844460     -0.228072
    24.519037      0.729499     -0.197463
    24.549097      0.625724     -0.154841
    24.579159      0.535338     -0.099017
    24.609217      0.460822     -0.032577
    24.639277      0.403973      0.040966
    24.669338      0.365455      0.116670
    24.699398      0.343531      0.189479
    24.729460      0.334252      0.255528
    24.759518      0.331732      0.314054
    24.789577      0.332057      0.369325
    24.819639      0.337276      0.425800
    24.849699      0.351415      0.483845
    24.879759      0.378158      0.541458
    24.909817      0.420178      0.593093
    24.939878      0.473753      0.631516
    24.969938      0.530259      0.658486
    25.000000      0.593887      0.684515
# 
# 01/08/2018 at 17:17 YAMBO @ polluce [start]
# 01/08/2018 at 17:17                 [end]
#  
# Timing   [Min/Max/Average]: 10s/10s/10s
#
# .-Input file : yambo.in
# | optics                         # [R OPT] Optics
# | chi                            # [R CHI] Dyson equation for Chi.
# | BoseTemp= 0.000000     eV      # Bosonic Temperature
# | FFTGvecs= 1807         RL      # [FFT] Plane-waves
# | X_Threads= 1                   # [OPENMP/X] Number of threads for response functions
# | DIP_Threads= 1                 # [OPENMP/X] Number of threads for dipoles
# | Chimod= "IP"                   # [X] IP/Hartree/ALDA/LRC/BSfxc
# | NGsBlkXd= 1            RL      # [Xd] Response block size
# | % QpntsRXd
# |   1 | 19 |                     # [Xd] Transferred momenta
# | %
# | % BndsRnXd
# |   2 |  7 |                     # [Xd] Polarization function bands
# | %
# | % EnRngeXd
# |  10.00000 | 25.00000 | eV      # [Xd] Energy range
# | %
# | % DmRngeXd
# |   0.10000 |  0.10000 | eV      # [Xd] Damping range
# | %
# | ETStpsXd=  500                 # [Xd] Total Energy steps
# | % LongDrXd
# | 0.1000E-4 | 0.000    | 0.000    |        # [Xd] [cc] Electric Field
# | %
# | % XfnQP_E
# |  5.350000 | 1.000000 | 1.000000 |        # [EXTQP Xd] E parameters  (c/v) eV|adim|adim
# | %
