#                                                           
#  **    **    **     ****     ****  ******     *******     
# //**  **    ****   /**/**   **/** /*////**   **/////**    
#  //****    **//**  /**//** ** /** /*   /**  **     //**   
#   //**    **  //** /** //***  /** /******  /**      /**   
#    /**   **********/**  //*   /** /*//// **/**      /**   
#    /**  /**//////**/**   /    /** /*    /**//**     **    
#    /**  /**     /**/**        /** /*******  //*******     
#    //   //      // //         //  ///////    ///////      
#                                                           
#        Version 4.3.0 Revision 15186 Hash adaf3b3          
#                  MPI+SLK+OpenMP Build                     
#                http://www.yambo-code.org                  
#
# Absorption @ Q(5) [iku] : 0.2500000 -0.2500000 -0.1250000
#
#
# - Energies      are  Analyt. E
# - Wavefunctions are Slater exchange(X)+Perdew & Zunger(C)
#
# - The Green`s function is T-ordered -
#
#    E/ev[1]       EPS-Im[2]     EPS-Re[3]
#
    10.000       0.37554E-2     1.4513   
    10.030       0.37769E-2     1.4523   
    10.060       0.37987E-2     1.4532   
    10.090       0.38207E-2     1.4541   
    10.120       0.38430E-2     1.4550   
    10.150       0.38655E-2     1.4560   
    10.180       0.38883E-2     1.4569   
    10.210       0.39113E-2     1.4579   
    10.240       0.39346E-2     1.4588   
    10.271       0.39581E-2     1.4598   
    10.301       0.39819E-2     1.4608   
    10.331       0.40060E-2     1.4617   
    10.361       0.40304E-2     1.4627   
    10.391       0.40550E-2     1.4637   
    10.421       0.40800E-2     1.4647   
    10.451       0.41052E-2     1.4657   
    10.481       0.41307E-2     1.4668   
    10.511       0.41566E-2     1.4678   
    10.541       0.41827E-2     1.4688   
    10.571       0.42091E-2     1.4699   
    10.601       0.42359E-2     1.4709   
    10.631       0.42630E-2     1.4720   
    10.661       0.42904E-2     1.4731   
    10.691       0.43181E-2     1.4741   
    10.721       0.43462E-2     1.4752   
    10.752       0.43746E-2     1.4763   
    10.782       0.44034E-2     1.4774   
    10.812       0.44325E-2     1.4785   
    10.842       0.44620E-2     1.4797   
    10.872       0.44918E-2     1.4808   
    10.902       0.45221E-2     1.4819   
    10.932       0.45527E-2     1.4831   
    10.962       0.45837E-2     1.4843   
    10.992       0.46150E-2     1.4854   
    11.022       0.46468E-2     1.4866   
    11.052       0.46790E-2     1.4878   
    11.082       0.47116E-2     1.4890   
    11.112       0.47447E-2     1.4902   
    11.142       0.47781E-2     1.4914   
    11.172       0.48120E-2     1.4927   
    11.202       0.48464E-2     1.4939   
    11.232       0.48812E-2     1.4952   
    11.263       0.49164E-2     1.4964   
    11.293       0.49521E-2     1.4977   
    11.323       0.49884E-2     1.4990   
    11.353       0.50251E-2     1.5003   
    11.383       0.50623E-2     1.5016   
    11.413       0.51000E-2     1.5029   
    11.443       0.51382E-2     1.5043   
    11.473       0.51769E-2     1.5056   
    11.503       0.52162E-2     1.5070   
    11.533       0.52561E-2     1.5083   
    11.563       0.52965E-2     1.5097   
    11.593       0.53374E-2     1.5111   
    11.623       0.53790E-2     1.5125   
    11.653       0.54212E-2     1.5139   
    11.683       0.54639E-2     1.5154   
    11.713       0.55073E-2     1.5168   
    11.743       0.55513E-2     1.5183   
    11.774       0.55960E-2     1.5198   
    11.804       0.56413E-2     1.5213   
    11.834       0.56873E-2     1.5228   
    11.864       0.57340E-2     1.5243   
    11.894       0.57814E-2     1.5258   
    11.924       0.58295E-2     1.5273   
    11.954       0.58783E-2     1.5289   
    11.984       0.59279E-2     1.5305   
    12.014       0.59783E-2     1.5321   
    12.044       0.60294E-2     1.5337   
    12.074       0.60814E-2     1.5353   
    12.104       0.61342E-2     1.5369   
    12.134       0.61878E-2     1.5386   
    12.164       0.62423E-2     1.5403   
    12.194       0.62976E-2     1.5420   
    12.224       0.63539E-2     1.5437   
    12.255       0.64111E-2     1.5454   
    12.285       0.64692E-2     1.5471   
    12.315       0.65283E-2     1.5489   
    12.345       0.65884E-2     1.5507   
    12.375       0.66495E-2     1.5525   
    12.405       0.67117E-2     1.5543   
    12.435       0.67749E-2     1.5561   
    12.465       0.68392E-2     1.5580   
    12.495       0.69047E-2     1.5598   
    12.525       0.69713E-2     1.5617   
    12.555       0.70391E-2     1.5636   
    12.585       0.71081E-2     1.5656   
    12.615       0.71784E-2     1.5675   
    12.645       0.72499E-2     1.5695   
    12.675       0.73228E-2     1.5715   
    12.705       0.73971E-2     1.5735   
    12.735       0.74727E-2     1.5756   
    12.766       0.75498E-2     1.5776   
    12.796       0.76284E-2     1.5797   
    12.826       0.77084E-2     1.5819   
    12.856       0.77901E-2     1.5840   
    12.886       0.78734E-2     1.5862   
    12.916       0.79584E-2     1.5883   
    12.946       0.80450E-2     1.5906   
    12.976       0.81335E-2     1.5928   
    13.006       0.82238E-2     1.5951   
    13.036       0.83160E-2     1.5974   
    13.066       0.84101E-2     1.5997   
    13.096       0.85063E-2     1.6021   
    13.126       0.86046E-2     1.6044   
    13.156       0.87050E-2     1.6069   
    13.186       0.88077E-2     1.6093   
    13.216       0.89127E-2     1.6118   
    13.246       0.90201E-2     1.6143   
    13.277       0.91301E-2     1.6168   
    13.307       0.92426E-2     1.6194   
    13.337       0.93579E-2     1.6220   
    13.367       0.94759E-2     1.6247   
    13.397       0.95969E-2     1.6273   
    13.427       0.97209E-2     1.6301   
    13.457       0.98481E-2     1.6328   
    13.487       0.99787E-2     1.6356   
    13.517       0.10113E-1     1.6385   
    13.547       0.10250E-1     1.6413   
    13.577       0.10392E-1     1.6442   
    13.607       0.10537E-1     1.6472   
    13.637       0.10687E-1     1.6502   
    13.667       0.10841E-1     1.6533   
    13.697       0.11000E-1     1.6564   
    13.727       0.11164E-1     1.6595   
    13.758       0.11333E-1     1.6627   
    13.788       0.11507E-1     1.6660   
    13.818       0.11688E-1     1.6693   
    13.848       0.11875E-1     1.6726   
    13.878       0.12068E-1     1.6760   
    13.908       0.12269E-1     1.6795   
    13.938       0.12477E-1     1.6830   
    13.968       0.12694E-1     1.6866   
    13.998       0.12920E-1     1.6903   
    14.028       0.13156E-1     1.6940   
    14.058       0.13402E-1     1.6978   
    14.088       0.13661E-1     1.7017   
    14.118       0.13933E-1     1.7057   
    14.148295      0.014220      1.709714
    14.178356      0.014523      1.713841
    14.208415      0.014845      1.718058
    14.238476      0.015188      1.722373
    14.268537      0.015556      1.726790
    14.298596      0.015952      1.731317
    14.328657      0.016383      1.735961
    14.358716      0.016854      1.740732
    14.388777      0.017374      1.745639
    14.418838      0.017956      1.750696
    14.448898      0.018615      1.755915
    14.478957      0.019372      1.761312
    14.509016      0.020260      1.766906
    14.539077      0.021323      1.772711
    14.569138      0.022628      1.778744
    14.599198      0.024275      1.785003
    14.629258      0.026407      1.791444
    14.659319      0.029215      1.797924
    14.689378      0.032863      1.804098
    14.719439      0.037220      1.809354
    14.749499      0.041440      1.813239
    14.779558      0.044439      1.816493
    14.809619      0.046657      1.820606
    14.839679      0.049794      1.825579
    14.869739      0.054634      1.829658
    14.899799      0.059817      1.830886
    14.929859      0.062385      1.829483
    14.959920      0.061066      1.828324
    14.989979      0.057268      1.829528
    15.020040      0.052662      1.833607
    15.050100      0.048746      1.840285
    15.080159      0.046504      1.848497
    15.110220      0.046069      1.856965
    15.140280      0.046823      1.864584
    15.170341      0.047380      1.870922
    15.200401      0.046463      1.877019
    15.230460      0.044431      1.884436
    15.260521      0.042497      1.893487
    15.290580      0.041282      1.903650
    15.320641      0.040832      1.914461
    15.350701      0.041020      1.925702
    15.380760      0.041730      1.937312
    15.410821      0.042891      1.949307
    15.440881      0.044480      1.961734
    15.470942      0.046515      1.974659
    15.501002      0.049055      1.988152
    15.531061      0.052209      2.002277
    15.561122      0.056145      2.017081
    15.591181      0.061098      2.032541
    15.621242      0.067337      2.048506
    15.651302      0.075033      2.064660
    15.681361      0.084165      2.080700
    15.711422      0.094784      2.096414
    15.741482      0.106891      2.111191
    15.771543      0.119588      2.124481
    15.801603      0.131899      2.137076
    15.831662      0.144380      2.149958
    15.861723      0.157696      2.162666
    15.891782      0.171237      2.174856
    15.921843      0.184765      2.187343
    15.951903      0.198973      2.200548
    15.981964      0.214468      2.214169
    16.012024      0.230952      2.227762
    16.042082      0.248079      2.242495
    16.072144      0.267874      2.259784
    16.102203      0.293899      2.278771
    16.132265      0.329391      2.295020
    16.162325      0.372671      2.300529
    16.192385      0.414201      2.291808
    16.222445      0.447651      2.275635
    16.252504      0.476461      2.255657
    16.282566      0.498755      2.227421
    16.312624      0.504489      2.195390
    16.342686      0.495510      2.174195
    16.372744      0.485249      2.166411
    16.402805      0.477902      2.163331
    16.432865      0.466917      2.161817
    16.462925      0.448097      2.170138
    16.492987      0.429470      2.197934
    16.523045      0.424969      2.244611
    16.553106      0.444646      2.301033
    16.583166      0.492681      2.354225
    16.613226      0.565836      2.389554
    16.643286      0.652205      2.397303
    16.673346      0.741279      2.378055
    16.703405      0.830989      2.327644
    16.733467      0.902428      2.231066
    16.763527      0.913851      2.103290
    16.793587      0.857159      1.998938
    16.823647      0.773178      1.948046
    16.853706      0.693036      1.938247
    16.883768      0.623100      1.956385
    16.913826      0.567089      1.997988
    16.943888      0.531095      2.059137
    16.973946      0.522174      2.132800
    17.004007      0.544751      2.207564
    17.034067      0.597617      2.269820
    17.064127      0.673203      2.307358
    17.094189      0.760052      2.311614
    17.124247      0.841585      2.275801
    17.154308      0.890143      2.204750
    17.184368      0.885831      2.131810
    17.214430      0.848977      2.097047
    17.244488      0.823936      2.100749
    17.274548      0.827565      2.106541
    17.304609      0.833429      2.087113
    17.334669      0.806106      2.060494
    17.364729      0.751835      2.066826
    17.394789      0.704649      2.117011
    17.424849      0.688310      2.197210
    17.454908      0.713493      2.287807
    17.484970      0.781129      2.366420
    17.515030      0.877735      2.411173
    17.545090      0.975128      2.416145
    17.575150      1.053735      2.402435
    17.605209      1.127137      2.393575
    17.635271      1.223124      2.378033
    17.665331      1.336010      2.316242
    17.695391      1.415802      2.194654
    17.725449      1.424667      2.055658
    17.755510      1.377054      1.944344
    17.785570      1.296612      1.874160
    17.815632      1.200712      1.856332
    17.845690      1.118451      1.894428
    17.875750      1.074258      1.973110
    17.905811      1.079935      2.072422
    17.935871      1.142101      2.173068
    17.965933      1.266335      2.251648
    17.995991      1.450069      2.269110
    18.026051      1.650691      2.177665
    18.056110      1.780751      1.980216
    18.086172      1.787982      1.758358
    18.116232      1.706696      1.592853
    18.146292      1.603720      1.499939
    18.176352      1.515676      1.447578
    18.206411      1.434128      1.407440
    18.236473      1.342098      1.385169
    18.266533      1.246431      1.398752
    18.296593      1.167852      1.453301
    18.326653      1.130294      1.541934
    18.356712      1.156612      1.638517
    18.386772      1.247564      1.697149
    18.416834      1.362503      1.676328
    18.446892      1.434550      1.585732
    18.476954      1.441483      1.486495
    18.507013      1.418829      1.412362
    18.537073      1.393924      1.347994
    18.567135      1.353324      1.270077
    18.597193      1.261569      1.196941
    18.627254      1.128189      1.182825
    18.657312      1.008980      1.244381
    18.687374      0.943643      1.352938
    18.717434      0.942578      1.473491
    18.747496      1.004237      1.576690
    18.777555      1.118492      1.628904
    18.807613      1.244841      1.596144
    18.837675      1.312727      1.493138
    18.867735      1.302078      1.396909
    18.897797      1.271739      1.346127
    18.927855      1.260239      1.300439
    18.957914      1.230741      1.223321
    18.987974      1.137434      1.153680
    19.018036      1.006992      1.150669
    19.048096      0.896631      1.217549
    19.078156      0.836502      1.323245
    19.108215      0.831917      1.436571
    19.138275      0.876912      1.531431
    19.168337      0.953799      1.584314
    19.198397      1.028810      1.585515
    19.228456      1.068835      1.553307
    19.258514      1.062278      1.523839
    19.288576      1.027244      1.533594
    19.318636      1.004128      1.592489
    19.348698      1.023864      1.679954
    19.378757      1.095386      1.766409
    19.408815      1.213541      1.827630
    19.438877      1.368702      1.840985
    19.468937      1.532638      1.781361
    19.498999      1.655542      1.653675
    19.529057      1.710815      1.499221
    19.559116      1.703957      1.355128
    19.589176      1.650416      1.251602
    19.619238      1.592915      1.213111
    19.649298      1.591055      1.213189
    19.679358      1.655596      1.176005
    19.709417      1.717318      1.046757
    19.739477      1.688712      0.867282
    19.769539      1.573840      0.729277
    19.799599      1.437442      0.657680
    19.829659      1.308782      0.626527
    19.859718      1.185327      0.623551
    19.889778      1.072380      0.653711
    19.919840      0.989589      0.711236
    19.949900      0.946643      0.769604
    19.979959      0.924446      0.801998
    20.010019      0.887829      0.813687
    20.040079      0.830837      0.838841
    20.070139      0.780402      0.890197
    20.100201      0.752419      0.951957
    20.130259      0.742657      1.010237
    20.160320      0.744814      1.063551
    20.190380      0.762177      1.110084
    20.220440      0.791974      1.133815
    20.250502      0.805814      1.128085
    20.280560      0.781994      1.125085
    20.310621      0.744275      1.158221
    20.340679      0.727673      1.220947
    20.370741      0.741836      1.287798
    20.400801      0.776310      1.343626
    20.430862      0.822680      1.388066
    20.460920      0.879990      1.418812
    20.490980      0.940993      1.429833
    20.521042      0.992614      1.426007
    20.551102      1.035184      1.423966
    20.581163      1.088382      1.428007
    20.611221      1.165471      1.414541
    20.641281      1.244141      1.354653
    20.671341      1.281968      1.258055
    20.701403      1.269029      1.163846
    20.731462      1.221495      1.094969
    20.761522      1.158152      1.061485
    20.791582      1.099210      1.061930
    20.821642      1.057382      1.084639
    20.851704      1.033958      1.117972
    20.881763      1.028372      1.157750
    20.911823      1.044264      1.199324
    20.941881      1.085189      1.232355
    20.971943      1.146285      1.241063
    21.002003      1.211408      1.213902
    21.032064      1.253829      1.149999
    21.062124      1.248666      1.078664
    21.092182      1.214332      1.040277
    21.122244      1.192544      1.031614
    21.152304      1.189643      1.016614
    21.182365      1.172197      0.986037
    21.212423      1.127200      0.975666
    21.242483      1.089813      1.009254
    21.272543      1.097596      1.064598
    21.302605      1.153711      1.099308
    21.332664      1.228765      1.084216
    21.362724      1.282071      1.022056
    21.392784      1.291266      0.944056
    21.422844      1.264219      0.881758
    21.452906      1.222285      0.850419
    21.482965      1.192933      0.850950
    21.513025      1.200602      0.857593
    21.543083      1.233220      0.829425
    21.573145      1.245549      0.758119
    21.603205      1.210998      0.679355
    21.633266      1.147259      0.626094
    21.663326      1.079009      0.594540
    21.693386      1.002050      0.573876
    21.723446      0.911363      0.579235
    21.753506      0.828128      0.622598
    21.783567      0.774366      0.691828
    21.813625      0.755956      0.765053
    21.843687      0.762750      0.824071
    21.873745      0.776545      0.866705
    21.903807      0.791058      0.905658
    21.933867      0.817257      0.946041
    21.963928      0.861264      0.975145
    21.993988      0.912082      0.983807
    22.024046      0.962890      0.976954
    22.054108      1.016917      0.951302
    22.084167      1.061926      0.893790
    22.114229      1.069207      0.813807
    22.144287      1.034592      0.747473
    22.174347      0.986712      0.710653
    22.204407      0.941398      0.688651
    22.234468      0.890705      0.674072
    22.264528      0.832725      0.678702
    22.294588      0.784479      0.707778
    22.324648      0.758187      0.746965
    22.354708      0.748511      0.782050
    22.384769      0.745703      0.812086
    22.414829      0.750039      0.842776
    22.444889      0.769773      0.869571
    22.474949      0.800057      0.876889
    22.505009      0.820106      0.865305
    22.535070      0.827054      0.855372
    22.565130      0.839542      0.849725
    22.595190      0.860434      0.828673
    22.625248      0.868474      0.783429
    22.655310      0.845605      0.729895
    22.685369      0.793638      0.689248
    22.715431      0.725079      0.673189
    22.745489      0.653048      0.683431
    22.775549      0.586453      0.717086
    22.805611      0.531633      0.769976
    22.835670      0.492495      0.837190
    22.865732      0.471577      0.914434
    22.895790      0.471060      0.997351
    22.925850      0.492440      1.081290
    22.955910      0.537278      1.161956
    22.985971      0.609367      1.232852
    23.016031      0.710539      1.279681
    23.046091      0.829854      1.283100
    23.076151      0.939974      1.234309
    23.106211      1.013793      1.147491
    23.136272      1.042114      1.047101
    23.166332      1.026600      0.953518
    23.196392      0.977830      0.887252
    23.226452      0.919391      0.854808
    23.256512      0.862766      0.846201
    23.286572      0.810216      0.861200
    23.316633      0.775333      0.899184
    23.346691      0.768093      0.945085
    23.376753      0.784521      0.984005
    23.406813      0.818258      1.009657
    23.436872      0.865960      1.013247
    23.466934      0.911295      0.982735
    23.496992      0.926835      0.927001
    23.527054      0.905515      0.876278
    23.557112      0.866076      0.848788
    23.587173      0.825630      0.841569
    23.617233      0.790012      0.847186
    23.647295      0.760837      0.860042
    23.677353      0.735560      0.875020
    23.707413      0.708643      0.894185
    23.737474      0.683217      0.924067
    23.767534      0.666892      0.962791
    23.797596      0.661426      1.004074
    23.827652      0.664336      1.043554
    23.857714      0.670984      1.079590
    23.887774      0.675970      1.116339
    23.917835      0.681811      1.163527
    23.947895      0.701524      1.224484
    23.977953      0.747718      1.289057
    24.008015      0.821344      1.339234
    24.038074      0.908822      1.361625
    24.068136      0.992966      1.359407
    24.098196      1.070334      1.343996
    24.128254      1.146755      1.319037
    24.158314      1.227841      1.276873
    24.188375      1.303056      1.201091
    24.218435      1.342439      1.093982
    24.248497      1.328077      0.987364
    24.278557      1.276387      0.916631
    24.308615      1.223086      0.887599
    24.338676      1.187456      0.879235
    24.368736      1.163612      0.872712
    24.398798      1.139037      0.867913
    24.428858      1.113670      0.874441
    24.458916      1.096963      0.893473
    24.488976      1.092835      0.919793
    24.519037      1.105464      0.951061
    24.549097      1.141405      0.977017
    24.579159      1.196228      0.980360
    24.609217      1.249244      0.949708
    24.639277      1.274733      0.898129
    24.669338      1.272403      0.853966
    24.699398      1.261669      0.828335
    24.729460      1.258083      0.813240
    24.759518      1.260045      0.792277
    24.789577      1.248670      0.764258
    24.819639      1.216375      0.752892
    24.849699      1.187754      0.779137
    24.879759      1.198014      0.829043
    24.909817      1.254423      0.862985
    24.939878      1.327598      0.854139
    24.969938      1.386399      0.814192
    25.000000      1.430957      0.761744
# 
# 01/08/2018 at 17:17 YAMBO @ polluce [start]
# 01/08/2018 at 17:17                 [end]
#  
# Timing   [Min/Max/Average]: 10s/10s/10s
#
# .-Input file : yambo.in
# | optics                         # [R OPT] Optics
# | chi                            # [R CHI] Dyson equation for Chi.
# | BoseTemp= 0.000000     eV      # Bosonic Temperature
# | FFTGvecs= 1807         RL      # [FFT] Plane-waves
# | X_Threads= 1                   # [OPENMP/X] Number of threads for response functions
# | DIP_Threads= 1                 # [OPENMP/X] Number of threads for dipoles
# | Chimod= "IP"                   # [X] IP/Hartree/ALDA/LRC/BSfxc
# | NGsBlkXd= 1            RL      # [Xd] Response block size
# | % QpntsRXd
# |   1 | 19 |                     # [Xd] Transferred momenta
# | %
# | % BndsRnXd
# |   2 |  7 |                     # [Xd] Polarization function bands
# | %
# | % EnRngeXd
# |  10.00000 | 25.00000 | eV      # [Xd] Energy range
# | %
# | % DmRngeXd
# |   0.10000 |  0.10000 | eV      # [Xd] Damping range
# | %
# | ETStpsXd=  500                 # [Xd] Total Energy steps
# | % LongDrXd
# | 0.1000E-4 | 0.000    | 0.000    |        # [Xd] [cc] Electric Field
# | %
# | % XfnQP_E
# |  5.350000 | 1.000000 | 1.000000 |        # [EXTQP Xd] E parameters  (c/v) eV|adim|adim
# | %
