#                                                           
#  **    **    **     ****     ****  ******     *******     
# //**  **    ****   /**/**   **/** /*////**   **/////**    
#  //****    **//**  /**//** ** /** /*   /**  **     //**   
#   //**    **  //** /** //***  /** /******  /**      /**   
#    /**   **********/**  //*   /** /*//// **/**      /**   
#    /**  /**//////**/**   /    /** /*    /**//**     **    
#    /**  /**     /**/**        /** /*******  //*******     
#    //   //      // //         //  ///////    ///////      
#                                                           
#               Version 4.0.2 Revision 4854                 
#                    MPI+OpenMP Build                       
#                http://www.yambo-code.org                  
#
# EELS @ Q(1)  [q->0 direction]:0.5774E-5 0.5774E-5 0.5774E-5
#
#
# - Energies      are Teter 93(XC)+Scissor
# - Wavefunctions are Teter 93(XC)
#
# - The Green`s function is causal -
# - Using the Length Gauge -
# - [r,Vnl] *is* included -
#
#   BSK|Identifier              :1518
#      |Dimension               :32
#      |Bands                   :7 - 10
#      |Exchange           [res]: yes
#      |Correlation        [res]: yes
#      |Kernel`s coupling       : no
#      |Exchange           [cpl]: no
#      |W interaction is bare   : no
#      |Correlation        [cpl]: no
#      |ALDA kernel in R-space  : no
#      |RL vectors    [exchange]:51
#      |RL vectors [correlation]:51
#      |E/h energy range    [ev]:-1.000000 - -1.000000
#      |Coupling range     [o/o]: 100.0000 -  100.0000
#    W |Interaction is diagonal : no
#      |Matrix size             :151
#      |Bands                   :1 - 60
#      |e/h energy range    [ev]:-1.000000 - -1.000000
#      |Poles              [o/o]: 100.0000
#      |Rl vectors in the sum   :3473
#      |[r,Vnl] included        : yes
#      |Field direction         :0.1000E-4  0.000000  0.000000
#      |Coulomb Cutoff          :none
#      |xc-Kernel               :none
#   RIM|RL components      [col]:0
#      |Random points      [col]:0
#
#  E/ev[1]    eel /Im[2] eel /Re[3] eel0/Im[4] eel0/Re[5]
#
  4.000     0.1233E-2  -.7298E-1  0.6389E-3  -.1739   
  4.010     0.1237E-2  -.7249E-1  0.6409E-3  -.1736   
  4.020     0.1242E-2  -.7199E-1  0.6429E-3  -.1734   
  4.030     0.1246E-2  -.7149E-1  0.6450E-3  -.1731   
  4.040     0.1251E-2  -.7099E-1  0.6470E-3  -.1728   
  4.050     0.1256E-2  -.7049E-1  0.6490E-3  -.1726   
  4.060     0.1261E-2  -.6999E-1  0.6510E-3  -.1723   
  4.070     0.1265E-2  -.6948E-1  0.6531E-3  -.1721   
  4.080     0.1270E-2  -.6897E-1  0.6551E-3  -.1718   
  4.090     0.1275E-2  -.6846E-1  0.6572E-3  -.1715   
  4.100     0.1280E-2  -.6795E-1  0.6592E-3  -.1713   
  4.110     0.1284E-2  -.6743E-1  0.6613E-3  -.1710   
  4.120     0.1289E-2  -.6692E-1  0.6633E-3  -.1707   
  4.130     0.1294E-2  -.6640E-1  0.6654E-3  -.1705   
  4.140     0.1299E-2  -.6588E-1  0.6674E-3  -.1702   
  4.150     0.1304E-2  -.6536E-1  0.6695E-3  -.1699   
  4.160     0.1309E-2  -.6483E-1  0.6716E-3  -.1697   
  4.170     0.1313E-2  -.6431E-1  0.6736E-3  -.1694   
  4.180     0.1318E-2  -.6378E-1  0.6757E-3  -.1691   
  4.190     0.1323E-2  -.6325E-1  0.6778E-3  -.1689   
  4.201     0.1328E-2  -.6272E-1  0.6799E-3  -.1686   
  4.211     0.1333E-2  -.6219E-1  0.6820E-3  -.1683   
  4.221     0.1338E-2  -.6165E-1  0.6841E-3  -.1680   
  4.231     0.1343E-2  -.6111E-1  0.6861E-3  -.1678   
  4.241     0.1348E-2  -.6057E-1  0.6882E-3  -.1675   
  4.251     0.1353E-2  -.6003E-1  0.6903E-3  -.1672   
  4.261     0.1358E-2  -.5949E-1  0.6925E-3  -.1669   
  4.271     0.1363E-2  -.5894E-1  0.6946E-3  -.1667   
  4.281     0.1369E-2  -.5840E-1  0.6967E-3  -.1664   
  4.291     0.1374E-2  -.5785E-1  0.6988E-3  -.1661   
  4.301     0.1379E-2  -.5729E-1  0.7009E-3  -.1658   
  4.311     0.1384E-2  -.5674E-1  0.7030E-3  -.1655   
  4.321     0.1389E-2  -.5618E-1  0.7052E-3  -.1653   
  4.331     0.1394E-2  -.5563E-1  0.7073E-3  -.1650   
  4.341     0.1400E-2  -.5507E-1  0.7095E-3  -.1647   
  4.351     0.1405E-2  -.5450E-1  0.7116E-3  -.1644   
  4.361     0.1410E-2  -.5394E-1  0.7137E-3  -.1641   
  4.371     0.1415E-2  -.5337E-1  0.7159E-3  -.1638   
  4.381     0.1421E-2  -.5280E-1  0.7181E-3  -.1635   
  4.391     0.1426E-2  -.5223E-1  0.7202E-3  -.1633   
  4.401     0.1431E-2  -.5166E-1  0.7224E-3  -.1630   
  4.411     0.1437E-2  -.5108E-1  0.7245E-3  -.1627   
  4.421     0.1442E-2  -.5051E-1  0.7267E-3  -.1624   
  4.431     0.1448E-2  -.4993E-1  0.7289E-3  -.1621   
  4.441     0.1453E-2  -.4935E-1  0.7311E-3  -.1618   
  4.451     0.1458E-2  -.4876E-1  0.7333E-3  -.1615   
  4.461     0.1464E-2  -.4818E-1  0.7354E-3  -.1612   
  4.471     0.1469E-2  -.4759E-1  0.7376E-3  -.1609   
  4.481     0.1475E-2  -.4700E-1  0.7398E-3  -.1606   
  4.491     0.1481E-2  -.4641E-1  0.7420E-3  -.1603   
  4.501     0.1486E-2  -.4581E-1  0.7443E-3  -.1600   
  4.511     0.1492E-2  -.4521E-1  0.7465E-3  -.1597   
  4.521     0.1497E-2  -.4461E-1  0.7487E-3  -.1594   
  4.531     0.1503E-2  -.4401E-1  0.7509E-3  -.1591   
  4.541     0.1509E-2  -.4341E-1  0.7531E-3  -.1588   
  4.551     0.1514E-2  -.4280E-1  0.7554E-3  -.1585   
  4.561     0.1520E-2  -.4219E-1  0.7576E-3  -.1582   
  4.571     0.1526E-2  -.4158E-1  0.7598E-3  -.1579   
  4.581     0.1532E-2  -.4097E-1  0.7621E-3  -.1576   
  4.591     0.1537E-2  -.4036E-1  0.7643E-3  -.1573   
  4.602     0.1543E-2  -.3974E-1  0.7666E-3  -.1570   
  4.612     0.1549E-2  -.3912E-1  0.7688E-3  -.1567   
  4.622     0.1555E-2  -.3850E-1  0.7711E-3  -.1564   
  4.632     0.1561E-2  -.3787E-1  0.7734E-3  -.1561   
  4.642     0.1567E-2  -.3724E-1  0.7756E-3  -.1558   
  4.652     0.1573E-2  -.3661E-1  0.7779E-3  -.1554   
  4.662     0.1579E-2  -.3598E-1  0.7802E-3  -.1551   
  4.672     0.1585E-2  -.3535E-1  0.7825E-3  -.1548   
  4.682     0.1591E-2  -.3471E-1  0.7848E-3  -.1545   
  4.692     0.1597E-2  -.3407E-1  0.7870E-3  -.1542   
  4.702     0.1603E-2  -.3343E-1  0.7893E-3  -.1539   
  4.712     0.1609E-2  -.3279E-1  0.7917E-3  -.1536   
  4.722     0.1616E-2  -.3214E-1  0.7940E-3  -.1532   
  4.732     0.1622E-2  -.3149E-1  0.7963E-3  -.1529   
  4.742     0.1629E-2  -.3084E-1  0.7986E-3  -.1526   
  4.752     0.1635E-2  -.3019E-1  0.8009E-3  -.1523   
  4.762     0.1642E-2  -.2953E-1  0.8032E-3  -.1520   
  4.772     0.1650E-2  -.2887E-1  0.8056E-3  -.1516   
  4.782     0.1658E-2  -.2821E-1  0.8079E-3  -.1513   
  4.792     0.1666E-2  -.2754E-1  0.8103E-3  -.1510   
  4.802     0.1676E-2  -.2688E-1  0.8126E-3  -.1507   
  4.812     0.1684E-2  -.2621E-1  0.8150E-3  -.1503   
  4.822     0.1689E-2  -.2555E-1  0.8173E-3  -.1500   
  4.832     0.1692E-2  -.2487E-1  0.8197E-3  -.1497   
  4.842     0.1696E-2  -.2420E-1  0.8221E-3  -.1494   
  4.852     0.1701E-2  -.2352E-1  0.8244E-3  -.1490   
  4.862     0.1707E-2  -.2284E-1  0.8268E-3  -.1487   
  4.872     0.1712E-2  -.2215E-1  0.8292E-3  -.1484   
  4.882     0.1719E-2  -.2146E-1  0.8316E-3  -.1480   
  4.892     0.1725E-2  -.2077E-1  0.8340E-3  -.1477   
  4.902     0.1732E-2  -.2008E-1  0.8364E-3  -.1474   
  4.912     0.1738E-2  -.1938E-1  0.8388E-3  -.1470   
  4.922     0.1745E-2  -.1869E-1  0.8412E-3  -.1467   
  4.932     0.1751E-2  -.1798E-1  0.8436E-3  -.1463   
  4.942     0.1758E-2  -.1728E-1  0.8460E-3  -.1460   
  4.952     0.1765E-2  -.1657E-1  0.8485E-3  -.1457   
  4.962     0.1772E-2  -.1587E-1  0.8509E-3  -.1453   
  4.972     0.1779E-2  -.1515E-1  0.8533E-3  -.1450   
  4.982     0.1786E-2  -.1444E-1  0.8558E-3  -.1446   
  4.992     0.1793E-2  -.1372E-1  0.8582E-3  -.1443   
  5.003     0.1800E-2  -.1300E-1  0.8607E-3  -.1440   
  5.013     0.1807E-2  -.1228E-1  0.8631E-3  -.1436   
  5.023     0.1814E-2  -.1155E-1  0.8656E-3  -.1433   
  5.033     0.1821E-2  -.1082E-1  0.8681E-3  -.1429   
  5.043     0.1828E-2  -.1009E-1  0.8706E-3  -.1426   
  5.053     0.1836E-2  -.9357E-2  0.8730E-3  -.1422   
  5.063     0.1843E-2  -.8619E-2  0.8755E-3  -.1419   
  5.073     0.1850E-2  -.7879E-2  0.8780E-3  -.1415   
  5.083     0.1858E-2  -.7135E-2  0.8805E-3  -.1412   
  5.093     0.1865E-2  -.6389E-2  0.8830E-3  -.1408   
  5.103     0.1873E-2  -.5639E-2  0.8856E-3  -.1405   
  5.113     0.1880E-2  -.4887E-2  0.8881E-3  -.1401   
  5.123     0.1888E-2  -.4131E-2  0.8906E-3  -.1397   
  5.133     0.1895E-2  -.3373E-2  0.8931E-3  -.1394   
  5.143     0.1903E-2  -.2611E-2  0.8957E-3  -.1390   
  5.153     0.1911E-2  -.1847E-2  0.8982E-3  -.1387   
  5.163     0.1919E-2  -.1079E-2  0.9008E-3  -.1383   
  5.173     0.1926E-2  -.3082E-3  0.9033E-3  -.1379   
  5.183     0.1934E-2  0.4658E-3  0.9059E-3  -.1376   
  5.193     0.1942E-2  0.1243E-2  0.9084E-3  -.1372   
  5.203     0.1950E-2  0.2023E-2  0.9110E-3  -.1369   
  5.213     0.1958E-2  0.2807E-2  0.9136E-3  -.1365   
  5.223     0.1966E-2  0.3594E-2  0.9162E-3  -.1361   
  5.233     0.1974E-2  0.4384E-2  0.9188E-3  -.1358   
  5.243     0.1982E-2  0.5177E-2  0.9214E-3  -.1354   
  5.253     0.1991E-2  0.5973E-2  0.9240E-3  -.1350   
  5.263     0.1999E-2  0.6773E-2  0.9266E-3  -.1346   
  5.273     0.2007E-2  0.7576E-2  0.9292E-3  -.1343   
  5.283     0.2016E-2  0.8383E-2  0.9318E-3  -.1339   
  5.293     0.2024E-2  0.9193E-2  0.9344E-3  -.1335   
  5.303     0.2033E-2  0.1001E-1  0.9371E-3  -.1331   
  5.313     0.2041E-2  0.1082E-1  0.9397E-3  -.1328   
  5.323     0.2050E-2  0.1164E-1  0.9424E-3  -.1324   
  5.333     0.2058E-2  0.1247E-1  0.9450E-3  -.1320   
  5.343     0.2067E-2  0.1329E-1  0.9477E-3  -.1316   
  5.353     0.2076E-2  0.1412E-1  0.9504E-3  -.1313   
  5.363     0.2085E-2  0.1496E-1  0.9530E-3  -.1309   
  5.373     0.2094E-2  0.1580E-1  0.9557E-3  -.1305   
  5.383     0.2103E-2  0.1664E-1  0.9584E-3  -.1301   
  5.393     0.2112E-2  0.1748E-1  0.9611E-3  -.1297   
  5.404     0.2122E-2  0.1833E-1  0.9638E-3  -.1293   
  5.414     0.2131E-2  0.1918E-1  0.9665E-3  -.1289   
  5.424     0.2141E-2  0.2004E-1  0.9692E-3  -.1286   
  5.434     0.2151E-2  0.2090E-1  0.9720E-3  -.1282   
  5.444     0.2162E-2  0.2176E-1  0.9747E-3  -.1278   
  5.454     0.2174E-2  0.2263E-1  0.9774E-3  -.1274   
  5.464     0.2187E-2  0.2350E-1  0.9802E-3  -.1270   
  5.474     0.2200E-2  0.2437E-1  0.9829E-3  -.1266   
  5.484     0.2210E-2  0.2525E-1  0.9857E-3  -.1262   
  5.494     0.2216E-2  0.2612E-1  0.9885E-3  -.1258   
  5.504     0.2223E-2  0.2701E-1  0.9912E-3  -.1254   
  5.514     0.2230E-2  0.2790E-1  0.9940E-3  -.1250   
  5.524     0.2239E-2  0.2880E-1  0.9968E-3  -.1246   
  5.534     0.2248E-2  0.2969E-1  0.9996E-3  -.1242   
  5.544     0.2257E-2  0.3060E-1  0.1002E-2  -.1238   
  5.554     0.2267E-2  0.3150E-1  0.1005E-2  -.1234   
  5.564     0.2277E-2  0.3241E-1  0.1008E-2  -.1230   
  5.574     0.2287E-2  0.3333E-1  0.1011E-2  -.1226   
  5.584     0.2297E-2  0.3425E-1  0.1014E-2  -.1222   
  5.594     0.2308E-2  0.3517E-1  0.1017E-2  -.1218   
  5.604     0.2318E-2  0.3610E-1  0.1019E-2  -.1214   
  5.614     0.2329E-2  0.3703E-1  0.1022E-2  -.1210   
  5.624     0.2340E-2  0.3797E-1  0.1025E-2  -.1206   
  5.634     0.2351E-2  0.3891E-1  0.1028E-2  -.1202   
  5.644     0.2362E-2  0.3985E-1  0.1031E-2  -.1197   
  5.654     0.2373E-2  0.4080E-1  0.1034E-2  -.1193   
  5.664     0.2384E-2  0.4176E-1  0.1037E-2  -.1189   
  5.674     0.2395E-2  0.4271E-1  0.1040E-2  -.1185   
  5.684     0.2407E-2  0.4368E-1  0.1042E-2  -.1181   
  5.694     0.2418E-2  0.4464E-1  0.1045E-2  -.1177   
  5.704     0.2430E-2  0.4562E-1  0.1048E-2  -.1172   
  5.714     0.2442E-2  0.4659E-1  0.1051E-2  -.1168   
  5.724     0.2454E-2  0.4757E-1  0.1054E-2  -.1164   
  5.734     0.2466E-2  0.4856E-1  0.1057E-2  -.1160   
  5.744     0.2478E-2  0.4955E-1  0.1060E-2  -.1155   
  5.754     0.2490E-2  0.5055E-1  0.1063E-2  -.1151   
  5.764     0.2503E-2  0.5155E-1  0.1066E-2  -.1147   
  5.774     0.2515E-2  0.5255E-1  0.1069E-2  -.1143   
  5.784     0.2528E-2  0.5357E-1  0.1072E-2  -.1138   
  5.794     0.2541E-2  0.5458E-1  0.1075E-2  -.1134   
  5.805     0.2554E-2  0.5560E-1  0.1078E-2  -.1130   
  5.815     0.2567E-2  0.5663E-1  0.1081E-2  -.1125   
  5.825     0.2580E-2  0.5766E-1  0.1084E-2  -.1121   
  5.835     0.2593E-2  0.5870E-1  0.1087E-2  -.1117   
  5.845     0.2607E-2  0.5974E-1  0.1090E-2  -.1112   
  5.855     0.2620E-2  0.6079E-1  0.1093E-2  -.1108   
  5.865     0.2634E-2  0.6184E-1  0.1096E-2  -.1104   
  5.875     0.2648E-2  0.6290E-1  0.1099E-2  -.1099   
  5.885     0.2662E-2  0.6397E-1  0.1103E-2  -.1095   
  5.895     0.2677E-2  0.6504E-1  0.1106E-2  -.1090   
  5.905     0.2691E-2  0.6611E-1  0.1109E-2  -.1086   
  5.915     0.2706E-2  0.6719E-1  0.1112E-2  -.1081   
  5.925     0.2721E-2  0.6828E-1  0.1115E-2  -.1077   
  5.935     0.2736E-2  0.6938E-1  0.1118E-2  -.1073   
  5.945     0.2751E-2  0.7048E-1  0.1121E-2  -.1068   
  5.955     0.2766E-2  0.7158E-1  0.1124E-2  -.1064   
  5.965     0.2782E-2  0.7269E-1  0.1128E-2  -.1059   
  5.975     0.2798E-2  0.7381E-1  0.1131E-2  -.1054   
  5.985     0.2814E-2  0.7494E-1  0.1134E-2  -.1050   
  5.995     0.2830E-2  0.7607E-1  0.1137E-2  -.1045   
  6.005     0.2847E-2  0.7721E-1  0.1140E-2  -.1041   
  6.015     0.2863E-2  0.7835E-1  0.1144E-2  -.1036   
  6.025     0.2880E-2  0.7950E-1  0.1147E-2  -.1032   
  6.035     0.2897E-2  0.8066E-1  0.1150E-2  -.1027   
  6.045     0.2915E-2  0.8183E-1  0.1153E-2  -.1022   
  6.055     0.2932E-2  0.8300E-1  0.1157E-2  -.1018   
  6.065     0.2950E-2  0.8418E-1  0.1160E-2  -.1013   
  6.075     0.2969E-2  0.8536E-1  0.1163E-2  -.1008   
  6.085     0.2987E-2  0.8656E-1  0.1166E-2  -.1004   
  6.095     0.3006E-2  0.8776E-1  0.1170E-2  -.9991E-1
  6.105     0.3025E-2  0.8897E-1  0.1173E-2  -.9944E-1
  6.115     0.3044E-2  0.9019E-1  0.1176E-2  -.9897E-1
  6.125     0.3064E-2  0.9141E-1  0.1180E-2  -.9850E-1
  6.135     0.3084E-2  0.9264E-1  0.1183E-2  -.9803E-1
  6.145     0.3104E-2  0.9388E-1  0.1186E-2  -.9755E-1
  6.155     0.3125E-2  0.9513E-1  0.1190E-2  -.9708E-1
  6.165     0.3146E-2  0.9639E-1  0.1193E-2  -.9660E-1
  6.175     0.3167E-2  0.9765E-1  0.1197E-2  -.9612E-1
  6.185     0.3189E-2  0.9893E-1  0.1200E-2  -.9564E-1
  6.195     0.3211E-2  0.1002     0.1203E-2  -.9516E-1
  6.206     0.3233E-2  0.1015     0.1207E-2  -.9467E-1
  6.216     0.3256E-2  0.1028     0.1210E-2  -.9419E-1
  6.226     0.3280E-2  0.1041     0.1214E-2  -.9370E-1
  6.236     0.3303E-2  0.1054     0.1217E-2  -.9321E-1
  6.246     0.3327E-2  0.1068     0.1221E-2  -.9273E-1
  6.256     0.3352E-2  0.1081     0.1224E-2  -.9224E-1
  6.266     0.3377E-2  0.1094     0.1228E-2  -.9174E-1
  6.276     0.3403E-2  0.1108     0.1231E-2  -.9125E-1
  6.286     0.3429E-2  0.1122     0.1235E-2  -.9076E-1
  6.296     0.3456E-2  0.1136     0.1238E-2  -.9026E-1
  6.306     0.3483E-2  0.1149     0.1242E-2  -.8976E-1
  6.316     0.3511E-2  0.1163     0.1246E-2  -.8926E-1
  6.326     0.3539E-2  0.1178     0.1249E-2  -.8876E-1
  6.336     0.3568E-2  0.1192     0.1253E-2  -.8826E-1
  6.346     0.3598E-2  0.1206     0.1256E-2  -.8776E-1
  6.356     0.3628E-2  0.1221     0.1260E-2  -.8726E-1
  6.366     0.3659E-2  0.1235     0.1264E-2  -.8675E-1
  6.376     0.3691E-2  0.1250     0.1267E-2  -.8624E-1
  6.386     0.3724E-2  0.1265     0.1271E-2  -.8573E-1
  6.396     0.3757E-2  0.1280     0.1275E-2  -.8522E-1
  6.406     0.3791E-2  0.1295     0.1278E-2  -.8471E-1
  6.416     0.3826E-2  0.1310     0.1282E-2  -.8420E-1
  6.426     0.3862E-2  0.1326     0.1286E-2  -.8368E-1
  6.436     0.3898E-2  0.1341     0.1290E-2  -.8317E-1
  6.446     0.3936E-2  0.1357     0.1293E-2  -.8265E-1
  6.456     0.3975E-2  0.1373     0.1297E-2  -.8213E-1
  6.466     0.4014E-2  0.1389     0.1301E-2  -.8161E-1
  6.476     0.4055E-2  0.1405     0.1305E-2  -.8109E-1
  6.486     0.4097E-2  0.1421     0.1309E-2  -.8056E-1
  6.496     0.4140E-2  0.1438     0.1313E-2  -.8004E-1
  6.506     0.4185E-2  0.1455     0.1317E-2  -.7951E-1
  6.516     0.4230E-2  0.1471     0.1320E-2  -.7898E-1
  6.526     0.4277E-2  0.1488     0.1324E-2  -.7845E-1
  6.536     0.4326E-2  0.1506     0.1328E-2  -.7792E-1
  6.546     0.4376E-2  0.1523     0.1332E-2  -.7738E-1
  6.556     0.4427E-2  0.1541     0.1336E-2  -.7685E-1
  6.566     0.4480E-2  0.1559     0.1340E-2  -.7631E-1
  6.576     0.4535E-2  0.1577     0.1344E-2  -.7577E-1
  6.586     0.4592E-2  0.1595     0.1348E-2  -.7523E-1
  6.596     0.4651E-2  0.1613     0.1352E-2  -.7469E-1
  6.607     0.4711E-2  0.1632     0.1356E-2  -.7415E-1
  6.617     0.4774E-2  0.1651     0.1361E-2  -.7361E-1
  6.627     0.4839E-2  0.1670     0.1365E-2  -.7306E-1
  6.637     0.4906E-2  0.1690     0.1369E-2  -.7251E-1
  6.647     0.4976E-2  0.1710     0.1373E-2  -.7196E-1
  6.657     0.5049E-2  0.1730     0.1377E-2  -.7141E-1
  6.667     0.5124E-2  0.1750     0.1381E-2  -.7086E-1
  6.677     0.5202E-2  0.1771     0.1386E-2  -.7030E-1
  6.687     0.5284E-2  0.1792     0.1390E-2  -.6975E-1
  6.697     0.5368E-2  0.1813     0.1394E-2  -.6919E-1
  6.707     0.5457E-2  0.1835     0.1398E-2  -.6863E-1
  6.717     0.5549E-2  0.1857     0.1403E-2  -.6807E-1
  6.727     0.5645E-2  0.1879     0.1407E-2  -.6750E-1
  6.737     0.5745E-2  0.1902     0.1412E-2  -.6694E-1
  6.747     0.5850E-2  0.1925     0.1416E-2  -.6637E-1
  6.757     0.5960E-2  0.1949     0.1420E-2  -.6580E-1
  6.767     0.6075E-2  0.1973     0.1425E-2  -.6523E-1
  6.777     0.6195E-2  0.1998     0.1429E-2  -.6466E-1
  6.787     0.6322E-2  0.2023     0.1434E-2  -.6408E-1
  6.797     0.6454E-2  0.2048     0.1438E-2  -.6351E-1
  6.807     0.6594E-2  0.2074     0.1443E-2  -.6293E-1
  6.817     0.6741E-2  0.2101     0.1448E-2  -.6235E-1
  6.827     0.6896E-2  0.2128     0.1452E-2  -.6177E-1
  6.837     0.7060E-2  0.2156     0.1457E-2  -.6119E-1
  6.847     0.7232E-2  0.2185     0.1462E-2  -.6060E-1
  6.857     0.7415E-2  0.2214     0.1467E-2  -.6001E-1
  6.867     0.7609E-2  0.2244     0.1471E-2  -.5943E-1
  6.877     0.7814E-2  0.2275     0.1476E-2  -.5883E-1
  6.887     0.8032E-2  0.2306     0.1481E-2  -.5824E-1
  6.897     0.8265E-2  0.2339     0.1486E-2  -.5765E-1
  6.907     0.8512E-2  0.2373     0.1491E-2  -.5705E-1
  6.917     0.8776E-2  0.2407     0.1496E-2  -.5645E-1
  6.927     0.9058E-2  0.2443     0.1501E-2  -.5585E-1
  6.937     0.9361E-2  0.2479     0.1506E-2  -.5525E-1
  6.947     0.9685E-2  0.2517     0.1511E-2  -.5464E-1
  6.957     0.1003E-1  0.2557     0.1516E-2  -.5404E-1
  6.967     0.1041E-1  0.2597     0.1522E-2  -.5343E-1
  6.977     0.1081E-1  0.2640     0.1527E-2  -.5282E-1
  6.987     0.1125E-1  0.2684     0.1532E-2  -.5220E-1
  6.997     0.1173E-1  0.2729     0.1537E-2  -.5159E-1
  7.008     0.1225E-1  0.2777     0.1543E-2  -.5097E-1
  7.018     0.1281E-1  0.2827     0.1548E-2  -.5035E-1
  7.028     0.1343E-1  0.2879     0.1554E-2  -.4973E-1
  7.038     0.1410E-1  0.2934     0.1560E-2  -.4910E-1
  7.048     0.1485E-1  0.2991     0.1565E-2  -.4848E-1
  7.058     0.1567E-1  0.3052     0.1571E-2  -.4785E-1
  7.068     0.1657E-1  0.3115     0.1577E-2  -.4722E-1
  7.078     0.1758E-1  0.3183     0.1583E-2  -.4658E-1
  7.088     0.1871E-1  0.3255     0.1589E-2  -.4595E-1
  7.098     0.1997E-1  0.3331     0.1595E-2  -.4531E-1
  7.108     0.2139E-1  0.3412     0.1601E-2  -.4467E-1
  7.118     0.2300E-1  0.3499     0.1607E-2  -.4403E-1
  7.128     0.2483E-1  0.3593     0.1613E-2  -.4338E-1
  7.138     0.2692E-1  0.3694     0.1619E-2  -.4273E-1
  7.148     0.2933E-1  0.3804     0.1626E-2  -.4208E-1
  7.158     0.3213E-1  0.3924     0.1632E-2  -.4143E-1
  7.168     0.3540E-1  0.4054     0.1639E-2  -.4077E-1
  7.178     0.3926E-1  0.4198     0.1646E-2  -.4011E-1
  7.188     0.4384E-1  0.4358     0.1652E-2  -.3945E-1
  7.198     0.4937E-1  0.4535     0.1659E-2  -.3879E-1
  7.208     0.5608E-1  0.4734     0.1666E-2  -.3812E-1
  7.218     0.6437E-1  0.4959     0.1674E-2  -.3745E-1
  7.228     0.7475E-1  0.5216     0.1681E-2  -.3678E-1
  7.238     0.8798E-1  0.5512     0.1688E-2  -.3611E-1
  7.248     0.1052     0.5855     0.1696E-2  -.3543E-1
  7.258     0.1280     0.6258     0.1704E-2  -.3475E-1
  7.268     0.1592     0.6735     0.1712E-2  -.3406E-1
  7.278     0.2032     0.7303     0.1720E-2  -.3337E-1
  7.288     0.2673     0.7977     0.1728E-2  -.3268E-1
  7.298     0.3645     0.8756     0.1737E-2  -.3199E-1
  7.308     0.5173     0.9574     0.1745E-2  -.3129E-1
  7.318     0.7611      1.014     0.1754E-2  -.3059E-1
  7.328      1.126     0.9563     0.1764E-2  -.2988E-1
  7.338      1.519     0.6137     0.1773E-2  -.2917E-1
  7.348      1.600     -.2994E-2  0.1783E-2  -.2846E-1
  7.358      1.268     -.4642     0.1793E-2  -.2774E-1
  7.368     0.8711     -.5981     0.1803E-2  -.2702E-1
  7.378     0.5877     -.5653     0.1814E-2  -.2630E-1
  7.388     0.4088     -.4867     0.1825E-2  -.2557E-1
  7.398     0.2961     -.4060     0.1836E-2  -.2484E-1
  7.409     0.2228     -.3347     0.1848E-2  -.2410E-1
  7.419     0.1733     -.2743     0.1860E-2  -.2335E-1
  7.429     0.1386     -.2237     0.1873E-2  -.2261E-1
  7.439     0.1134     -.1811     0.1887E-2  -.2185E-1
  7.449     0.9443E-1  -.1448     0.1901E-2  -.2109E-1
  7.459     0.7994E-1  -.1135     0.1915E-2  -.2033E-1
  7.469     0.6866E-1  -.8629E-1  0.1931E-2  -.1956E-1
  7.479     0.5974E-1  -.6240E-1  0.1947E-2  -.1878E-1
  7.489     0.5258E-1  -.4125E-1  0.1965E-2  -.1800E-1
  7.499     0.4674E-1  -.2237E-1  0.1983E-2  -.1721E-1
  7.509     0.4193E-1  -.5402E-2  0.2003E-2  -.1641E-1
  7.519     0.3793E-1  0.9975E-2  0.2024E-2  -.1560E-1
  7.529     0.3456E-1  0.2400E-1  0.2046E-2  -.1479E-1
  7.539     0.3171E-1  0.3687E-1  0.2071E-2  -.1397E-1
  7.549     0.2929E-1  0.4875E-1  0.2097E-2  -.1313E-1
  7.559     0.2721E-1  0.5978E-1  0.2127E-2  -.1229E-1
  7.569     0.2540E-1  0.7006E-1  0.2159E-2  -.1143E-1
  7.579     0.2384E-1  0.7971E-1  0.2194E-2  -.1056E-1
  7.589     0.2247E-1  0.8881E-1  0.2234E-2  -.9678E-2
  7.599     0.2129E-1  0.9743E-1  0.2280E-2  -.8779E-2
  7.609     0.2026E-1  0.1056     0.2331E-2  -.7860E-2
  7.619     0.1937E-1  0.1135     0.2391E-2  -.6922E-2
  7.629     0.1861E-1  0.1210     0.2461E-2  -.5959E-2
  7.639     0.1795E-1  0.1282     0.2544E-2  -.4970E-2
  7.649     0.1739E-1  0.1352     0.2645E-2  -.3948E-2
  7.659     0.1692E-1  0.1420     0.2769E-2  -.2887E-2
  7.669     0.1655E-1  0.1487     0.2926E-2  -.1781E-2
  7.679     0.1626E-1  0.1552     0.3129E-2  -.6200E-3
  7.689     0.1605E-1  0.1616     0.3400E-2  0.6090E-3
  7.699     0.1593E-1  0.1679     0.3774E-2  0.1920E-2
  7.709     0.1591E-1  0.1742     0.4311E-2  0.3324E-2
  7.719     0.1598E-1  0.1805     0.5112E-2  0.4824E-2
  7.729     0.1617E-1  0.1868     0.6359E-2  0.6367E-2
  7.739     0.1649E-1  0.1933     0.8336E-2  0.7725E-2
    7.7494     0.0170     0.1998     0.0113     0.0082
  7.759     0.1761E-1  0.2065     0.1450E-1  0.6397E-2
  7.769     0.1849E-1  0.2135     0.1526E-1  0.2373E-2
  7.779     0.1968E-1  0.2209     0.1265E-1  -.4451E-3
  7.789     0.2128E-1  0.2287     0.9482E-2  -.6013E-3
  7.799     0.2342E-1  0.2370     0.7223E-2  0.6244E-3
  7.810     0.2634E-1  0.2461     0.5815E-2  0.2247E-2
  7.820     0.3039E-1  0.2562     0.4948E-2  0.3908E-2
  7.830     0.3615E-1  0.2674     0.4406E-2  0.5514E-2
  7.840     0.4460E-1  0.2799     0.4061E-2  0.7053E-2
  7.850     0.5742E-1  0.2938     0.3842E-2  0.8539E-2
  7.860     0.7740E-1  0.3078     0.3707E-2  0.9987E-2
  7.870     0.1083     0.3180     0.3632E-2  0.1141E-1
  7.880     0.1506     0.3144     0.3600E-2  0.1283E-1
  7.890     0.1941     0.2872     0.3605E-2  0.1424E-1
  7.900     0.2248     0.2354     0.3638E-2  0.1567E-1
  7.910     0.2207     0.1654     0.3699E-2  0.1712E-1
  7.920     0.1745     0.1161     0.3786E-2  0.1859E-1
  7.930     0.1227     0.1052     0.3900E-2  0.2011E-1
  7.940     0.8572E-1  0.1140     0.4041E-2  0.2168E-1
  7.950     0.6217E-1  0.1282     0.4215E-2  0.2330E-1
  7.960     0.4717E-1  0.1423     0.4424E-2  0.2500E-1
  7.970     0.3731E-1  0.1550     0.4676E-2  0.2678E-1
  7.980     0.3057E-1  0.1661     0.4981E-2  0.2867E-1
  7.990     0.2578E-1  0.1759     0.5350E-2  0.3068E-1
  8.000     0.2228E-1  0.1845     0.5800E-2  0.3283E-1
# 
# 10/12/2015 at 16:02 YAMBO @ anomaly [start]
# 10/12/2015 at 16:02                 [end]
#  
# Timing   [Min/Max/Average]: 06s/06s/06s
#
# .-Input file : yambo.in
# | optics                       # [R OPT] Optics
# | bse                          # [R BSE] Bethe Salpeter Equation.
# | bsk                          # [R BSK] Bethe Salpeter Equation kernel
# | bss                          # [R BSS] Bethe Salpeter Equation solver
# | em1d                         # [R Xd] Dynamical Inverse Dielectric Matrix
# | ppa                          # [R Xp] Plasmon Pole Approximation
# | FFTGvecs=  3473        RL    # [FFT] Plane-waves
# | X_all_q_nCPU_invert= 1       # [PARALLEL] CPUs for matrix inversion
# | X_Threads= 1                 # [OPENMP/X] Number of threads for response functions
# | DIP_Threads= 1               # [OPENMP/X] Number of threads for dipoles
# | BS_nCPU_invert= 1            # [PARALLEL] CPUs for matrix inversion
# | BS_nCPU_diago= 1             # [PARALLEL] CPUs for matrix diagonalization
# | Chimod= "Hartree"            # [X] IP/Hartree/ALDA/LRC/BSfxc
# | BSEmod= "causal"             # [BSE] resonant/causal/x_coupling/xc_coupling
# | BSKmod= "SEX"                # [BSE] IP/Hartree/HF/ALDA/SEX/BSfxc
# | BSSmod= "d"                  # [BSS] (h)aydock/(d)iagonalization/(i)nversion/(t)ddft`
# | BSENGexx=  51          RL    # [BSK] Exchange components
# | BSENGBlk=  51          RL    # [BSK] Screened interaction block size
# | % KfnQP_E
# |  2.400000 | 1.000000 | 1.000000 |        # [EXTQP BSK BSS] E parameters  (c/v) eV|adim|adim
# | %
# | Gauge= "length"              # [BSE] Gauge (length|velocity)
# | % BEnRange
# |  4.000000 | 8.000000 | eV    # [BSS] Energy range
# | %
# | % BDmRange
# |   0.02500 |  0.02500 | eV    # [BSS] Damping range
# | %
# | BEnSteps=  400               # [BSS] Energy steps
# | % BLongDir
# | 0.5774E-5 |0.5774E-5 |0.5774E-5 |        # [BSS] [cc] Electric Field
# | %
# | % BSEBands
# |   7 | 10 |                   # [BSK] Bands range
# | %
# | % BndsRnXp
# |    1 |  60 |                 # [Xp] Polarization function bands
# | %
# | NGsBlkXp= 151          RL    # [Xp] Response block size
# | % LongDrXp
# | 0.1000E-4 | 0.000    | 0.000    |        # [Xp] [cc] Electric Field
# | %
# | PPAPntXp= 20.00000     eV    # [Xp] PPA imaginary energy
