#                                                                     
#  ____  ____     _       ____    ____  ______      ___               
# |_  _||_  _|   / \     |_   \  /   _||_   _ \   ."   `.             
#   \ \  / /    / _ \      |   \/   |    | |_) | /  .-.  \            
#    \ \/ /    / ___ \     | |\  /| |    |  __". | |   | |            
#    _|  |_  _/ /   \ \_  _| |_\/_| |_  _| |__) |\  `-"  /            
#   |______||____| |____||_____||_____||_______/  `.___."             
#                                                                     
#                                                                     
#                                                                     
# Version 5.1.0 Revision 22026 Hash (prev commit) 3ddfa14f2           
#                  Branch is devel-tddft                              
#          MPI+OpenMP+SLK+SLEPC+HDF5_MPI_IO Build                     
#                http://www.yambo-code.org                            
#
# Polarizability  ( -<<X>> ) @ Q(1):  0.999999975E-5   0.00000000      0.00000000    [q->0 direction]
#
# Polarizability units: area
#
# [GEN] GF Energies                               : Slater exchange(X)+Perdew & Zunger(C)
# [GEN] Green`s Function                          : Retarded
#
# [GEN] Gauge                                     : Length
# [GEN] [r,Vnl] included                          : yes
#
# DIP band range                                  :   30   40
# DIP band range limits                           :   37   38
# DIP e/h energy range                            :  -1.00000000     -1.00000000    [eV]
# RL vectors in the sum                           :   989
# [r,Vnl] included                                : yes
# Bands ordered                                   : yes
# Direct v evaluation                             : no
# Approach used                                   : G-space v
# Dipoles computed                                : R V P
# Wavefunctions                                   : Slater exchange(X)+Perdew & Zunger(C)
#
#
# [K] Identifier                                  :   3325
# [K] Dimension                                   :   96
# [K] Bands                                       :   30   40
# [K] Exchange res                                : yes
# [K] Correlation res                             : no
# [K] Kernel`s coupling                           : no
# [K] Exchange cpl                                : no
# [K] Correlation cpl                             : no
# [K] W interaction is bare                       : no
# [K] ALDA kernel in R-space                      : yes
# [K] RL vectors exchange                         :  107
# [K] E/h energy range                            :  -1.00000000     -1.00000000    [eV]
# [K] Coupling range                              :   100.000000      100.000000    [o/o]
# [X] Response Kind                               : BAR
#                                                 
# [Haydock] Accuracy (requested)                  :  0.499999989E-2 [o/o]
# [Haydock] Accuracy (reached)                    :  0.704453327E-3 [o/o]
# [Haydock] Iterations                            :  18
#
#
#    E[1] [eV]          Im(alpha)          Re(alpha)          Im(alpha_o)        Re(alpha_o)        Im(alpha`)         Re(alpha`)
#
        0.000000           0.000000           13.05055           0.000000           13.03843           0.000000           13.05055
        0.050251           0.005194           13.05186           0.005234           13.03974           0.005194           13.05186
        0.100503           0.010394           13.05577           0.010474           13.04368           0.010394           13.05577
        0.150754           0.015606           13.06229           0.015728           13.05026           0.015606           13.06229
        0.201005           0.020838           13.07143           0.021001           13.05947           0.020838           13.07143
        0.251256           0.026094           13.08320           0.026300           13.07133           0.026094           13.08320
        0.301508           0.031383           13.09762           0.031632           13.08586           0.031383           13.09762
        0.351759           0.036710           13.11470           0.037005           13.10308           0.036710           13.11470
        0.402010           0.042081           13.13446           0.042424           13.12300           0.042081           13.13446
        0.452261           0.047505           13.15693           0.047897           13.14565           0.047505           13.15693
        0.502513           0.052987           13.18214           0.053431           13.17107           0.052987           13.18214
        0.552764           0.058536           13.21010           0.059035           13.19927           0.058536           13.21010
        0.603015           0.064158           13.24088           0.064715           13.23031           0.064158           13.24088
        0.653266           0.069860           13.27449           0.070479           13.26421           0.069860           13.27449
        0.703518           0.075652           13.31099           0.076337           13.30103           0.075652           13.31099
        0.753769           0.081541           13.35041           0.082296           13.34081           0.081541           13.35041
        0.804020           0.087535           13.39282           0.088366           13.38361           0.087535           13.39282
        0.854271           0.093644           13.43826           0.094556           13.42949           0.093644           13.43826
        0.904523           0.099876           13.48679           0.100875           13.47849           0.099876           13.48679
        0.954774           0.106242           13.53848           0.107336           13.53071           0.106242           13.53848
        1.005025           0.112751           13.59339           0.113947           13.58619           0.112751           13.59339
        1.055276           0.119415           13.65162           0.120721           13.64504           0.119415           13.65162
        1.105528           0.126244           13.71322           0.127671           13.70732           0.126244           13.71322
        1.155779           0.133250           13.77829           0.134808           13.77313           0.133250           13.77829
        1.206030           0.140447           13.84692           0.142147           13.84257           0.140447           13.84692
        1.256281           0.147846           13.91921           0.149702           13.91574           0.147846           13.91921
        1.306533           0.155462           13.99526           0.157489           13.99275           0.155462           13.99526
        1.356784           0.163311           14.07518           0.165524           14.07373           0.163311           14.07518
        1.407035           0.171408           14.15910           0.173825           14.15880           0.171408           14.15910
        1.457286           0.179770           14.24714           0.182411           14.24810           0.179770           14.24714
        1.507538           0.188415           14.33944           0.191303           14.34177           0.188415           14.33944
        1.557789           0.197363           14.43615           0.200523           14.43998           0.197363           14.43615
        1.608040           0.206635           14.53742           0.210095           14.54290           0.206635           14.53742
        1.658291           0.216252           14.64342           0.220044           14.65070           0.216252           14.64342
        1.708543           0.226239           14.75433           0.230399           14.76357           0.226239           14.75433
        1.758794           0.236622           14.87034           0.241189           14.88174           0.236622           14.87034
        1.809045           0.247429           14.99165           0.252449           15.00543           0.247429           14.99165
        1.859296           0.258689           15.11848           0.264214           15.13488           0.258689           15.11848
        1.909548           0.270437           15.25107           0.276524           15.27034           0.270437           15.25107
        1.959799           0.282706           15.38967           0.289422           15.41210           0.282706           15.38967
        2.010050           0.295537           15.53455           0.302958           15.56048           0.295537           15.53455
        2.060302           0.308971           15.68599           0.317183           15.71578           0.308971           15.68599
        2.110553           0.323055           15.84432           0.332156           15.87838           0.323055           15.84432
        2.160804           0.337839           16.00986           0.347944           16.04866           0.337839           16.00986
        2.211055           0.353378           16.18298           0.364619           16.22704           0.353378           16.18298
        2.261307           0.369734           16.36406           0.382265           16.41398           0.369734           16.36406
        2.311558           0.386975           16.55354           0.400972           16.60999           0.386975           16.55354
        2.361809           0.405176           16.75187           0.420847           16.81561           0.405176           16.75187
        2.412060           0.424420           16.95953           0.442009           17.03145           0.424420           16.95953
        2.462312           0.444801           17.17709           0.464596           17.25818           0.444801           17.17709
        2.512563           0.466426           17.40513           0.488765           17.49653           0.466426           17.40513
        2.562814           0.489411           17.64428           0.514700           17.74734           0.489411           17.64428
        2.613065           0.513894           17.89525           0.542618           18.01151           0.513894           17.89525
        2.663316           0.540030           18.15883           0.572773           18.29006           0.540030           18.15883
        2.713568           0.567999           18.43586           0.605471           18.58418           0.567999           18.43586
        2.763819           0.598011           18.72729           0.641078           18.89516           0.598011           18.72729
        2.814070           0.630317           19.03419           0.680047           19.22453           0.630317           19.03419
        2.864321           0.665216           19.35774           0.722939           19.57401           0.665216           19.35774
        2.914573           0.703078           19.69927           0.770461           19.94563           0.703078           19.69927
        2.964824           0.744366           20.06031           0.823523           20.34178           0.744366           20.06031
        3.015075           0.789678           20.44261           0.883324           20.76528           0.789678           20.44261
        3.065326           0.839814           20.84820           0.951475           21.21956           0.839814           20.84820
        3.115578           0.895887           21.27949           1.030206           21.70879           0.895887           21.27949
        3.165829           0.959527           21.73934           1.122702           22.23820           0.959527           21.73934
        3.216080           1.033251           22.23122           1.233673           22.81439           1.033251           22.23122
        3.266332           1.121219           22.75930           1.370387           23.44582           1.121219           22.75930
        3.316583           1.230787           23.32836           1.544588           24.14351           1.230787           23.32836
        3.366834           1.375870           23.94247           1.776302           24.92162           1.375870           23.94247
        3.417085           1.583620           24.59851           2.101746           25.79702           1.583620           24.59851
        3.467337           1.900047           25.25920           2.590370           26.78367           1.900046           25.25920
        3.517588           2.333929           25.78474           3.379833           27.86297           2.333929           25.78474
        3.567839           2.611562           26.04069           4.717213           28.85636           2.611562           26.04069
        3.618090           2.481379           26.42901           6.734641           29.05003           2.481379           26.42901
        3.668341           2.321868           27.20003           8.112901           27.53101           2.321868           27.20003
        3.718593           2.322591           28.16459           7.215443           26.26520           2.322591           28.16459
        3.768844           2.469435           29.20593           6.054824           26.86546           2.469434           29.20593
        3.819095           2.730300           30.25049           5.914183           28.14881           2.730302           30.25049
        3.869347           2.986708           31.25513           6.534363           28.94516           2.986704           31.25513
        3.919598           3.156120           32.35833           6.611264           28.98387           3.156124           32.35835
        3.969849           3.315913           33.64042           5.813071           29.72557           3.315923           33.64037
        4.020101           3.526005           35.13278           5.309281           31.41377           3.525939           35.13286
        4.070352           3.857534           36.81760           5.396710           33.50169           3.857759           36.81749
        4.120603           4.325722           38.65146           6.063434           35.76563           4.325114           38.65155
        4.170855           4.894014           40.62351           7.442173           38.01674           4.895275           40.62329
        4.221105           5.530721           42.79609           9.647499           39.64065           5.528976           42.79657
        4.271357           6.273777           45.29285           11.57993           39.67401           6.275719           45.29252
        4.321608           7.308250           48.16122           11.34202           39.77475           7.305916           48.16090
        4.371859           8.747943           51.24768           10.76670           42.01131           8.751249           51.24864
        4.422111           10.39745           54.39333           11.53337           45.29594           10.39287           54.39308
        4.472362           11.95535           58.01032           13.58222           48.20720           11.95952           58.00871
        4.522613           13.88448           62.56012           15.41191           50.12568           13.88228           62.56272
        4.572864           16.53945           67.95180           16.27275           52.65767           16.53956           67.94975
        4.623116           19.96853           74.37605           16.95621           56.37416           19.96912           74.37667
        4.673367           24.80571           82.40462           17.87845           61.94113           24.80550           82.40465
        4.723618           32.25630           92.07937           20.20230           69.46571           32.25632           92.07935
        4.773870           43.53284           102.5869           24.47643           78.73966           43.53284           102.5869
        4.824121           58.06716           113.4374           31.39619           90.11269           58.06716           113.4374
        4.874372           78.29624           128.6688           42.52631           104.1706           78.29624           128.6688
        4.924623           116.0500           147.1564           61.04253           121.3518           116.0500           147.1564
        4.974874           186.0739           152.0143           93.41297           140.5438           186.0739           152.0143
        5.025126           282.5707           93.60598           151.5509           153.0429           282.5707           93.60598
        5.075377           305.9987          -50.79414           243.1695           124.0066           305.9987          -50.79414
        5.125628           217.6197          -144.7609           306.0386           2.592602           217.6197          -144.7609
        5.175879           132.9576          -154.5555           245.6698          -120.9748           132.9576          -154.5555
        5.226130           83.05919          -137.5543           153.3550          -152.0323           83.05919          -137.5543
        5.276382           55.11525          -118.2510           94.20477          -140.1314           55.11525          -118.2510
        5.326633           38.71678          -101.8437           61.16603          -121.1281           38.71678          -101.8437
        5.376884           28.49786          -88.65483           42.16299          -104.1190           28.49786          -88.65483
        5.427136           21.77371          -78.10074           30.56569          -90.31222           21.77371          -78.10074
        5.477386           17.14170          -69.57074           23.07240          -79.27593           17.14170          -69.57074
        5.527638           13.82712          -62.58109           17.98856          -70.39326           13.82712          -62.58109
        5.577889           11.37905          -56.77287           14.39654          -63.14993           11.37905          -56.77287
        5.628140           9.522329          -51.88261           11.77148          -57.15907           9.522329          -51.88261
        5.678392           8.082089          -47.71597           9.798189          -52.13664           8.082089          -47.71597
        5.728643           6.943204          -44.12784           8.279058          -47.87363           6.943204          -44.12784
        5.778894           6.027525          -41.00839           7.085526          -44.21476           6.027525          -41.00839
        5.829145           5.280570          -38.27329           6.131257          -41.04316           5.280570          -38.27329
        5.879397           4.663449          -35.85693           5.356580          -38.26947           4.663449          -35.85693
        5.929648           4.147830          -33.70761           4.719271          -35.82461           4.147830          -33.70761
        5.979899           3.712676          -31.78403           4.188760          -33.65422           3.712676          -31.78403
        6.030151           3.342124          -30.05295           3.742514          -31.71521           3.342124          -30.05295
        6.080402           3.024020          -28.48722           3.363619          -29.97290           3.024020          -28.48722
        6.130653           2.748940          -27.06458           3.039208          -28.39923           2.748940          -27.06458
        6.180904           2.509471          -25.76649           2.759323          -26.97111           2.509471          -25.76649
        6.231155           2.299737          -24.57751           2.516182          -25.66942           2.299737          -24.57751
        6.281407           2.115021          -23.48462           2.303636          -24.47832           2.115021          -23.48462
        6.331658           1.951503          -22.47677           2.116761          -23.38442           1.951503          -22.47677
        6.381909           1.806066          -21.54453           1.951589          -22.37642           1.806066          -21.54453
        6.432161           1.676144          -20.67981           1.804886          -21.44470           1.676144          -20.67981
        6.482412           1.559610          -19.87565           1.674001          -20.58102           1.559610          -19.87565
        6.532663           1.454689          -19.12596           1.556740          -19.77826           1.454689          -19.12596
        6.582914           1.359891          -18.42549           1.451278          -19.03027           1.359891          -18.42549
        6.633166           1.273956          -17.76961           1.356083          -18.33171           1.273956          -17.76961
        6.683417           1.195817          -17.15425           1.269866          -17.67787           1.195817          -17.15425
        6.733668           1.124558          -16.57582           1.191534          -17.06467           1.124558          -16.57582
        6.783919           1.059398          -16.03115           1.120155          -16.48848           1.059398          -16.03115
        6.834171           0.999660          -15.51742           1.054929          -15.94607           0.999660          -15.51742
        6.884422           0.944763          -15.03211           0.995171          -15.43463           0.944763          -15.03211
        6.934673           0.894196          -14.57296           0.940286          -14.95159           0.894196          -14.57296
        6.984925           0.847519          -14.13796           0.889759          -14.49469           0.847519          -14.13796
        7.035176           0.804342          -13.72527           0.843142          -14.06192           0.804342          -13.72527
        7.085427           0.764326          -13.33326           0.800042          -13.65143           0.764326          -13.33326
        7.135678           0.727171          -12.96044           0.760113          -13.26156           0.727171          -12.96044
        7.185929           0.692609          -12.60546           0.723053          -12.89083           0.692609          -12.60546
        7.236180           0.660408          -12.26710           0.688595          -12.53790           0.660408          -12.26710
        7.286432           0.630356          -11.94423           0.656500          -12.20153           0.630356          -11.94423
        7.336683           0.602269          -11.63586           0.626558          -11.88060           0.602269          -11.63586
        7.386934           0.575978          -11.34103           0.598581          -11.57411           0.575978          -11.34103
        7.437186           0.551335          -11.05889           0.572401          -11.28111           0.551335          -11.05889
        7.487437           0.528205          -10.78869           0.547867          -11.00075           0.528205          -10.78869
        7.537688           0.506467          -10.52966           0.524846          -10.73225           0.506467          -10.52966
        7.587939           0.486012          -10.28117           0.503215          -10.47488           0.486012          -10.28117
        7.638191           0.466742          -10.04258           0.482865          -10.22799           0.466742          -10.04258
        7.688442           0.448568          -9.813350           0.463698          -9.990967           0.448568          -9.813350
        7.738693           0.431407          -9.592941           0.445623          -9.763230           0.431407          -9.592941
        7.788945           0.415188          -9.380865           0.428560          -9.544274           0.415188          -9.380865
        7.839196           0.399841          -9.176682           0.412435          -9.333611           0.399841          -9.176682
        7.889447           0.385307          -8.979959           0.397180          -9.130784           0.385307          -8.979959
        7.939698           0.371529          -8.790313           0.382734          -8.935376           0.371529          -8.790313
        7.989950           0.358456          -8.607382           0.369042          -8.746997           0.358456          -8.607382
        8.040201           0.346041          -8.430822           0.356052          -8.565293           0.346041          -8.430822
        8.090452           0.334241          -8.260312           0.343717          -8.389925           0.334241          -8.260312
        8.140703           0.323016          -8.095568           0.331994          -8.220560           0.323016          -8.095568
        8.190955           0.312330          -7.936303           0.320843          -8.056919           0.312330          -7.936303
        8.241206           0.302149          -7.782254           0.310229          -7.898728           0.302149          -7.782254
        8.291457           0.292441          -7.633185           0.300116          -7.745716           0.292441          -7.633185
        8.341709           0.283179          -7.488862           0.290475          -7.597649           0.283179          -7.488862
        8.391959           0.274335          -7.349072           0.281277          -7.454300           0.274335          -7.349072
        8.442210           0.265885          -7.213605           0.272495          -7.315445           0.265885          -7.213605
        8.492462           0.257806          -7.082277           0.264105          -7.180892           0.257806          -7.082277
        8.542713           0.250077          -6.954907           0.256083          -7.050442           0.250077          -6.954907
        8.592964           0.242678          -6.831333           0.248409          -6.923920           0.242678          -6.831333
        8.643216           0.235591          -6.711372           0.241063          -6.801167           0.235591          -6.711372
        8.693467           0.228798          -6.594900           0.234027          -6.682007           0.228798          -6.594900
        8.743718           0.222284          -6.481752           0.227284          -6.566299           0.222284          -6.481752
        8.793969           0.216034          -6.371799           0.220817          -6.453902           0.216034          -6.371799
        8.844221           0.210033          -6.264923           0.214613          -6.344678           0.210033          -6.264923
        8.894472           0.204270          -6.160988           0.208656          -6.238500           0.204270          -6.160988
        8.944723           0.198731          -6.059887           0.202935          -6.135248           0.198731          -6.059887
        8.994975           0.193405          -5.961507           0.197437          -6.034804           0.193405          -5.961507
        9.045226           0.188282          -5.865742           0.192151          -5.937062           0.188282          -5.865742
        9.095477           0.183352          -5.772502           0.187066          -5.841923           0.183352          -5.772502
        9.145728           0.178604          -5.681682           0.182172          -5.749279           0.178604          -5.681682
        9.195980           0.174031          -5.593202           0.177460          -5.659043           0.174031          -5.593202
        9.246231           0.169624          -5.506971           0.172920          -5.571128           0.169624          -5.506971
        9.296482           0.165375          -5.422912           0.168546          -5.485452           0.165375          -5.422912
        9.346734           0.161276          -5.340938           0.164329          -5.401917           0.161276          -5.340938
        9.396985           0.157322          -5.260992           0.160261          -5.320466           0.157322          -5.260992
        9.447236           0.153504          -5.182987           0.156336          -5.241018           0.153504          -5.182987
        9.497487           0.149818          -5.106865           0.152547          -5.163501           0.149818          -5.106865
        9.547739           0.146257          -5.032563           0.148888          -5.087858           0.146257          -5.032563
        9.597990           0.142815          -4.960011           0.145353          -5.014011           0.142815          -4.960011
        9.648241           0.139488          -4.889163           0.141937          -4.941911           0.139488          -4.889163
        9.698492           0.136270          -4.819953           0.138634          -4.871495           0.136270          -4.819953
        9.748743           0.133157          -4.752326           0.135441          -4.802706           0.133157          -4.752326
        9.798994           0.130145          -4.686244           0.132351          -4.735494           0.130145          -4.686244
        9.849246           0.127228          -4.621644           0.129360          -4.669807           0.127228          -4.621644
        9.899497           0.124404          -4.558478           0.126465          -4.605593           0.124404          -4.558478
        9.949748           0.121668          -4.496714           0.123662          -4.542808           0.121668          -4.496714
        10.00000           0.119017          -4.436300           0.120946          -4.481413           0.119017          -4.436300
# 
# 03/10/2023 at 10:43 yambo @ unimi-XPS-8930 [start]
# 03/10/2023 at 10:43                        [end]
#
# .-Input file  yambo.in
# | optics                           # [R] Linear Response optical properties
# | bss                              # [R] BSE solver
# | bse                              # [R][BSE] Bethe Salpeter Equation.
# | tddft                            # [R][K] Use TDDFT kernel
# | BoseTemp= 0.000000         eV    # Bosonic Temperature
# | FFTGvecs=  989             RL    # [FFT] Plane-waves
# | BS_nCPU_LinAlg_INV= 1            # [PARALLEL] CPUs for Linear Algebra (if -1 it is automatically set)
# | BS_nCPU_LinAlg_DIAGO= 1          # [PARALLEL] CPUs for Linear Algebra (if -1 it is automatically set)
# | X_Threads= 1                     # [OPENMP/X] Number of threads for response functions
# | DIP_Threads= 1                   # [OPENMP/X] Number of threads for dipoles
# | K_Threads= 1                     # [OPENMP/BSK] Number of threads for response functions
# | NonPDirs= "YZ"                   # [X/BSS] Non periodic chartesian directions (X,Y,Z,XY...)
# | BSKmod= "ALDA"                   # [BSE] IP/Hartree/HF/ALDA/SEX/BSfxc
# | BSEmod= "retarded"               # [BSE] resonant/retarded/coupling
# | BSSmod= "h"                      # [BSS] (h)aydock/(d)iagonalization/(s)lepc/(i)nversion/(t)ddft`
# | DipComputed= "R V P"             # [DIP] [default R P V; extra P2 Spin Orb]
# | BSENGexx= 107              RL    # [BSK] Exchange components
# | BSENGfxc= 107              RL    # [BSK] Fxc components
# | FxcCutScheme= "lower_Gmax"       # [TDDFT] ("none","lower_Gmax","lower_GmGp","full_grid")
# | % BSEQptR
# |  1 | 1 |                             # [BSK] Transferred momenta range
# | %
# | % BSEBands
# |   30 |  40 |                         # [BSK] Bands range
# | %
# | % BEnRange
# |   0.00000 | 10.00000 |         eV    # [BSS] Energy range
# | %
# | % BDmRange
# |  0.100000 | 0.100000 |         eV    # [BSS] Damping range
# | %
# | BEnSteps= 200                    # [BSS] Energy steps
# | % BLongDir
# |  0.100000E-4 |  0.00000    |  0.00000    # [BSS] [cc] Electric Field
# | %
# | BSEprop= "abs"                   # [BSS] Can be any among abs/jdos/kerr/magn/dich/photolum/esrt
# | BSEdips= "none"                  # [BSS] Can be "trace/none" or "xy/xz/yz" to define off-diagonal rotation plane
# | BSHayTrs= 0.005000               # [BSS] Relative [o/o] Haydock threshold. Strict(>0)/Average(<0)
