#                                                                     
#  __  __   ________   ___ __ __    _______   ______                  
# /_/\/_/\ /_______/\ /__//_//_/\ /_______/\ /_____/\                 
# \ \ \ \ \\::: _  \ \\::\| \| \ \\::: _  \ \\:::_ \ \                
#  \:\_\ \ \\::(_)  \ \\:.      \ \\::(_)  \/_\:\ \ \ \               
#   \::::_\/ \:: __  \ \\:.\-/\  \ \\::  _  \ \\:\ \ \ \              
#     \::\ \  \:.\ \  \ \\. \  \  \ \\::(_)  \ \\:\_\ \ \             
#      \__\/   \__\/\__\/ \__\/ \__\/ \_______\/ \_____\/             
#                                                                     
#                                                                     
# Version 5.1.0 Revision 22026 Hash (prev commit) 3ddfa14f2           
#                  Branch is devel-tddft                              
#         MPI+OpenMP+SLK+SLEPC+HDF5_MPI_IO Build                      
#                http://www.yambo-code.org                            
#
# Polarizability  ( -<<X>> ) @ Q(1):  0.999999975E-5   0.00000000      0.00000000    [q->0 direction]
#
# Polarizability units: area
#
# [GEN] GF Energies                               : Slater exchange(X)+Perdew & Zunger(C)
# [GEN] Green`s Function                          : Retarded
#
# [GEN] Gauge                                     : Length
# [GEN] [r,Vnl] included                          : yes
#
# DIP band range                                  :   30   40
# DIP band range limits                           :   37   38
# DIP e/h energy range                            :  -1.00000000     -1.00000000    [eV]
# RL vectors in the sum                           :   989
# [r,Vnl] included                                : yes
# Bands ordered                                   : yes
# Direct v evaluation                             : no
# Approach used                                   : G-space v
# Dipoles computed                                : R V P
# Wavefunctions                                   : Slater exchange(X)+Perdew & Zunger(C)
#
#
# [K] Identifier                                  :   912
# [K] Dimension                                   :   96
# [K] Bands                                       :   30   40
# [K] Exchange res                                : yes
# [K] Correlation res                             : no
# [K] Kernel`s coupling                           : no
# [K] Exchange cpl                                : no
# [K] Correlation cpl                             : no
# [K] W interaction is bare                       : no
# [K] ALDA kernel in R-space                      : yes
# [K] RL vectors exchange                         :  107
# [K] E/h energy range                            :  -1.00000000     -1.00000000    [eV]
# [K] Coupling range                              :   100.000000      100.000000    [o/o]
# [X] Response Kind                               : BAR
#                                                 
# [Haydock] Accuracy (requested)                  :  0.499999989E-2 [o/o]
# [Haydock] Accuracy (reached)                    :  0.125388324E-2 [o/o]
# [Haydock] Iterations                            :  15
#
#
#    E[1] [eV]          Im(alpha)          Re(alpha)          Im(alpha_o)        Re(alpha_o)        Im(alpha`)         Re(alpha`)
#
        0.000000           0.000000           13.00681           0.000000           13.03843           0.000000           13.00681
        0.050251           0.005168           13.00811           0.005234           13.03974           0.005168           13.00811
        0.100503           0.010342           13.01200           0.010474           13.04368           0.010342           13.01200
        0.150754           0.015528           13.01849           0.015728           13.05026           0.015528           13.01849
        0.201005           0.020734           13.02758           0.021001           13.05947           0.020734           13.02758
        0.251256           0.025965           13.03929           0.026300           13.07133           0.025965           13.03929
        0.301508           0.031228           13.05364           0.031632           13.08586           0.031228           13.05364
        0.351759           0.036530           13.07063           0.037005           13.10308           0.036530           13.07063
        0.402010           0.041877           13.09030           0.042424           13.12300           0.041877           13.09030
        0.452261           0.047276           13.11266           0.047897           13.14565           0.047276           13.11266
        0.502513           0.052734           13.13774           0.053431           13.17107           0.052734           13.13774
        0.552764           0.058259           13.16558           0.059035           13.19927           0.058259           13.16558
        0.603015           0.063857           13.19621           0.064715           13.23031           0.063857           13.19621
        0.653266           0.069538           13.22967           0.070479           13.26421           0.069538           13.22967
        0.703518           0.075308           13.26599           0.076337           13.30103           0.075308           13.26599
        0.753769           0.081175           13.30524           0.082296           13.34081           0.081175           13.30524
        0.804020           0.087150           13.34745           0.088366           13.38361           0.087150           13.34745
        0.854271           0.093240           13.39269           0.094556           13.42949           0.093240           13.39269
        0.904523           0.099455           13.44101           0.100875           13.47849           0.099455           13.44101
        0.954774           0.105804           13.49249           0.107336           13.53071           0.105804           13.49249
        1.005025           0.112299           13.54718           0.113947           13.58619           0.112299           13.54718
        1.055276           0.118950           13.60517           0.120721           13.64504           0.118950           13.60517
        1.105528           0.125769           13.66654           0.127671           13.70732           0.125769           13.66654
        1.155779           0.132767           13.73136           0.134808           13.77313           0.132767           13.73136
        1.206030           0.139958           13.79975           0.142147           13.84257           0.139958           13.79975
        1.256281           0.147356           13.87179           0.149702           13.91574           0.147356           13.87179
        1.306533           0.154974           13.94759           0.157489           13.99275           0.154974           13.94759
        1.356784           0.162828           14.02726           0.165524           14.07373           0.162828           14.02726
        1.407035           0.170935           14.11094           0.173825           14.15880           0.170935           14.11094
        1.457286           0.179313           14.19875           0.182411           14.24810           0.179313           14.19875
        1.507538           0.187980           14.29082           0.191303           14.34177           0.187980           14.29082
        1.557789           0.196957           14.38731           0.200523           14.43998           0.196957           14.38731
        1.608040           0.206265           14.48838           0.210095           14.54290           0.206265           14.48838
        1.658291           0.215928           14.59420           0.220044           14.65070           0.215928           14.59420
        1.708543           0.225972           14.70495           0.230399           14.76357           0.225972           14.70495
        1.758794           0.236423           14.82084           0.241189           14.88174           0.236423           14.82084
        1.809045           0.247311           14.94206           0.252449           15.00543           0.247311           14.94206
        1.859296           0.258669           15.06884           0.264214           15.13488           0.258669           15.06884
        1.909548           0.270532           15.20144           0.276524           15.27034           0.270532           15.20144
        1.959799           0.282937           15.34010           0.289422           15.41210           0.282937           15.34010
        2.010050           0.295928           15.48512           0.302958           15.56048           0.295928           15.48512
        2.060302           0.309549           15.63678           0.317183           15.71578           0.309549           15.63678
        2.110553           0.323851           15.79543           0.332156           15.87838           0.323851           15.79543
        2.160804           0.338889           15.96141           0.347944           16.04866           0.338889           15.96141
        2.211055           0.354726           16.13509           0.364619           16.22704           0.354726           16.13509
        2.261307           0.371428           16.31691           0.382265           16.41398           0.371428           16.31691
        2.311558           0.389073           16.50729           0.400972           16.60999           0.389073           16.50729
        2.361809           0.407744           16.70674           0.420847           16.81561           0.407744           16.70674
        2.412060           0.427535           16.91578           0.442009           17.03145           0.427535           16.91578
        2.462312           0.448556           17.13499           0.464596           17.25818           0.448556           17.13499
        2.512563           0.470925           17.36502           0.488765           17.49653           0.470925           17.36502
        2.562814           0.494782           17.60655           0.514700           17.74734           0.494782           17.60655
        2.613065           0.520283           17.86037           0.542618           18.01151           0.520283           17.86037
        2.663316           0.547611           18.12732           0.572773           18.29006           0.547611           18.12732
        2.713568           0.576978           18.40835           0.605471           18.58418           0.576978           18.40835
        2.763819           0.608631           18.70452           0.641078           18.89516           0.608631           18.70452
        2.814070           0.642863           19.01702           0.680047           19.22453           0.642863           19.01702
        2.864321           0.680026           19.34718           0.722939           19.57401           0.680026           19.34718
        2.914573           0.720545           19.69653           0.770461           19.94563           0.720545           19.69653
        2.964824           0.764945           20.06679           0.823523           20.34178           0.764945           20.06679
        3.015075           0.813881           20.45997           0.883324           20.76528           0.813881           20.45997
        3.065326           0.868190           20.87840           0.951475           21.21956           0.868190           20.87840
        3.115578           0.928967           21.32484           1.030206           21.70879           0.928967           21.32484
        3.165829           0.997682           21.80256           1.122702           22.23820           0.997682           21.80256
        3.216080           1.076369           22.31552           1.233673           22.81439           1.076369           22.31552
        3.266332           1.167953           22.86862           1.370387           23.44582           1.167953           22.86862
        3.316583           1.276818           23.46796           1.544588           24.14351           1.276818           23.46796
        3.366834           1.409869           24.12123           1.776302           24.92162           1.409869           24.12123
        3.417085           1.578604           24.83812           2.101746           25.79702           1.578604           24.83812
        3.467337           1.803365           25.63014           2.590370           26.78367           1.803365           25.63014
        3.517588           2.122269           26.50781           3.379833           27.86297           2.122269           26.50781
        3.567839           2.609767           27.46599           4.717213           28.85636           2.609767           27.46599
        3.618090           3.400931           28.41834           6.734641           29.05003           3.400930           28.41834
        3.668341           4.581331           28.99757           8.112901           27.53101           4.581332           28.99757
        3.718593           5.482666           28.70061           7.215443           26.26520           5.482664           28.70061
        3.768844           5.197550           28.54456           6.054824           26.86546           5.197550           28.54456
        3.819095           4.808769           29.45655           5.914183           28.14881           4.808776           29.45655
        3.869347           5.104471           30.78925           6.534363           28.94516           5.104460           30.78925
        3.919598           6.032279           31.75276           6.611264           28.98387           6.032265           31.75278
        3.969849           6.616937           31.87068           5.813071           29.72557           6.616995           31.87067
        4.020101           6.106905           32.39978           5.309281           31.41377           6.106855           32.39969
        4.070352           5.657375           34.02076           5.396710           33.50169           5.657257           34.02089
        4.120603           5.813643           36.16622           6.063434           35.76563           5.813957           36.16638
        4.170855           6.586246           38.47214           7.442173           38.01674           6.586328           38.47129
        4.221105           7.898833           40.63329           9.647499           39.64065           7.896748           40.63465
        4.271357           9.455598           42.50976           11.57993           39.67401           9.462054           42.50903
        4.321608           11.03605           44.01210           11.34202           39.77475           11.02361           44.01140
        4.371859           11.86672           45.59695           10.76670           42.01131           11.88219           45.59882
        4.422111           12.71965           48.47083           11.53337           45.29594           12.70607           48.46597
        4.472362           14.81797           52.02706           13.58222           48.20720           14.82805           52.03540
        4.522613           17.92090           55.20123           15.41191           50.12568           17.91350           55.19181
        4.572864           21.61932           58.35342           16.27275           52.65767           21.62495           58.36068
        4.623116           26.80747           60.28180           16.95621           56.37416           26.80352           60.27826
        4.673367           29.79010           59.48436           17.87845           61.94113           29.79188           59.48520
        4.723618           28.75491           61.92810           20.20230           69.46571           28.75447           61.92800
        4.773870           29.11533           69.61823           24.47643           78.73966           29.11539           69.61823
        4.824121           33.06081           80.66761           31.39619           90.11269           33.06081           80.66761
        4.874372           41.70301           94.57960           42.52631           104.1706           41.70301           94.57960
        4.924623           57.42031           111.4715           61.04253           121.3518           57.42031           111.4715
        4.974874           85.55190           130.6479           93.41297           140.5438           85.55190           130.6479
        5.025126           136.6534           145.7399           151.5509           153.0429           136.6534           145.7399
        5.075377           221.3364           128.8347           243.1695           124.0066           221.3364           128.8347
        5.125628           296.5193           25.55632           306.0386           2.592602           296.5193           25.55632
        5.175879           255.9204          -106.0349           245.6698          -120.9748           255.9204          -106.0349
        5.226130           163.2511          -149.4707           153.3550          -152.0323           163.2511          -149.4707
        5.276382           99.80272          -141.2556           94.20477          -140.1314           99.80272          -141.2556
        5.326633           64.18418          -122.7395           61.16603          -121.1281           64.18418          -122.7395
        5.376884           43.86642          -105.5291           42.16299          -104.1190           43.86642          -105.5291
        5.427136           31.58627          -91.44516           30.56569          -90.31222           31.58627          -91.44516
        5.477386           23.71885          -80.17625           23.07240          -79.27593           23.71885          -80.17625
        5.527638           18.41832          -71.11597           17.98856          -70.39326           18.41832          -71.11597
        5.577889           14.69428          -63.73951           14.39654          -63.14993           14.69428          -63.73951
        5.628140           11.98518          -57.64835           11.77148          -57.15907           11.98518          -57.64835
        5.678392           9.956285          -52.54930           9.798189          -52.13664           9.956285          -52.54930
        5.728643           8.399119          -48.22683           8.279058          -47.87363           8.399119          -48.22683
        5.778894           7.178816          -44.52110           7.085526          -44.21476           7.178816          -44.52110
        5.829145           6.205207          -41.31197           6.131257          -41.04316           6.205207          -41.31197
        5.879397           5.416246          -38.50779           5.356580          -38.26947           5.416246          -38.50779
        5.929648           4.768165          -36.03778           4.719271          -35.82461           4.768165          -36.03778
        5.979899           4.229387          -33.84644           4.188760          -33.65422           4.229387          -33.84644
        6.030151           3.776692          -31.88976           3.742514          -31.71521           3.776692          -31.88976
        6.080402           3.392697          -30.13243           3.363619          -29.97290           3.392697          -30.13243
        6.130653           3.064188          -28.54580           3.039208          -28.39923           3.064188          -28.54580
        6.180904           2.780976          -27.10643           2.759323          -26.97111           2.780976          -27.10643
        6.231155           2.535107          -25.79494           2.516182          -25.66942           2.535107          -25.79494
        6.281407           2.320295          -24.59519           2.303636          -24.47832           2.320295          -24.59519
        6.331658           2.131524          -23.49363           2.116761          -23.38442           2.131524          -23.49363
        6.381909           1.964751          -22.47880           1.951589          -22.37642           1.964751          -22.47880
        6.432161           1.816686          -21.54097           1.804886          -21.44470           1.816686          -21.54097
        6.482412           1.684633          -20.67177           1.674001          -20.58102           1.684633          -20.67177
        6.532663           1.566365          -19.86403           1.556740          -19.77826           1.566365          -19.86403
        6.582914           1.460027          -19.11151           1.451278          -19.03027           1.460027          -19.11151
        6.633166           1.364068          -18.40881           1.356083          -18.33171           1.364068          -18.40881
        6.683417           1.277180          -17.75120           1.269866          -17.67787           1.277180          -17.75120
        6.733668           1.198255          -17.13452           1.191534          -17.06467           1.198255          -17.13452
        6.783919           1.126351          -16.55512           1.120155          -16.48848           1.126351          -16.55512
        6.834171           1.060657          -16.00976           1.054929          -15.94607           1.060657          -16.00976
        6.884422           1.000480          -15.49557           0.995171          -15.43463           1.000480          -15.49557
        6.934673           0.945220          -15.00999           0.940286          -14.95159           0.945220          -15.00999
        6.984925           0.894355          -14.55072           0.889759          -14.49469           0.894355          -14.55072
        7.035176           0.847432          -14.11573           0.843142          -14.06192           0.847432          -14.11573
        7.085427           0.804055          -13.70317           0.800042          -13.65143           0.804055          -13.70317
        7.135678           0.763874          -13.31137           0.760113          -13.26156           0.763874          -13.31137
        7.185929           0.726585          -12.93883           0.723053          -12.89083           0.726585          -12.93883
        7.236180           0.691916          -12.58419           0.688595          -12.53790           0.691916          -12.58419
        7.286432           0.659629          -12.24621           0.656500          -12.20153           0.659629          -12.24621
        7.336683           0.629510          -11.92377           0.626558          -11.88060           0.629510          -11.92377
        7.386934           0.601370          -11.61584           0.598581          -11.57411           0.601370          -11.61584
        7.437186           0.575039          -11.32148           0.572401          -11.28111           0.575039          -11.32148
        7.487437           0.550367          -11.03984           0.547867          -11.00075           0.550367          -11.03984
        7.537688           0.527216          -10.77012           0.524846          -10.73225           0.527216          -10.77012
        7.587939           0.505466          -10.51160           0.503215          -10.47488           0.505466          -10.51160
        7.638191           0.485005          -10.26361           0.482865          -10.22799           0.485005          -10.26361
        7.688442           0.465735          -10.02554           0.463698          -9.990967           0.465735          -10.02554
        7.738693           0.447564          -9.796822           0.445623          -9.763230           0.447564          -9.796822
        7.788945           0.430410          -9.576910           0.428560          -9.544274           0.430410          -9.576910
        7.839196           0.414201          -9.365338           0.412435          -9.333611           0.414201          -9.365338
        7.889447           0.398867          -9.161643           0.397180          -9.130784           0.398867          -9.161643
        7.939698           0.384348          -8.965413           0.382734          -8.935376           0.384348          -8.965413
        7.989950           0.370586          -8.776249           0.369042          -8.746997           0.370586          -8.776249
        8.040201           0.357530          -8.593785           0.356052          -8.565293           0.357530          -8.593785
        8.090452           0.345134          -8.417688           0.343717          -8.389925           0.345134          -8.417688
        8.140703           0.333353          -8.247630           0.331994          -8.220560           0.333353          -8.247630
        8.190955           0.322148          -8.083332           0.320843          -8.056919           0.322148          -8.083332
        8.241206           0.311481          -7.924488           0.310229          -7.898728           0.311481          -7.924488
        8.291457           0.301321          -7.770870           0.300116          -7.745716           0.301321          -7.770870
        8.341709           0.291633          -7.622207           0.290475          -7.597649           0.291633          -7.622207
        8.391959           0.282392          -7.478290           0.281277          -7.454300           0.282392          -7.478290
        8.442210           0.273568          -7.338889           0.272495          -7.315445           0.273568          -7.338889
        8.492462           0.265139          -7.203803           0.264105          -7.180892           0.265139          -7.203803
        8.542713           0.257080          -7.072845           0.256083          -7.050442           0.257080          -7.072845
        8.592964           0.249370          -6.945835           0.248409          -6.923920           0.249370          -6.945835
        8.643216           0.241991          -6.822598           0.241063          -6.801167           0.241991          -6.822598
        8.693467           0.234923          -6.702992           0.234027          -6.682007           0.234923          -6.702992
        8.743718           0.228149          -6.586843           0.227284          -6.566299           0.228149          -6.586843
        8.793969           0.221653          -6.474020           0.220817          -6.453902           0.221653          -6.474020
        8.844221           0.215421          -6.364380           0.214613          -6.344678           0.215421          -6.364380
        8.894472           0.209438          -6.257806           0.208656          -6.238500           0.209438          -6.257806
        8.944723           0.203692          -6.154169           0.202935          -6.135248           0.203692          -6.154169
        8.994975           0.198170          -6.053350           0.197437          -6.034804           0.198170          -6.053350
        9.045226           0.192860          -5.955248           0.192151          -5.937062           0.192860          -5.955248
        9.095477           0.187753          -5.859760           0.187066          -5.841923           0.187753          -5.859760
        9.145728           0.182838          -5.766777           0.182172          -5.749279           0.182838          -5.766777
        9.195980           0.178106          -5.676208           0.177460          -5.659043           0.178106          -5.676208
        9.246231           0.173547          -5.587974           0.172920          -5.571128           0.173547          -5.587974
        9.296482           0.169154          -5.501979           0.168546          -5.485452           0.169154          -5.501979
        9.346734           0.164919          -5.418157           0.164329          -5.401917           0.164919          -5.418157
        9.396985           0.160834          -5.336409           0.160261          -5.320466           0.160834          -5.336409
        9.447236           0.156892          -5.256673           0.156336          -5.241018           0.156892          -5.256673
        9.497487           0.153088          -5.178889           0.152547          -5.163501           0.153088          -5.178889
        9.547739           0.149414          -5.102974           0.148888          -5.087858           0.149414          -5.102974
        9.597990           0.145864          -5.028871           0.145353          -5.014011           0.145864          -5.028871
        9.648241           0.142434          -4.956514           0.141937          -4.941911           0.142434          -4.956514
        9.698492           0.139118          -4.885851           0.138634          -4.871495           0.139118          -4.885851
        9.748743           0.135912          -4.816822           0.135441          -4.802706           0.135912          -4.816822
        9.798994           0.132809          -4.749373           0.132351          -4.735494           0.132809          -4.749373
        9.849246           0.129807          -4.683460           0.129360          -4.669807           0.129807          -4.683460
        9.899497           0.126900          -4.619031           0.126465          -4.605593           0.126900          -4.619031
        9.949748           0.124086          -4.556029           0.123662          -4.542808           0.124086          -4.556029
        10.00000           0.121359          -4.494419           0.120946          -4.481413           0.121359          -4.494419
# 
# 03/10/2023 at 10:43 yambo @ unimi-XPS-8930 [start]
# 03/10/2023 at 10:43                        [end]
#
# .-Input file  yambo.in
# | optics                           # [R] Linear Response optical properties
# | bss                              # [R] BSE solver
# | bse                              # [R][BSE] Bethe Salpeter Equation.
# | tddft                            # [R][K] Use TDDFT kernel
# | FFTGvecs=  989             RL    # [FFT] Plane-waves
# | BS_nCPU_LinAlg_INV= 1            # [PARALLEL] CPUs for Linear Algebra (if -1 it is automatically set)
# | BS_nCPU_LinAlg_DIAGO= 1          # [PARALLEL] CPUs for Linear Algebra (if -1 it is automatically set)
# | X_Threads= 1                     # [OPENMP/X] Number of threads for response functions
# | DIP_Threads= 1                   # [OPENMP/X] Number of threads for dipoles
# | K_Threads= 1                     # [OPENMP/BSK] Number of threads for response functions
# | NonPDirs= "YZ"                   # [X/BSS] Non periodic chartesian directions (X,Y,Z,XY...)
# | BSKmod= "ALDA"                   # [BSE] IP/Hartree/HF/ALDA/SEX/BSfxc
# | BSEmod= "retarded"               # [BSE] resonant/retarded/coupling
# | BSSmod= "h"                      # [BSS] (h)aydock/(d)iagonalization/(s)lepc/(i)nversion/(t)ddft`
# | BSENGexx= 107              RL    # [BSK] Exchange components
# | % BSEQptR
# |  1 | 1 |                             # [BSK] Transferred momenta range
# | %
# | % BSEBands
# |   30 |  40 |                         # [BSK] Bands range
# | %
# | % BEnRange
# |   0.00000 | 10.00000 |         eV    # [BSS] Energy range
# | %
# | % BDmRange
# |  0.100000 | 0.100000 |         eV    # [BSS] Damping range
# | %
# | BEnSteps= 200                    # [BSS] Energy steps
# | % BLongDir
# |  0.100000E-4 |  0.00000    |  0.00000    # [BSS] [cc] Electric Field
# | %
# | BSEprop= "abs"                   # [BSS] Can be any among abs/jdos/kerr/magn/dich/photolum/esrt
# | BSEdips= "none"                  # [BSS] Can be "trace/none" or "xy/xz/yz" to define off-diagonal rotation plane
# | BSHayTrs= 0.005000               # [BSS] Relative [o/o] Haydock threshold. Strict(>0)/Average(<0)
