#  __  __   ________   ___ __ __    _______   ______        
# /_/\/_/\ /_______/\ /__//_//_/\ /_______/\ /_____/\       
# \ \ \ \ \\::: _  \ \\::\| \| \ \\::: _  \ \\:::_ \ \      
#  \:\_\ \ \\::(_)  \ \\:.      \ \\::(_)  \/_\:\ \ \ \     
#   \::::_\/ \:: __  \ \\:.\-/\  \ \\::  _  \ \\:\ \ \ \    
#     \::\ \  \:.\ \  \ \\. \  \  \ \\::(_)  \ \\:\_\ \ \   
#      \__\/   \__\/\__\/ \__\/ \__\/ \_______\/ \_____\/   
#                                                           
#               Version 3.3.1 Revision 2093                 
#                http://www.yambo-code.org                  
#
# Absorption @ Q(1) [q->0 direction] :0.1000E-4  0.000     0.000   
#
#
# - Energies      are +AMGB (for 2D systems)(C)+Scissor
# - Wavefunctions are +AMGB (for 2D systems)(C)
#
# - The Green`s function is resonant -
# - Using Shifted Grids -
# - [r,Vnl] *is* included -
#
#   BSK|Identifier              :7426
#      |Dimension               :80
#      |Bands                   :1 - 2
#      |Exchange           [res]: yes
#      |Correlation        [res]: yes
#      |Kernel`s coupling       : no
#      |Exchange           [cpl]: no
#      |W interaction is bare   : no
#      |Correlation        [cpl]: no
#      |ALDA kernel in R-space  : no
#      |RL vectors    [exchange]:113
#      |RL vectors [correlation]:113
#      |E/h energy range    [ev]:-1.000000 - -1.000000
#      |Coupling range     [o/o]: 100.0000 -  100.0000
#    W |Interaction is diagonal : no
#      |Matrix size             :113
#      |Bands                   :1 - 2
#      |e/h energy range    [ev]:-1.000000 - -1.000000
#      |Poles              [o/o]: 100.0000
#      |Rl vectors in the sum   :7659
#      |[r,Vnl] included        : yes
#      |Field direction         :0.1000E-4  0.000000  0.000000
#      |Coulomb Cutoff        :none
#      |xc-Kernel               :none
#   RIM|RL components      [col]:0
#      |Random points      [col]:0
#
#  E/ev[1]    eps /Im[2] eps /Re[3] eps0/Im[4] eps0/Re[5]
#
  0.000000   0.178104   7.090650   0.146256   6.524057
   0.01001    0.17915    7.10850    0.14703    6.53872
   0.02002    0.18021    7.12646    0.14782    6.55345
   0.03003    0.18128    7.14452    0.14861    6.56827
   0.04004    0.18235    7.16268    0.14941    6.58316
   0.05005    0.18344    7.18096    0.15021    6.59814
   0.06006    0.18453    7.19934    0.15102    6.61319
   0.07007    0.18564    7.21784    0.15184    6.62833
   0.08008    0.18675    7.23644    0.15266    6.64354
   0.09009    0.18788    7.25516    0.15349    6.65884
  0.100100   0.189015   7.273987   0.154326   6.674228
  0.110110   0.190161   7.292932   0.155169   6.689695
  0.120120   0.191317   7.311988   0.156020   6.705247
  0.130130   0.192484   7.331162   0.156877   6.720884
  0.140140   0.193662   7.350453   0.157742   6.736606
  0.150150   0.194851   7.369863   0.158613   6.752417
  0.160160   0.196050   7.389390   0.159492   6.768313
  0.170170   0.197261   7.409037   0.160378   6.784298
  0.180180   0.198483   7.428807   0.161272   6.800371
  0.190190   0.199716   7.448697   0.162173   6.816535
  0.200200   0.200961   7.468714   0.163082   6.832789
  0.210210   0.202218   7.488853   0.163998   6.849133
  0.220220   0.203486   7.509120   0.164922   6.865570
  0.230230   0.204767   7.529512   0.165854   6.882099
  0.240240   0.206059   7.550033   0.166794   6.898721
  0.250250   0.207364   7.570683   0.167742   6.915438
  0.260260   0.208682   7.591465   0.168698   6.932249
  0.270270   0.210011   7.612378   0.169662   6.949156
  0.280280   0.211354   7.633424   0.170635   6.966161
  0.290290   0.212710   7.654604   0.171616   6.983262
  0.300300   0.214078   7.675922   0.172605   7.000462
  0.310310   0.215460   7.697376   0.173603   7.017761
  0.320320   0.216856   7.718967   0.174610   7.035161
  0.330330   0.218265   7.740699   0.175625   7.052659
  0.340340   0.219688   7.762571   0.176650   7.070261
  0.350350   0.221124   7.784588   0.177683   7.087965
  0.360360   0.222575   7.806749   0.178725   7.105773
  0.370370   0.224041   7.829053   0.179777   7.123685
  0.380380   0.225520   7.851505   0.180838   7.141703
  0.390390   0.227015   7.874106   0.181908   7.159827
  0.400400   0.228524   7.896854   0.182988   7.178057
  0.410410   0.230049   7.919756   0.184077   7.196397
  0.420420   0.231589   7.942808   0.185176   7.214845
  0.430430   0.233144   7.966017   0.186286   7.233404
  0.440440   0.234716   7.989379   0.187405   7.252072
  0.450450   0.236303   8.012901   0.188534   7.270854
  0.460460   0.237906   8.036580   0.189673   7.289749
  0.470470   0.239526   8.060419   0.190823   7.308759
  0.480480   0.241162   8.084422   0.191984   7.327883
  0.490490   0.242815   8.108589   0.193154   7.347123
  0.500500   0.244485   8.132921   0.194336   7.366481
  0.510511   0.246173   8.157419   0.195529   7.385957
  0.520521   0.247878   8.182087   0.196732   7.405552
  0.530531   0.249601   8.206928   0.197947   7.425269
  0.540541   0.251342   8.231938   0.199173   7.445107
  0.550551   0.253101   8.257124   0.200410   7.465068
  0.560561   0.254879   8.282486   0.201659   7.485153
  0.570571   0.256675   8.308025   0.202920   7.505363
  0.580581   0.258491   8.333746   0.204193   7.525699
  0.590591   0.260326   8.359648   0.205477   7.546161
  0.600601   0.262181   8.385735   0.206774   7.566753
  0.610611   0.264055   8.412004   0.208083   7.587476
  0.620621   0.265950   8.438462   0.209405   7.608330
  0.630631   0.267865   8.465112   0.210739   7.629315
  0.640641   0.269801   8.491952   0.212086   7.650435
  0.650651   0.271758   8.518986   0.213446   7.671689
  0.660661   0.273737   8.546215   0.214819   7.693080
  0.670671   0.275737   8.573643   0.216205   7.714608
  0.680681   0.277759   8.601273   0.217605   7.736275
  0.690691   0.279804   8.629103   0.219018   7.758081
  0.700701   0.281871   8.657139   0.220445   7.780031
  0.710711   0.283962   8.685380   0.221887   7.802122
  0.720721   0.286075   8.713832   0.223342   7.824358
  0.730731   0.288213   8.742496   0.224812   7.846740
  0.740741   0.290374   8.771373   0.226296   7.869269
  0.750751   0.292560   8.800467   0.227795   7.891947
  0.760761   0.294771   8.829779   0.229309   7.914773
  0.770771   0.297007   8.859312   0.230839   7.937754
  0.780781   0.299268   8.889069   0.232383   7.960886
  0.790791   0.301555   8.919052   0.233943   7.984173
  0.800801   0.303869   8.949266   0.235519   8.007617
  0.810811   0.306210   8.979710   0.237111   8.031219
  0.820821   0.308577   9.010388   0.238719   8.054979
  0.830831   0.310973   9.041305   0.240343   8.078901
  0.840841   0.313396   9.072457   0.241984   8.102985
  0.850851   0.315848   9.103856   0.243642   8.127235
  0.860861   0.318328   9.135499   0.245318   8.151649
  0.870871   0.320839   9.167391   0.247010   8.176232
  0.880881   0.323379   9.199533   0.248720   8.200984
  0.890891   0.325949   9.231931   0.250448   8.225908
  0.900901   0.328550   9.264585   0.252193   8.251004
  0.910911   0.331182   9.297500   0.253958   8.276276
  0.920921   0.333846   9.330676   0.255740   8.301723
  0.930931   0.336543   9.364119   0.257542   8.327351
  0.940941   0.339272   9.397834   0.259363   8.353155
  0.950951   0.342035   9.431822   0.261203   8.379145
  0.960961   0.344831   9.466084   0.263062   8.405318
  0.970971   0.347662   9.500627   0.264942   8.431679
  0.980981   0.350528   9.535454   0.266842   8.458226
  0.990991   0.353430   9.570566   0.268762   8.484963
  1.001001   0.356368   9.605970   0.270704   8.511893
  1.011011   0.359343   9.641667   0.272666   8.539019
  1.021021   0.362355   9.677663   0.274650   8.566339
  1.031031   0.365406   9.713958   0.276655   8.593859
  1.041041   0.368495   9.750559   0.278683   8.621580
  1.051051   0.371623   9.787469   0.280732   8.649504
  1.061061   0.374792   9.824691   0.282805   8.677631
  1.071071   0.378001   9.862231   0.284901   8.705967
  1.081081   0.381252   9.900092   0.287020   8.734513
  1.091091   0.384544   9.938278   0.289162   8.763272
  1.101101   0.387880   9.976792   0.291329   8.792244
   1.11111    0.39126   10.01564    0.29352    8.82143
   1.12112    0.39468   10.05483    0.29574    8.85084
   1.13113    0.39815   10.09436    0.29798    8.88047
   1.14114    0.40167   10.13423    0.30024    8.91033
   1.15115    0.40523   10.17446    0.30254    8.94041
   1.16116    0.40884   10.21504    0.30486    8.97072
   1.17117    0.41250   10.25599    0.30720    9.00126
   1.18118    0.41620   10.29730    0.30958    9.03204
   1.19119    0.41996   10.33898    0.31198    9.06306
   1.20120    0.42377   10.38103    0.31440    9.09431
   1.21121    0.42763   10.42347    0.31686    9.12581
   1.22122    0.43154   10.46629    0.31935    9.15756
   1.23123    0.43551   10.50951    0.32186    9.18955
   1.24124    0.43954   10.55312    0.32441    9.22180
   1.25125    0.44361   10.59713    0.32698    9.25430
   1.26126    0.44775   10.64155    0.32959    9.28705
   1.27127    0.45195   10.68638    0.33223    9.32007
   1.28128    0.45620   10.73163    0.33490    9.35336
   1.29129    0.46051   10.77731    0.33760    9.38691
   1.30130    0.46489   10.82342    0.34034    9.42072
   1.31131    0.46933   10.86997    0.34310    9.45482
   1.32132    0.47383   10.91696    0.34591    9.48919
   1.33133    0.47840   10.96440    0.34874    9.52384
   1.34134    0.48303   11.01229    0.35161    9.55877
   1.35135    0.48773   11.06065    0.35452    9.59400
   1.36136    0.49250   11.10947    0.35746    9.62951
   1.37137    0.49735   11.15878    0.36044    9.66532
   1.38138    0.50226   11.20857    0.36346    9.70142
   1.39139    0.50724   11.25884    0.36652    9.73783
   1.40140    0.51231   11.30962    0.36961    9.77454
   1.41141    0.51744   11.36090    0.37274    9.81156
   1.42142    0.52266   11.41269    0.37592    9.84890
   1.43143    0.52795   11.46501    0.37913    9.88655
   1.44144    0.53333   11.51785    0.38239    9.92453
   1.45145    0.53879   11.57123    0.38569    9.96283
   1.46146    0.54433   11.62515    0.38903   10.00146
   1.47147    0.54996   11.67963    0.39241   10.04042
   1.48148    0.55567   11.73467    0.39584   10.07972
   1.49149    0.56148   11.79028    0.39931   10.11937
   1.50150    0.56738   11.84647    0.40283   10.15936
   1.51151    0.57337   11.90325    0.40640   10.19970
   1.52152    0.57945   11.96062    0.41001   10.24040
   1.53153    0.58564   12.01861    0.41368   10.28147
   1.54154    0.59192   12.07721    0.41739   10.32290
   1.55155    0.59831   12.13643    0.42115   10.36469
   1.56156    0.60480   12.19630    0.42496   10.40687
   1.57157    0.61139   12.25681    0.42883   10.44943
   1.58158    0.61810   12.31797    0.43275   10.49237
   1.59159    0.62491   12.37981    0.43672   10.53570
   1.60160    0.63184   12.44232    0.44074   10.57944
   1.61161    0.63889   12.50553    0.44483   10.62357
   1.62162    0.64605   12.56944    0.44897   10.66811
   1.63163    0.65333   12.63406    0.45316   10.71307
   1.64164    0.66074   12.69941    0.45742   10.75844
   1.65165    0.66828   12.76550    0.46174   10.80424
   1.66166    0.67595   12.83234    0.46612   10.85047
   1.67167    0.68374   12.89994    0.47056   10.89714
   1.68168    0.69168   12.96832    0.47506   10.94425
   1.69169    0.69975   13.03749    0.47963   10.99182
   1.70170    0.70797   13.10746    0.48427   11.03984
   1.71171    0.71633   13.17825    0.48897   11.08832
   1.72172    0.72484   13.24988    0.49375   11.13727
   1.73173    0.73350   13.32235    0.49859   11.18670
   1.74174    0.74232   13.39568    0.50350   11.23661
   1.75175    0.75130   13.46989    0.50849   11.28702
   1.76176    0.76045   13.54500    0.51355   11.33792
   1.77177    0.76976   13.62101    0.51869   11.38933
   1.78178    0.77925   13.69796    0.52391   11.44125
   1.79179    0.78891   13.77584    0.52920   11.49369
   1.80180    0.79875   13.85469    0.53458   11.54666
   1.81181    0.80878   13.93452    0.54003   11.60016
   1.82182    0.81900   14.01534    0.54557   11.65421
   1.83183    0.82941   14.09718    0.55120   11.70882
   1.84184    0.84003   14.18005    0.55692   11.76398
   1.85185    0.85084   14.26399    0.56272   11.81972
   1.86186    0.86187   14.34899    0.56861   11.87603
   1.87187    0.87312   14.43509    0.57460   11.93293
   1.88188    0.88459   14.52231    0.58069   11.99043
   1.89189    0.89628   14.61067    0.58687   12.04854
   1.90190    0.90821   14.70019    0.59315   12.10726
   1.91191    0.92038   14.79090    0.59953   12.16661
   1.92192    0.93280   14.88281    0.60601   12.22660
   1.93193    0.94547   14.97595    0.61260   12.28724
   1.94194    0.95839   15.07036    0.61930   12.34853
   1.95195    0.97159   15.16604    0.62611   12.41048
   1.96196    0.98506   15.26304    0.63303   12.47312
   1.97197    0.99882   15.36137    0.64007   12.53645
   1.98198    1.01286   15.46106    0.64722   12.60048
   1.99199    1.02720   15.56215    0.65450   12.66522
   2.00200    1.04185   15.66466    0.66189   12.73069
   2.01201    1.05682   15.76862    0.66942   12.79689
   2.02202    1.07211   15.87407    0.67707   12.86385
   2.03203    1.08773   15.98102    0.68486   12.93156
   2.04204    1.10370   16.08953    0.69278   13.00006
   2.05205    1.12003   16.19962    0.70084   13.06934
   2.06206    1.13672   16.31132    0.70904   13.13942
   2.07207    1.15378   16.42467    0.71738   13.21032
   2.08208    1.17123   16.53972    0.72588   13.28205
   2.09209    1.18909   16.65649    0.73452   13.35463
   2.10210    1.20735   16.77502    0.74332   13.42807
   2.11211    1.22604   16.89536    0.75228   13.50239
   2.12212    1.24517   17.01756    0.76140   13.57759
   2.13213    1.26475   17.14163    0.77069   13.65371
   2.14214    1.28479   17.26764    0.78015   13.73075
   2.15215    1.30531   17.39563    0.78979   13.80873
   2.16216    1.32633   17.52565    0.79960   13.88767
   2.17217    1.34787   17.65774    0.80960   13.96758
   2.18218    1.36993   17.79196    0.81979   14.04849
   2.19219    1.39254   17.92834    0.83017   14.13042
   2.20220    1.41571   18.06696    0.84075   14.21337
   2.21221    1.43947   18.20786    0.85153   14.29738
   2.22222    1.46383   18.35111    0.86252   14.38246
   2.23223    1.48881   18.49675    0.87372   14.46863
   2.24224    1.51444   18.64485    0.88515   14.55591
   2.25225    1.54074   18.79547    0.89680   14.64433
   2.26226    1.56773   18.94868    0.90868   14.73391
   2.27227    1.59543   19.10453    0.92080   14.82467
   2.28228    1.62388   19.26312    0.93316   14.91663
   2.29229    1.65310   19.42449    0.94578   15.00982
   2.30230    1.68310   19.58874    0.95865   15.10426
   2.31231    1.71394   19.75592    0.97178   15.19998
   2.32232    1.74563   19.92613    0.98519   15.29700
   2.33233    1.77821   20.09945    0.99887   15.39535
   2.34234    1.81171   20.27595    1.01285   15.49506
   2.35235    1.84616   20.45575    1.02712   15.59615
   2.36236    1.88161   20.63890    1.04169   15.69866
   2.37237    1.91808   20.82553    1.05657   15.80262
   2.38238    1.95563   21.01571    1.07178   15.90804
   2.39239    1.99429   21.20956    1.08731   16.01498
   2.40240    2.03411   21.40719    1.10318   16.12346
   2.41241    2.07514   21.60870    1.11941   16.23351
   2.42242    2.11741   21.81421    1.13599   16.34516
   2.43243    2.16100   22.02383    1.15295   16.45845
   2.44244    2.20594   22.23770    1.17029   16.57343
   2.45245    2.25230   22.45594    1.18802   16.69012
   2.46246    2.30013   22.67868    1.20616   16.80856
   2.47247    2.34950   22.90607    1.22471   16.92880
   2.48248    2.40048   23.13824    1.24370   17.05087
   2.49249    2.45314   23.37535    1.26313   17.17482
   2.50250    2.50754   23.61756    1.28302   17.30068
   2.51251    2.56377   23.86504    1.30338   17.42851
   2.52252    2.62192   24.11794    1.32423   17.55836
   2.53253    2.68206   24.37647    1.34559   17.69026
   2.54254    2.74430   24.64078    1.36746   17.82427
   2.55255    2.80872   24.91110    1.38987   17.96044
   2.56256    2.87543   25.18760    1.41284   18.09881
   2.57257    2.94455   25.47053    1.43638   18.23945
   2.58258    3.01619   25.76008    1.46051   18.38241
   2.59259    3.09046   26.05650    1.48526   18.52774
   2.60260    3.16751   26.36002    1.51063   18.67552
   2.61261    3.24747   26.67091    1.53667   18.82579
   2.62262    3.33050   26.98944    1.56338   18.97862
   2.63263    3.41673   27.31587    1.59079   19.13408
   2.64264    3.50636   27.65051    1.61893   19.29224
   2.65265    3.59955   27.99366    1.64782   19.45316
   2.66266    3.69649   28.34564    1.67749   19.61691
   2.67267    3.79739   28.70680    1.70796   19.78358
   2.68268    3.90247   29.07748    1.73928   19.95324
   2.69269    4.01195   29.45807    1.77146   20.12597
   2.70270    4.12609   29.84896    1.80454   20.30186
   2.71271    4.24515   30.25056    1.83855   20.48098
   2.72272    4.36943   30.66331    1.87354   20.66343
   2.73273    4.49921   31.08766    1.90953   20.84931
   2.74274    4.63484   31.52412    1.94656   21.03871
   2.75275    4.77667   31.97316    1.98468   21.23173
   2.76276    4.92508   32.43536    2.02393   21.42847
   2.77277    5.08047   32.91125    2.06435   21.62904
   2.78278    5.24330   33.40147    2.10599   21.83355
   2.79279    5.41403   33.90663    2.14890   22.04212
   2.80280    5.59319   34.42741    2.19314   22.25488
   2.81281    5.78133   34.96450    2.23874   22.47194
   2.82282    5.97906   35.51869    2.28579   22.69343
   2.83283    6.18704   36.09076    2.33433   22.91950
   2.84284    6.40597   36.68153    2.38442   23.15027
   2.85285    6.63664   37.29195    2.43615   23.38591
   2.86286    6.87989   37.92291    2.48956   23.62657
   2.87287    7.13664   38.57547    2.54475   23.87239
   2.88288    7.40789   39.25064    2.60179   24.12356
   2.89289    7.69475   39.94963    2.66077   24.38024
   2.90290    7.99841   40.67362    2.72176   24.64261
   2.91291    8.32021   41.42388    2.78487   24.91087
   2.92292    8.66158   42.20179    2.85019   25.18520
   2.93293    9.02413   43.00883    2.91783   25.46583
   2.94294    9.40962   43.84650    2.98790   25.75295
   2.95295    9.81999   44.71650    3.06051   26.04681
   2.96296   10.25738   45.62054    3.13579   26.34762
   2.97297   10.72419   46.56052    3.21387   26.65564
   2.98298   11.22304   47.53840    3.29489   26.97113
   2.99299   11.75689   48.55634    3.37900   27.29436
   3.00300   12.32899   49.61650    3.46636   27.62560
   3.01301   12.94303   50.72134    3.55714   27.96515
   3.02302   13.60307   51.87331    3.65150   28.31334
   3.03303   14.31372   53.07512    3.74966   28.67048
   3.04304   15.08012   54.32951    3.85181   29.03691
   3.05305   15.90808   55.63950    3.95817   29.41299
   3.06306   16.80415   57.00808    4.06897   29.79911
   3.07307   17.77575   58.43849    4.18446   30.19566
   3.08308   18.83125   59.93396    4.30491   30.60305
   3.09309   19.98020   61.49784    4.43060   31.02173
   3.10310   21.23351   63.13353    4.56184   31.45217
   3.11311   22.60354   64.84421    4.69897   31.89483
   3.12312   24.10450   66.63301    4.84233   32.35027
   3.13313   25.75259   68.50266    4.99230   32.81900
   3.14314   27.56655   70.45545    5.14930   33.30160
   3.15315   29.56774   72.49277    5.31376   33.79867
   3.16316   31.78097   74.61497    5.48617   34.31087
   3.17317   34.23458   76.82057    5.66704   34.83885
   3.18318   36.96146   79.10593    5.85692   35.38335
   3.19319   39.99927   81.46396    6.05642   35.94511
   3.20320   43.39154   83.88329    6.26619   36.52494
   3.21321   47.18784   86.34631    6.48695   37.12368
   3.22322   51.44493   88.82720    6.71946   37.74226
   3.23323   56.22653   91.28899    6.96456   38.38160
   3.24324   61.60399   93.68000    7.22318   39.04274
   3.25325   67.65462   95.92880    7.49630   39.72674
   3.26326   74.46050   97.93855    7.78502   40.43476
   3.27327   82.10323   99.57961    8.09053   41.16800
    3.2833    90.6575   100.6815     8.4141    41.9278
    3.2933   100.1775   101.0244     8.7573    42.7154
    3.3033   110.6800   100.3328     9.1216    43.5325
    3.3133   122.1156    98.2732     9.5087    44.3804
    3.3233   134.3359    94.4634     9.9206    45.2609
    3.3333   147.0517    88.4988    10.3594    46.1758
    3.3433   159.7978    80.0049    10.8275    47.1268
    3.3534   171.9162    68.7186    11.3274    48.1161
    3.3634   182.5809    54.5935    11.8620    49.1458
    3.3734   190.8898    37.8986    12.4346    50.2180
    3.3834   196.0166    19.2717    13.0488    51.3352
    3.3934   197.3956    -0.3235    13.7085    52.4999
    3.4034   194.8674   -19.7428    14.4183    53.7148
    3.4134   188.7242   -37.8748    15.1832    54.9827
    3.4234   179.6279   -53.8441    16.0089    56.3067
    3.4334   168.4471   -67.1238    16.9019    57.6898
    3.4434   156.0746   -77.5480    17.8693    59.1352
    3.4535   143.2923   -85.2395    18.9192    60.6464
    3.4635   130.7002   -90.5056    20.0612    62.2267
    3.4735   118.7080   -93.7370    21.3056    63.8797
    3.4835   107.5582   -95.3355    22.6646    65.6087
   3.49349   97.36596  -95.67072   24.15193   67.41693
   3.50350   88.15652  -95.05882   25.78340   69.30768
   3.51351   79.90020  -93.75813   27.57709   71.28343
   3.52352   72.53484  -91.97275   29.55377   73.34613
   3.53353   65.98309  -89.86006   31.73727   75.49662
   3.54354   60.16200  -87.53883   34.15532   77.73455
   3.55355   54.99105  -85.09759   36.83958   80.05721
   3.56356   50.39454  -82.60117   39.82662   82.45917
   3.57357   46.30368  -80.09644   43.15839   84.93080
   3.58358   42.65657  -77.61642   46.88344   87.45746
   3.59359   39.39897  -75.18421   51.05682   90.01670
   3.60360   36.48335  -72.81540   55.74091   92.57613
   3.61361   33.86795  -70.51962   61.00624   95.09027
   3.62362   31.51684  -68.30284   66.93001   97.49557
   3.63363   29.39870  -66.16786   73.59534   99.70525
    3.6436    27.4865   -64.1155    81.0875   101.6023
    3.6537    25.7566   -62.1449    89.4893   103.0317
    3.6637    24.1887   -60.2542    98.8689   103.7913
    3.6737    22.7650   -58.4409   109.2655   103.6240
    3.6837    21.4703   -56.7021   120.6647   102.2128
    3.6937    20.2911   -55.0342   132.9682    99.1838
    3.7037    19.2159   -53.4340   145.9520    94.1236
    3.7137    18.2344   -51.8980   159.2261    86.6198
    3.7237    17.3380   -50.4227   172.2043    76.3317
    3.7337    16.5189   -49.0046   184.1086    63.0869
    3.7437    15.7704   -47.6404   194.0251    46.9952
    3.7538    15.0868   -46.3269   201.0352    28.5306
    3.7638    14.4631   -45.0611   204.3979     8.5421
    3.7738    13.8950   -43.8400   203.7301   -11.8512
    3.7838    13.3789   -42.6609   199.1096   -31.4509
    3.7938    12.9116   -41.5211   191.0546   -49.2081
    3.8038    12.4909   -40.4182   180.3865   -64.3921
    3.8138    12.1145   -39.3499   168.0397   -76.6557
    3.8238    11.7812   -38.3141   154.8944   -85.9932
    3.8338    11.4900   -37.3091   141.6694   -92.6442
    3.8438    11.2403   -36.3333   128.8846   -96.9829
    3.8539    11.0322   -35.3853   116.8698   -99.4287
    3.8639    10.8662   -34.4642   105.8036  -100.3847
    3.8739    10.7435   -33.5696    95.7533  -100.2072
   3.88388   10.66564  -32.70157   86.71147  -99.19325
   3.89389   10.63473  -31.86093   78.62763  -97.58099
   3.90390   10.65345  -31.04947   71.42731  -95.55606
   3.91391   10.72489  -30.27023   65.02664  -93.26017
   3.92392   10.85244  -29.52766   59.33986  -90.79925
   3.93393   11.03950  -28.82828   54.28582  -88.25178
   3.94394   11.28899  -28.18092   49.78947  -85.67473
   3.95395   11.60262  -27.59731   45.78339  -83.10902
   3.96396   11.97981  -27.09222   42.20721  -80.58309
   3.97397   12.41603  -26.68361   39.00836  -78.11661
   3.98398   12.90090  -26.39185   36.14075  -75.72246
   3.99399   13.41597  -26.23801   33.56439  -73.40869
   4.00400   13.93295  -26.24059   31.24428  -71.17947
   4.01401   14.41320  -26.41076   29.15036  -69.03669
   4.02402   14.80997  -26.74658   27.25647  -66.98029
   4.03403   15.07416  -27.22797   25.53999  -65.00895
   4.04404   15.16337  -27.81506   23.98113  -63.12029
   4.05405   15.05155  -28.45178   22.56287  -61.31153
   4.06406   14.73594  -29.07510   21.27036  -59.57946
   4.07407   14.23770  -29.62676   20.09072  -57.92073
   4.08408   13.59606  -30.06336   19.01262  -56.33171
   4.09409   12.85889  -30.36106   18.02631  -54.80893
   4.10410   12.07330  -30.51491   17.12332  -53.34904
   4.11411   11.27896  -30.53423   16.29616  -51.94855
   4.12412   10.50552  -30.43683   15.53845  -50.60434
   4.13413    9.77245  -30.24397   14.84463  -49.31338
   4.14414    9.09074  -29.97677   14.20998  -48.07288
   4.15415    8.46496  -29.65423   13.63037  -46.88014
   4.16416    7.89545  -29.29235   13.10242  -45.73283
   4.17417    7.37989  -28.90404   12.62332  -44.62889
   4.18418    6.91448  -28.49941   12.19080  -43.56659
   4.19419    6.49475  -28.08611   11.80308  -42.54448
   4.20420    6.11611  -27.66987   11.45886  -41.56168
   4.21421    5.77412  -27.25490   11.15723  -40.61785
   4.22422    5.46467  -26.84420   10.89760  -39.71333
   4.23423    5.18398  -26.43987   10.67953  -38.84921
   4.24424    4.92873  -26.04335   10.50259  -38.02765
   4.25425    4.69596  -25.65557   10.36600  -37.25194
   4.26426    4.48309  -25.27711   10.26821  -36.52662
   4.27427    4.28785  -24.90823   10.20626  -35.85742
   4.28428    4.10828  -24.54904   10.17505  -35.25106
   4.29429    3.94264  -24.19950   10.16650  -34.71450
   4.30430    3.78946  -23.85949   10.16887  -34.25372
   4.31431    3.64741  -23.52876   10.16666  -33.87178
   4.32432    3.51537  -23.20707   10.14148  -33.56680
   4.33433    3.39233  -22.89414   10.07433  -33.33006
   4.34434    3.27742  -22.58968    9.94902  -33.14542
   4.35435    3.16988  -22.29336    9.75577  -32.99093
   4.36436    3.06903  -22.00489    9.49366  -32.84236
   4.37437    2.97427  -21.72395    9.17073  -32.67759
   4.38438    2.88507  -21.45025    8.80158  -32.48025
   4.39439    2.80098  -21.18349    8.40384  -32.24145
   4.40440    2.72158  -20.92340    7.99466  -31.95927
   4.41441    2.64649  -20.66971    7.58838  -31.63706
   4.42442    2.57540  -20.42213    7.19548  -31.28118
   4.43443    2.50800  -20.18044    6.82274  -30.89925
   4.44444    2.44404  -19.94439    6.47382  -30.49877
   4.45445    2.38328  -19.71377    6.15007  -30.08644
   4.46446    2.32551  -19.48835    5.85126  -29.66781
   4.47447    2.27055  -19.26790    5.57628  -29.24733
   4.48448    2.21822  -19.05225    5.32346  -28.82841
   4.49449    2.16838  -18.84121    5.09095  -28.41359
   4.50450    2.12089  -18.63458    4.87683  -28.00467
   4.51451    2.07564  -18.43219    4.67929  -27.60293
   4.52452    2.03252  -18.23389    4.49664  -27.20924
   4.53453    1.99144  -18.03952    4.32734  -26.82412
   4.54454    1.95233  -17.84892    4.17000  -26.44785
   4.55455    1.91511  -17.66193    4.02341  -26.08057
   4.56456    1.87973  -17.47844    3.88648  -25.72227
   4.57457    1.84615  -17.29832    3.75828  -25.37287
   4.58458    1.81435  -17.12141    3.63795  -25.03219
   4.59459    1.78429  -16.94762    3.52476  -24.70004
   4.60460    1.75599  -16.77683    3.41806  -24.37620
   4.61461    1.72944  -16.60895    3.31729  -24.06043
   4.62462    1.70468  -16.44386    3.22192  -23.75246
   4.63463    1.68175  -16.28150    3.13153  -23.45204
   4.64464    1.66070  -16.12178    3.04571  -23.15893
   4.65465    1.64161  -15.96466    2.96411  -22.87286
   4.66466    1.62458  -15.81009    2.88641  -22.59357
   4.67467    1.60974  -15.65808    2.81232  -22.32085
   4.68468    1.59723  -15.50865    2.74161  -22.05446
   4.69469    1.58723  -15.36186    2.67403  -21.79416
   4.70470    1.57993  -15.21784    2.60938  -21.53974
   4.71471    1.57553  -15.07680    2.54748  -21.29099
   4.72472    1.57425  -14.93903    2.48816  -21.04774
   4.73473    1.57630  -14.80495    2.43127  -20.80975
   4.74474    1.58184  -14.67511    2.37667  -20.57687
   4.75475    1.59091  -14.55023    2.32422  -20.34890
   4.76476    1.60342  -14.43122    2.27383  -20.12570
   4.77477    1.61898  -14.31912    2.22539  -19.90709
   4.78478    1.63682  -14.21509    2.17879  -19.69291
   4.79479    1.65569  -14.12025    2.13396  -19.48302
   4.80480    1.67373  -14.03544    2.09081  -19.27728
   4.81481    1.68858  -13.96095    2.04928  -19.07555
   4.82482    1.69756  -13.89621    2.00931  -18.87769
   4.83483    1.69805  -13.83954    1.97083  -18.68358
   4.84484    1.68812  -13.78825    1.93380  -18.49311
   4.85485    1.66692  -13.73896    1.89818  -18.30614
   4.86486    1.63499  -13.68822    1.86393  -18.12257
   4.87487    1.59404  -13.63317    1.83101  -17.94230
   4.88488    1.54654  -13.57190    1.79941  -17.76521
   4.89489    1.49518  -13.50362    1.76911  -17.59122
   4.90490    1.44240  -13.42847    1.74011  -17.42022
   4.91491    1.39012  -13.34724    1.71239  -17.25216
   4.92492    1.33970  -13.26100    1.68598  -17.08691
   4.93493    1.29197  -13.17095    1.66088  -16.92444
   4.94494    1.24735  -13.07817    1.63712  -16.76467
   4.95495    1.20597  -12.98364    1.61475  -16.60755
   4.96496    1.16775  -12.88814    1.59382  -16.45304
   4.97497    1.13254  -12.79229    1.57438  -16.30114
   4.98498    1.10008  -12.69658    1.55652  -16.15183
   4.99499    1.07014  -12.60135    1.54032  -16.00517
   5.00500    1.04246  -12.50687    1.52587  -15.86122
   5.01501    1.01681  -12.41331    1.51327  -15.72010
   5.02502    0.99295  -12.32082    1.50262  -15.58201
   5.03503    0.97071  -12.22948    1.49397  -15.44720
   5.04504    0.94990  -12.13933    1.48735  -15.31599
   5.05505    0.93037  -12.05040    1.48267  -15.18884
   5.06506    0.91198  -11.96273    1.47972  -15.06624
   5.07507    0.89462  -11.87629    1.47809  -14.94873
   5.08508    0.87819  -11.79107    1.47713  -14.83684
   5.09509    0.86260  -11.70708    1.47587  -14.73094
   5.10510    0.84776  -11.62427    1.47312  -14.63112
   5.11511    0.83362  -11.54264    1.46753  -14.53701
   5.12512    0.82010  -11.46214    1.45784  -14.44771
   5.13514    0.80717  -11.38277    1.44312  -14.36181
   5.14514    0.79476  -11.30448    1.42302  -14.27760
   5.15515    0.78285  -11.22726    1.39787  -14.19339
   5.16516    0.77140  -11.15107    1.36856  -14.10775
   5.17518    0.76038  -11.07589    1.33634  -14.01982
   5.18518    0.74975  -11.00170    1.30253  -13.92922
   5.19519    0.73950  -10.92846    1.26831  -13.83606
   5.20520    0.72961  -10.85615    1.23459  -13.74072
   5.21522    0.72004  -10.78474    1.20201  -13.64374
   5.22522    0.71080  -10.71422    1.17095  -13.54569
   5.23523    0.70186  -10.64456    1.14160  -13.44709
   5.24524    0.69321  -10.57573    1.11400  -13.34838
   5.25526    0.68484  -10.50772    1.08811  -13.24995
   5.26526    0.67674  -10.44050    1.06383  -13.15207
   5.27527    0.66890  -10.37406    1.04105  -13.05495
   5.28528    0.66132  -10.30836    1.01963  -12.95876
   5.29530    0.65399  -10.24339    0.99945  -12.86361
   5.30531    0.64690  -10.17914    0.98038  -12.76957
   5.31531    0.64006  -10.11559    0.96232  -12.67669
   5.32533    0.63346  -10.05270    0.94517  -12.58500
   5.33534    0.62711   -9.99047    0.92884  -12.49450
   5.34535    0.62100   -9.92889    0.91324  -12.40522
   5.35536    0.61514   -9.86792    0.89832  -12.31713
   5.36537    0.60953   -9.80755    0.88402  -12.23023
   5.37538    0.60419   -9.74777    0.87027  -12.14450
   5.38539    0.59911   -9.68857    0.85703  -12.05992
   5.39540    0.59432   -9.62993    0.84427  -11.97647
   5.40541    0.58983   -9.57183    0.83194  -11.89413
   5.41541    0.58566   -9.51426    0.82002  -11.81288
   5.42543    0.58182   -9.45721    0.80848  -11.73270
   5.43544    0.57834   -9.40067    0.79728  -11.65356
   5.44545    0.57526   -9.34463    0.78642  -11.57543
   5.45545    0.57261   -9.28910    0.77587  -11.49831
   5.46547    0.57042   -9.23408    0.76561  -11.42217
   5.47548    0.56876   -9.17958    0.75563  -11.34698
   5.48549    0.56767   -9.12561    0.74591  -11.27272
   5.49549    0.56722   -9.07222    0.73644  -11.19938
   5.50551    0.56748   -9.01943    0.72721  -11.12694
   5.51552    0.56852   -8.96734    0.71821  -11.05537
   5.52553    0.57041   -8.91604    0.70943  -10.98466
   5.53553    0.57325   -8.86566    0.70086  -10.91479
   5.54555    0.57709   -8.81637    0.69250  -10.84574
   5.55556    0.58196   -8.76842    0.68433  -10.77749
   5.56557    0.58787   -8.72208    0.67635  -10.71003
   5.57558    0.59471   -8.67770    0.66856  -10.64335
   5.58559    0.60231   -8.63565    0.66095  -10.57742
   5.59560    0.61029   -8.59632    0.65351  -10.51223
   5.60561    0.61813   -8.56003    0.64625  -10.44776
   5.61562    0.62511   -8.52696    0.63915  -10.38401
   5.62563    0.63038   -8.49703    0.63222  -10.32095
   5.63564    0.63305   -8.46981    0.62546  -10.25858
   5.64565    0.63240   -8.44455    0.61887  -10.19687
   5.65566    0.62803   -8.42019    0.61243  -10.13582
   5.66567    0.61998   -8.39559    0.60617  -10.07541
   5.67568    0.60868   -8.36974    0.60006  -10.01563
  5.685685   0.594898  -8.341904   0.594129  -9.956465
  5.695695   0.579504  -8.311719   0.588365  -9.897910
  5.705706   0.563340  -8.279143   0.582776  -9.839949
  5.715715   0.547099  -8.244382   0.577368  -9.782572
  5.725725   0.531290  -8.207771   0.572148  -9.725777
  5.735735   0.516237  -8.169700   0.567124  -9.669545
  5.745746   0.502122  -8.130546   0.562306  -9.613877
  5.755755   0.489015  -8.090647   0.557708  -9.558765
  5.765765   0.476914  -8.050281   0.553343  -9.504214
  5.775775   0.465774  -8.009673   0.549229  -9.450219
  5.785786   0.455524  -7.969000   0.545384  -9.396790
  5.795795   0.446085  -7.928394   0.541830  -9.343939
  5.805805   0.437377  -7.887955   0.538590  -9.291686
  5.815815   0.429319  -7.847748   0.535686  -9.240063
  5.825826   0.421842  -7.807828   0.533138  -9.189113
  5.835836   0.414879  -7.768229   0.530961  -9.138894
  5.845845   0.408372  -7.728978   0.529157  -9.089483
  5.855855   0.402271  -7.690085   0.527712  -9.040971
  5.865866   0.396530  -7.651563   0.526576  -8.993465
  5.875876   0.391111  -7.613410   0.525662  -8.947082
  5.885885   0.385980  -7.575633   0.524828  -8.901926
  5.895895   0.381108  -7.538221   0.523874  -8.858070
  5.905906   0.376469  -7.501179   0.522550  -8.815516
  5.915915   0.372040  -7.464497   0.520582  -8.774185
  5.925926   0.367803  -7.428166   0.517722  -8.733869
  5.935935   0.363741  -7.392186   0.513798  -8.694275
  5.945946   0.359839  -7.356544   0.508761  -8.655052
  5.955956   0.356085  -7.321239   0.502700  -8.615861
  5.965966   0.352468  -7.286259   0.495813  -8.576430
  5.975976   0.348977  -7.251598   0.488359  -8.536597
  5.985986   0.345604  -7.217249   0.480607  -8.496308
  5.995996   0.342343  -7.183206   0.472790  -8.455596
  6.006006   0.339186  -7.149461   0.465087  -8.414544
  6.016016   0.336128  -7.116005   0.457620  -8.373266
  6.026026   0.333165  -7.082834   0.450461  -8.331878
  6.036036   0.330293  -7.049941   0.443643  -8.290486
  6.046046   0.327507  -7.017320   0.437172  -8.249180
  6.056056   0.324805  -6.984964   0.431039  -8.208031
  6.066066   0.322185  -6.952866   0.425224  -8.167096
  6.076076   0.319646  -6.921022   0.419703  -8.126420
  6.086086   0.317185  -6.889424   0.414449  -8.086030
  6.096096   0.314803  -6.858068   0.409438  -8.045950
  6.106106   0.312498  -6.826948   0.404646  -8.006192
  6.116116   0.310272  -6.796058   0.400051  -7.966771
  6.126126   0.308125  -6.765392   0.395635  -7.927690
  6.136136   0.306058  -6.734942   0.391380  -7.888947
  6.146146   0.304074  -6.704707   0.387271  -7.850549
  6.156156   0.302176  -6.674681   0.383295  -7.812491
  6.166166   0.300365  -6.644855   0.379440  -7.774773
  6.176176   0.298648  -6.615228   0.375696  -7.737389
  6.186186   0.297029  -6.585793   0.372055  -7.700338
  6.196196   0.295514  -6.556548   0.368508  -7.663613
  6.206206   0.294111  -6.527483   0.365048  -7.627212
  6.216216   0.292829  -6.498600   0.361671  -7.591126
  6.226226   0.291677  -6.469893   0.358370  -7.555359
  6.236236   0.290668  -6.441360   0.355141  -7.519897
  6.246246   0.289817  -6.412998   0.351980  -7.484740
  6.256256   0.289139  -6.384810   0.348883  -7.449883
  6.266266   0.288654  -6.356800   0.345848  -7.415323
  6.276276   0.288385  -6.328967   0.342870  -7.381050
  6.286286   0.288356  -6.301324   0.339948  -7.347065
  6.296296   0.288597  -6.273883   0.337080  -7.313361
  6.306306   0.289139  -6.246671   0.334262  -7.279936
  6.316316   0.290019  -6.219712   0.331495  -7.246781
  6.326326   0.291273  -6.193047   0.328775  -7.213898
  6.336336   0.292940  -6.166736   0.326102  -7.181278
  6.346346   0.295054  -6.140857   0.323474  -7.148921
  6.356356   0.297641  -6.115501   0.320890  -7.116821
  6.366366   0.300710  -6.090800   0.318349  -7.084973
  6.376376   0.304241  -6.066899   0.315851  -7.053375
  6.386386   0.308168  -6.043977   0.313394  -7.022025
  6.396396   0.312363  -6.022219   0.310979  -6.990915
  6.406406   0.316613  -6.001801   0.308605  -6.960045
  6.416416   0.320619  -5.982852   0.306271  -6.929411
  6.426426   0.324000  -5.965395   0.303978  -6.899008
  6.436436   0.326335  -5.949323   0.301725  -6.868834
  6.446446   0.327230  -5.934343   0.299513  -6.838885
  6.456456   0.326410  -5.920022   0.297342  -6.809159
  6.466466   0.323781  -5.905818   0.295213  -6.779651
  6.476476   0.319464  -5.891212   0.293127  -6.750359
  6.486486   0.313757  -5.875778   0.291084  -6.721280
  6.496496   0.307059  -5.859257   0.289086  -6.692411
  6.506506   0.299791  -5.841552   0.287136  -6.663750
  6.516516   0.292321  -5.822713   0.285235  -6.635293
  6.526526   0.284939  -5.802879   0.283385  -6.607040
  6.536536   0.277842  -5.782224   0.281589  -6.578988
  6.546546   0.271148  -5.760935   0.279852  -6.551134
  6.556556   0.264915  -5.739191   0.278177  -6.523479
  6.566566   0.259158  -5.717131   0.276570  -6.496023
  6.576576   0.253865  -5.694885   0.275035  -6.468767
  6.586586   0.249006  -5.672543   0.273580  -6.441711
  6.596596   0.244546  -5.650179   0.272210  -6.414863
  6.606606   0.240446  -5.627851   0.270935  -6.388227
  6.616616   0.236669  -5.605597   0.269760  -6.361816
  6.626626   0.233178  -5.583450   0.268693  -6.335640
  6.636636   0.229941  -5.561427   0.267740  -6.309718
  6.646646   0.226928  -5.539545   0.266902  -6.284074
  6.656656   0.224114  -5.517813   0.266175  -6.258739
  6.666667   0.221476  -5.496236   0.265548  -6.233743
  6.676676   0.218995  -5.474819   0.264993  -6.209126
  6.686686   0.216653  -5.453564   0.264470  -6.184924
  6.696696   0.214436  -5.432467   0.263918  -6.161160
  6.706707   0.212330  -5.411531   0.263258  -6.137841
  6.716716   0.210325  -5.390755   0.262405  -6.114947
  6.726726   0.208410  -5.370133   0.261276  -6.092421
  6.736736   0.206578  -5.349663   0.259811  -6.070170
  6.746747   0.204821  -5.329345   0.257987  -6.048088
  6.756756   0.203133  -5.309173   0.255825  -6.026060
  6.766766   0.201508  -5.289147   0.253383  -6.003998
  6.776776   0.199941  -5.269263   0.250742  -5.981842
  6.786787   0.198429  -5.249516   0.247989  -5.959569
  6.796797   0.196968  -5.229906   0.245201  -5.937187
  6.806807   0.195555  -5.210429   0.242439  -5.914718
  6.816816   0.194186  -5.191079   0.239746  -5.892201
  6.826826   0.192861  -5.171858   0.237146  -5.869672
  6.836837   0.191577  -5.152759   0.234653  -5.847164
  6.846847   0.190332  -5.133783   0.232270  -5.824709
  6.856857   0.189125  -5.114924   0.229994  -5.802331
  6.866867   0.187956  -5.096182   0.227820  -5.780048
  6.876876   0.186823  -5.077553   0.225740  -5.757876
  6.886887   0.185726  -5.059034   0.223747  -5.735823
  6.896896   0.184665  -5.040624   0.221831  -5.713900
  6.906906   0.183640  -5.022318   0.219987  -5.692110
  6.916917   0.182651  -5.004116   0.218205  -5.670455
  6.926927   0.181700  -4.986015   0.216482  -5.648940
  6.936936   0.180785  -4.968009   0.214810  -5.627565
  6.946947   0.179911  -4.950101   0.213185  -5.606328
  6.956956   0.179076  -4.932286   0.211603  -5.585234
  6.966967   0.178284  -4.914561   0.210060  -5.564276
  6.976976   0.177538  -4.896925   0.208553  -5.543458
  6.986986   0.176839  -4.879375   0.207079  -5.522777
  6.996997   0.176191  -4.861907   0.205636  -5.502230
  7.007007   0.175599  -4.844525   0.204221  -5.481819
  7.017016   0.175067  -4.827222   0.202832  -5.461540
  7.027027   0.174600  -4.809996   0.201468  -5.441391
  7.037036   0.174206  -4.792850   0.200127  -5.421374
  7.047047   0.173892  -4.775780   0.198809  -5.401483
  7.057057   0.173666  -4.758787   0.197512  -5.381719
  7.067067   0.173539  -4.741872   0.196234  -5.362081
  7.077077   0.173523  -4.725036   0.194976  -5.342566
  7.087087   0.173632  -4.708289   0.193736  -5.323174
  7.097096   0.173881  -4.691631   0.192513  -5.303903
  7.107107   0.174287  -4.675076   0.191308  -5.284749
  7.117116   0.174870  -4.658639   0.190119  -5.265716
  7.127127   0.175651  -4.642337   0.188946  -5.246797
  7.137137   0.176652  -4.626205   0.187788  -5.227995
  7.147147   0.177893  -4.610272   0.186647  -5.209307
  7.157157   0.179394  -4.594591   0.185519  -5.190731
  7.167167   0.181165  -4.579226   0.184407  -5.172266
  7.177176   0.183204  -4.564258   0.183309  -5.153912
  7.187187   0.185490  -4.549771   0.182226  -5.135665
  7.197196   0.187969  -4.535882   0.181157  -5.117527
  7.207206   0.190548  -4.522687   0.180102  -5.099496
  7.217217   0.193083  -4.510283   0.179061  -5.081568
  7.227227   0.195379  -4.498717   0.178035  -5.063745
  7.237237   0.197204  -4.487973   0.177023  -5.046025
  7.247247   0.198320  -4.477942   0.176026  -5.028407
  7.257257   0.198527  -4.468416   0.175043  -5.010889
  7.267267   0.197712  -4.459111   0.174075  -4.993469
  7.277277   0.195878  -4.449724   0.173123  -4.976149
  7.287287   0.193146  -4.439970   0.172188  -4.958925
  7.297297   0.189719  -4.429647   0.171268  -4.941798
  7.307307   0.185835  -4.418659   0.170366  -4.924766
  7.317317   0.181725  -4.406987   0.169483  -4.907827
  7.327327   0.177580  -4.394688   0.168618  -4.890983
  7.337337   0.173541  -4.381851   0.167774  -4.874232
  7.347347   0.169697  -4.368589   0.166953  -4.857572
  7.357357   0.166101  -4.355002   0.166155  -4.841005
  7.367367   0.162772  -4.341183   0.165383  -4.824531
  7.377377   0.159711  -4.327209   0.164639  -4.808147
  7.387387   0.156904  -4.313145   0.163925  -4.791859
  7.397398   0.154335  -4.299037   0.163245  -4.775664
  7.407407   0.151981  -4.284924   0.162601  -4.759567
  7.417417   0.149820  -4.270835   0.161998  -4.743573
  7.427427   0.147831  -4.256786   0.161436  -4.727683
  7.437437   0.145995  -4.242796   0.160920  -4.711908
  7.447447   0.144294  -4.228873   0.160451  -4.696256
  7.457457   0.142712  -4.215023   0.160027  -4.680736
  7.467467   0.141236  -4.201253   0.159645  -4.665365
  7.477477   0.139853  -4.187567   0.159296  -4.650158
  7.487487   0.138552  -4.173964   0.158966  -4.635127
  7.497497   0.137326  -4.160444   0.158630  -4.620286
  7.507507   0.136165  -4.147009   0.158260  -4.605641
  7.517517   0.135063  -4.133657   0.157820  -4.591187
  7.527527   0.134014  -4.120389   0.157275  -4.576905
  7.537538   0.133013  -4.107199   0.156597  -4.562759
  7.547547   0.132055  -4.094091   0.155771  -4.548709
  7.557557   0.131138  -4.081064   0.154801  -4.534707
  7.567567   0.130256  -4.068111   0.153707  -4.520711
  7.577577   0.129408  -4.055234   0.152520  -4.506695
  7.587587   0.128591  -4.042433   0.151276  -4.492643
  7.597597   0.127803  -4.029701   0.150008  -4.478558
  7.607607   0.127042  -4.017040   0.148744  -4.464445
  7.617618   0.126306  -4.004450   0.147504  -4.450319
  7.627627   0.125594  -3.991928   0.146299  -4.436197
  7.637637   0.124905  -3.979472   0.145136  -4.422092
  7.647647   0.124238  -3.967079   0.144019  -4.408017
  7.657657   0.123593  -3.954749   0.142946  -4.393983
  7.667668   0.122968  -3.942480   0.141915  -4.379999
  7.677677   0.122363  -3.930274   0.140924  -4.366072
  7.687687   0.121779  -3.918127   0.139970  -4.352205
  7.697698   0.121214  -3.906035   0.139048  -4.338402
  7.707707   0.120670  -3.894000   0.138156  -4.324667
  7.717717   0.120146  -3.882022   0.137291  -4.310999
  7.727727   0.119642  -3.870095   0.136450  -4.297401
  7.737737   0.119160  -3.858220   0.135631  -4.283874
  7.747747   0.118699  -3.846397   0.134831  -4.270417
  7.757758   0.118262  -3.834623   0.134050  -4.257029
  7.767767   0.117848  -3.822898   0.133285  -4.243711
  7.777778   0.117460  -3.811218   0.132536  -4.230462
  7.787787   0.117099  -3.799585   0.131800  -4.217284
  7.797797   0.116768  -3.787997   0.131077  -4.204174
  7.807807   0.116468  -3.776449   0.130365  -4.191131
  7.817817   0.116202  -3.764947   0.129665  -4.178156
  7.827827   0.115974  -3.753486   0.128976  -4.165248
  7.837838   0.115788  -3.742063   0.128296  -4.152405
  7.847847   0.115648  -3.730680   0.127625  -4.139628
  7.857858   0.115559  -3.719339   0.126964  -4.126916
  7.867867   0.115527  -3.708039   0.126310  -4.114270
  7.877877   0.115560  -3.696781   0.125665  -4.101686
  7.887888   0.115665  -3.685566   0.125028  -4.089165
  7.897897   0.115852  -3.674399   0.124397  -4.076707
  7.907907   0.116130  -3.663287   0.123775  -4.064311
  7.917918   0.116513  -3.652233   0.123159  -4.051975
  7.927927   0.117011  -3.641253   0.122550  -4.039701
  7.937938   0.117640  -3.630359   0.121947  -4.027486
  7.947948   0.118413  -3.619573   0.121352  -4.015331
  7.957957   0.119343  -3.608921   0.120762  -4.003236
  7.967968   0.120440  -3.598437   0.120179  -3.991198
  7.977978   0.121707  -3.588167   0.119602  -3.979218
  7.987987   0.123139  -3.578167   0.119032  -3.967296
  7.997998   0.124715  -3.568497   0.118467  -3.955430
  8.008007   0.126390  -3.559225   0.117909  -3.943621
  8.018017   0.128090  -3.550418   0.117357  -3.931868
  8.028028   0.129712  -3.542122   0.116811  -3.920169
  8.038037   0.131118  -3.534356   0.116272  -3.908526
  8.048048   0.132157  -3.527081   0.115739  -3.896936
  8.058058   0.132685  -3.520203   0.115212  -3.885401
  8.068068   0.132595  -3.513566   0.114692  -3.873918
  8.078078   0.131847  -3.506977   0.114179  -3.862488
  8.088088   0.130477  -3.500247   0.113674  -3.851110
  8.098097   0.128587  -3.493218   0.113175  -3.839785
  8.108108   0.126321  -3.485787   0.112685  -3.828510
  8.118117   0.123829  -3.477918   0.112203  -3.817287
  8.128128   0.121250  -3.469619   0.111729  -3.806114
  8.138138   0.118691  -3.460943   0.111265  -3.794992
  8.148148   0.116227  -3.451951   0.110810  -3.783919
  8.158158   0.113903  -3.442711   0.110367  -3.772897
  8.168168   0.111743  -3.433287   0.109935  -3.761924
  8.178178   0.109752  -3.423736   0.109516  -3.751002
  8.188188   0.107928  -3.414099   0.109111  -3.740129
  8.198197   0.106260  -3.404416   0.108722  -3.729308
  8.208207   0.104735  -3.394711   0.108349  -3.718540
  8.218218   0.103340  -3.385007   0.107994  -3.707824
  8.228228   0.102061  -3.375320   0.107659  -3.697166
  8.238238   0.100885  -3.365659   0.107346  -3.686566
   8.24825    0.09980   -3.35603    0.10705   -3.67603
   8.25826    0.09880   -3.34645    0.10679   -3.66556
   8.26827    0.09786   -3.33691    0.10654   -3.65517
   8.27828    0.09699   -3.32742    0.10631   -3.64486
   8.28829    0.09617   -3.31798    0.10609   -3.63463
   8.29830    0.09541   -3.30858    0.10587   -3.62451
   8.30831    0.09469   -3.29924    0.10564   -3.61448
   8.31832    0.09400   -3.28994    0.10539   -3.60455
   8.32833    0.09335   -3.28070    0.10508   -3.59472
   8.33834    0.09274   -3.27150    0.10472   -3.58497
   8.34835    0.09215   -3.26235    0.10429   -3.57527
   8.35836    0.09159   -3.25325    0.10379   -3.56561
   8.36837    0.09105   -3.24420    0.10322   -3.55597
   8.37838    0.09053   -3.23519    0.10260   -3.54633
   8.38839    0.09003   -3.22622    0.10195   -3.53668
   8.39840    0.08955   -3.21730    0.10128   -3.52701
   8.40841    0.08909   -3.20842    0.10061   -3.51734
   8.41842    0.08865   -3.19958    0.09994   -3.50767
   8.42843    0.08822   -3.19078    0.09929   -3.49800
   8.43844    0.08780   -3.18202    0.09866   -3.48834
   8.44845    0.08740   -3.17330    0.09805   -3.47870
   8.45846    0.08701   -3.16462    0.09747   -3.46908
   8.46847    0.08664   -3.15598    0.09690   -3.45950
   8.47848    0.08627   -3.14737    0.09636   -3.44994
   8.48849    0.08593   -3.13879    0.09583   -3.44042
   8.49850    0.08559   -3.13025    0.09532   -3.43094
   8.50851    0.08526   -3.12175    0.09482   -3.42149
   8.51852    0.08495   -3.11327    0.09433   -3.41209
   8.52853    0.08465   -3.10483    0.09386   -3.40272
   8.53854    0.08437   -3.09642    0.09340   -3.39339
   8.54855    0.08409   -3.08804    0.09295   -3.38411
   8.55856    0.08383   -3.07969    0.09251   -3.37486
   8.56857    0.08359   -3.07137    0.09208   -3.36565
   8.57858    0.08336   -3.06307    0.09165   -3.35648
   8.58859    0.08315   -3.05480    0.09123   -3.34735
   8.59860    0.08296   -3.04656    0.09082   -3.33827
   8.60861    0.08279   -3.03835    0.09041   -3.32922
   8.61862    0.08264   -3.03015    0.09001   -3.32021
   8.62863    0.08251   -3.02199    0.08962   -3.31123
   8.63864    0.08241   -3.01384    0.08923   -3.30230
   8.64865    0.08234   -3.00572    0.08884   -3.29340
   8.65866    0.08230   -2.99763    0.08846   -3.28454
   8.66867    0.08229   -2.98955    0.08808   -3.27572
   8.67868    0.08233   -2.98150    0.08771   -3.26694
   8.68869    0.08241   -2.97348    0.08734   -3.25819
   8.69870    0.08255   -2.96548    0.08697   -3.24948
   8.70871    0.08274   -2.95752    0.08661   -3.24080
   8.71872    0.08299   -2.94959    0.08625   -3.23217
   8.72873    0.08332   -2.94169    0.08589   -3.22356
   8.73874    0.08373   -2.93385    0.08554   -3.21499
   8.74875    0.08424   -2.92607    0.08519   -3.20646
   8.75876    0.08484   -2.91837    0.08484   -3.19796
   8.76877    0.08556   -2.91077    0.08450   -3.18950
   8.77878    0.08639   -2.90329    0.08416   -3.18106
   8.78879    0.08733   -2.89597    0.08382   -3.17267
   8.79880    0.08838   -2.88884    0.08349   -3.16430
   8.80881    0.08952   -2.88196    0.08316   -3.15597
   8.81882    0.09070   -2.87537    0.08283   -3.14768
   8.82883    0.09187   -2.86910    0.08251   -3.13941
   8.83884    0.09295   -2.86319    0.08219   -3.13118
   8.84885    0.09383   -2.85763    0.08187   -3.12298
   8.85886    0.09442   -2.85238    0.08155   -3.11481
   8.86887    0.09462   -2.84734    0.08124   -3.10668
   8.87888    0.09438   -2.84241    0.08093   -3.09858
   8.88889    0.09370   -2.83746    0.08063   -3.09050
   8.89890    0.09262   -2.83234    0.08033   -3.08246
   8.90891    0.09124   -2.82699    0.08003   -3.07445
   8.91892    0.08964   -2.82134    0.07974   -3.06647
   8.92893    0.08794   -2.81540    0.07945   -3.05852
   8.93894    0.08621   -2.80917    0.07917   -3.05060
   8.94895    0.08452   -2.80270    0.07889   -3.04271
   8.95896    0.08291   -2.79604    0.07862   -3.03485
   8.96897    0.08141   -2.78923    0.07835   -3.02702
   8.97898    0.08002   -2.78231    0.07809   -3.01922
   8.98899    0.07874   -2.77531    0.07784   -3.01145
   8.99900    0.07758   -2.76827    0.07760   -3.00372
   9.00901    0.07651   -2.76120    0.07736   -2.99601
   9.01902    0.07554   -2.75412    0.07714   -2.98833
   9.02903    0.07465   -2.74704    0.07692   -2.98069
   9.03904    0.07384   -2.73998    0.07671   -2.97308
   9.04905    0.07309   -2.73294    0.07652   -2.96551
   9.05906    0.07240   -2.72592    0.07634   -2.95798
   9.06907    0.07176   -2.71893    0.07617   -2.95049
   9.07908    0.07117   -2.71196    0.07601   -2.94304
   9.08909    0.07061   -2.70503    0.07586   -2.93565
   9.09910    0.07009   -2.69813    0.07571   -2.92831
   9.10911    0.06961   -2.69126    0.07556   -2.92103
   9.11912    0.06915   -2.68443    0.07540   -2.91380
   9.12913    0.06871   -2.67762    0.07521   -2.90663
   9.13914    0.06830   -2.67085    0.07500   -2.89951
   9.14915    0.06791   -2.66411    0.07474   -2.89242
   9.15916    0.06754   -2.65739    0.07445   -2.88537
   9.16917    0.06718   -2.65071    0.07413   -2.87833
   9.17918    0.06684   -2.64406    0.07377   -2.87130
   9.18919    0.06651   -2.63744    0.07339   -2.86427
   9.19920    0.06619   -2.63084    0.07300   -2.85723
   9.20921    0.06589   -2.62427    0.07260   -2.85019
   9.21922    0.06560   -2.61773    0.07221   -2.84315
   9.22923    0.06532   -2.61121    0.07182   -2.83612
   9.23924    0.06505   -2.60472    0.07144   -2.82909
   9.24925    0.06478   -2.59826    0.07108   -2.82208
   9.25926    0.06453   -2.59182    0.07072   -2.81508
   9.26927    0.06429   -2.58540    0.07038   -2.80810
   9.27928    0.06405   -2.57901    0.07005   -2.80114
   9.28929    0.06383   -2.57264    0.06973   -2.79420
   9.29930    0.06361   -2.56629    0.06941   -2.78729
   9.30931    0.06340   -2.55997    0.06911   -2.78039
   9.31932    0.06319   -2.55366    0.06881   -2.77352
   9.32933    0.06300   -2.54738    0.06852   -2.76668
   9.33934    0.06282   -2.54111    0.06824   -2.75986
   9.34935    0.06264   -2.53487    0.06796   -2.75307
   9.35936    0.06248   -2.52864    0.06769   -2.74630
   9.36937    0.06232   -2.52243    0.06742   -2.73955
   9.37938    0.06218   -2.51624    0.06715   -2.73284
   9.38939    0.06204   -2.51007    0.06689   -2.72614
   9.39940    0.06192   -2.50391    0.06663   -2.71947
   9.40941    0.06181   -2.49777    0.06638   -2.71282
   9.41942    0.06172   -2.49165    0.06613   -2.70620
   9.42943    0.06164   -2.48554    0.06588   -2.69961
   9.43944    0.06158   -2.47944    0.06564   -2.69303
   9.44945    0.06154   -2.47337    0.06539   -2.68648
   9.45946    0.06152   -2.46730    0.06515   -2.67996
   9.46947    0.06152   -2.46125    0.06492   -2.67346
   9.47948    0.06155   -2.45522    0.06468   -2.66698
   9.48949    0.06161   -2.44920    0.06445   -2.66052
   9.49950    0.06170   -2.44319    0.06421   -2.65409
   9.50951    0.06183   -2.43721    0.06399   -2.64768
   9.51952    0.06201   -2.43125    0.06376   -2.64129
   9.52953    0.06223   -2.42531    0.06353   -2.63493
   9.53954    0.06251   -2.41940    0.06331   -2.62859
   9.54955    0.06286   -2.41353    0.06309   -2.62227
   9.55956    0.06327   -2.40771    0.06286   -2.61597
   9.56957    0.06375   -2.40194    0.06265   -2.60969
   9.57958    0.06431   -2.39626    0.06243   -2.60344
   9.58959    0.06496   -2.39067    0.06221   -2.59721
   9.59960    0.06569   -2.38521    0.06200   -2.59100
   9.60961    0.06648   -2.37990    0.06179   -2.58481
   9.61962    0.06732   -2.37477    0.06158   -2.57864
   9.62963    0.06818   -2.36987    0.06137   -2.57249
   9.63964    0.06900   -2.36521    0.06116   -2.56636
   9.64965    0.06972   -2.36080    0.06096   -2.56026
   9.65966    0.07027   -2.35663    0.06076   -2.55417
   9.66967    0.07057   -2.35264    0.06055   -2.54811
   9.67968    0.07057   -2.34877    0.06036   -2.54206
   9.68969    0.07026   -2.34493    0.06016   -2.53604
   9.69970    0.06964   -2.34102    0.05996   -2.53004
   9.70971    0.06877   -2.33697    0.05977   -2.52405
   9.71972    0.06772   -2.33272    0.05958   -2.51809
   9.72973    0.06655   -2.32825    0.05939   -2.51214
   9.73974    0.06534   -2.32358    0.05921   -2.50622
   9.74975    0.06413   -2.31872    0.05903   -2.50031
   9.75976    0.06297   -2.31370    0.05885   -2.49443
   9.76977    0.06188   -2.30856    0.05867   -2.48856
   9.77978    0.06086   -2.30332    0.05850   -2.48271
   9.78979    0.05992   -2.29802    0.05833   -2.47688
   9.79980    0.05907   -2.29268    0.05817   -2.47108
   9.80981    0.05829   -2.28731    0.05801   -2.46529
   9.81982    0.05758   -2.28192    0.05786   -2.45952
   9.82983    0.05693   -2.27654    0.05771   -2.45378
   9.83984    0.05634   -2.27115    0.05757   -2.44805
   9.84985    0.05579   -2.26578    0.05743   -2.44235
   9.85986    0.05529   -2.26042    0.05731   -2.43667
   9.86987    0.05483   -2.25508    0.05719   -2.43102
   9.87988    0.05440   -2.24976    0.05707   -2.42540
   9.88989    0.05401   -2.24446    0.05696   -2.41980
   9.89990    0.05363   -2.23918    0.05686   -2.41424
   9.90991    0.05329   -2.23393    0.05675   -2.40872
   9.91992    0.05296   -2.22869    0.05664   -2.40323
   9.92993    0.05265   -2.22347    0.05651   -2.39777
   9.93994    0.05236   -2.21828    0.05638   -2.39235
   9.94995    0.05209   -2.21311    0.05622   -2.38696
   9.95996    0.05182   -2.20796    0.05604   -2.38158
   9.96997    0.05157   -2.20283    0.05583   -2.37622
   9.97998    0.05133   -2.19772    0.05561   -2.37087
   9.98999    0.05110   -2.19263    0.05537   -2.36552
  10.00000    0.05089   -2.18756    0.05512   -2.36016
# 
# YAMBO@ermengarda x 001 CPUs * 04/06/2013  00:19 [start]
#                               04/06/2013  00:20 [end]
# 
# Cpu Timing [Min/Max/Average]: 45s/45s/45s
#
# .-Input file : INPUTS/03_BSE
# | optics                       # [R OPT] Optics
# | bse                          # [R BSE] Bethe Salpeter Equation.
# | bsk                          # [R BSK] Bethe Salpeter Equation kernel
# | bss                          # [R BSS] Bethe Salpeter Equation solver
# | em1s                         # [R Xs] Static Inverse Dielectric Matrix
# | BoseTemp= 0.000000     eV    # Bosonic Temperature
# | Chimod= "Hartree"            # [X] IP/Hartree/ALDA/LRC/BSfxc
# | BSEmod= "resonant"           # [BSE] resonant/causal/coupling
# | BSKmod= "SEX"                # [BSE] IP/Hartree/HF/ALDA/SEX/BSfxc
# | BSSmod= "d"                  # [BSS] (h)aydock/(d)iagonalization/(i)nversion/(t)ddft`
# | BSENGexx= 113          RL    # [BSK] Exchange components
# | BSENGBlk= 113          RL    # [BSK] Screened interaction block size
# | % KfnQP_E
# |  3.500000 | 1.000000 | 1.000000 |        # [EXTQP BSK BSS] E parameters  (c/v) eV|adim|adim
# | %
# | % BEnRange
# |   0.00000 | 10.00000 | eV    # [BSS] Energy range
# | %
# | % BDmRange
# |   0.10000 |  0.10000 | eV    # [BSS] Damping range
# | %
# | BEnSteps= 1000               # [BSS] Energy steps
# | % BLongDir
# | 0.1000E-4 | 0.000    | 0.000    |        # [BSS] [cc] Electric Field
# | %
# | % BSEBands
# |  1 | 2 |                     # [BSK] Bands range
# | %
# | WRbsWF                       # [BSS] Write to disk excitonic the FWs
# | % QpntsRXs
# |    1 |  41 |                 # [Xs] Transferred momenta
# | %
# | % BndsRnXs
# |  1 | 2 |                     # [Xs] Polarization function bands
# | %
# | NGsBlkXs= 113          RL    # [Xs] Response block size
# | % LongDrXs
# | 0.1000E-4 | 0.000    | 0.000    |        # [Xs] [cc] Electric Field
# | %
