#                                                                     
#  __  __   ________   ___ __ __    _______   ______                  
# /_/\/_/\ /_______/\ /__//_//_/\ /_______/\ /_____/\                 
# \ \ \ \ \\::: _  \ \\::\| \| \ \\::: _  \ \\:::_ \ \                
#  \:\_\ \ \\::(_)  \ \\:.      \ \\::(_)  \/_\:\ \ \ \               
#   \::::_\/ \:: __  \ \\:.\-/\  \ \\::  _  \ \\:\ \ \ \              
#     \::\ \  \:.\ \  \ \\. \  \  \ \\::(_)  \ \\:\_\ \ \             
#      \__\/   \__\/\__\/ \__\/ \__\/ \_______\/ \_____\/             
#                                                                     
#                                                                     
# Version 5.1.1 Revision 21181 Hash (prev commit) 4394c0edc           
#                   Branch is devel-xuv                               
#         MPI+OpenMP+SLK+SLEPC+HDF5_MPI_IO Build                      
#                http://www.yambo-code.org                            
#
# Absorption @ Q(1):  0.999999975E-5   0.00000000      0.00000000    [q->0 direction]
#
# [GEN] GF Energies                               : Teter 93(XC)
# [GEN] Wavefunctions                             : Teter 93(XC)
# [GEN] Green`s Function                          : Resonant
# [GEN] Gauge                                     : Length
# [GEN] [r,Vnl] included                          : yes
#
# DIP band range                                  :   3  30
# DIP band range limits                           :  26  27
# DIP e/h energy range                            :  -1.00000000     -1.00000000    [eV]
# RL vectors in the sum                           :   3281
# [r,Vnl] included                                : yes
# Bands ordered                                   : yes
# Direct v evaluation                             : no
# Approach used                                   : G-space v
# Dipoles computed                                : R V P
# Wavefunctions                                   : Teter 93(XC)
#
#
#
# [K] Identifier                                  :  2488
# [K] Dimension                                   :   864
# [K] Bands                                       :   3  30
# [K] Exchange res                                : yes
# [K] Correlation res                             : yes
# [K] Kernel`s coupling                           : no
# [K] Exchange cpl                                : no
# [K] Correlation cpl                             : no
# [K] W interaction is bare                       : no
# [K] ALDA kernel in R-space                      : no
# [K] RL vectors exchange                         :  121
# [K] RL vectors correlation                      :  11
# [K] E/h energy range                            :  -1.00000000     -1.00000000    [eV]
# [K] Coupling range                              :   100.000000      100.000000    [o/o]
# [W] Interaction is diagonal                     : no
# [W] Matrix size                                 :  11
# [W] Bands                                       :  11  30
# [W] e/h energy range                            :  -1.00000000     -1.00000000    [eV]
# [W] Poles                                       :   100.000000    [o/o]
# [W] RL vectors in the sum                       :   3281
# [W] [r,Vnl] included                            : yes
# [W] Longitudinal Gauge                          : yes
# [W] Field direction                             :  0.999999975E-5   0.00000000      0.00000000   
# [W] Coulomb Cutoff                              : none
# [W] xc-Kernel                                   : none
# [RIM] RL components col                         : 0
# [RIM] Random points col                         : 0
# [SOC] Perturbative SOC                          : no
#
# Diamagnetic term
#
#    A [nel]            A0[nel]
#:     0.00000000        -25.1724319   
#
#    E/ev[1]            EPS-Im[2]          EPS-Re[3]          EPS_o-Im[4]        EPS_o-Re[5]
#
     35.0000000        0.182589423E-1      1.13173270        0.187502382E-2      1.12927508   
     35.0033340        0.202663578E-1      1.13330245        0.188572868E-2      1.12958848   
     35.0066681        0.225363821E-1      1.13470507        0.189653772E-2      1.12990367   
     35.0100060        0.250074845E-1      1.13587415        0.190745166E-2      1.13022065   
     35.0133438        0.275861472E-1      1.13679528        0.191848190E-2      1.13053966   
     35.0166779        0.301899537E-1      1.13753009        0.192960887E-2      1.13086021   
     35.0200119        0.328368954E-1      1.13818836        0.194084633E-2      1.13118279   
     35.0233459        0.356570967E-1      1.13882315        0.195219263E-2      1.13150704   
     35.0266800        0.388206318E-1      1.13934004        0.196365267E-2      1.13183320   
     35.0300140        0.424071811E-1      1.13948631        0.197522575E-2      1.13216150   
     35.0333519        0.462913923E-1      1.13893652        0.198692363E-2      1.13249195   
     35.0366898        0.500763766E-1      1.13746381        0.199873256E-2      1.13282382   
     35.0400238        0.532093905E-1      1.13515007        0.201065838E-2      1.13315797   
     35.0433578        0.552465357E-1      1.13249600        0.202270318E-2      1.13349378   
     35.0466919        0.561750717E-1      1.13024795        0.203486998E-2      1.13383210   
     35.0500259        0.564799532E-1      1.12901306        0.204716576E-2      1.13417196   
     35.0533638        0.568981729E-1      1.12898529        0.205959426E-2      1.13451445   
     35.0566978        0.581157766E-1      1.12995088        0.207214011E-2      1.13485861   
     35.0600357        0.606244020E-1      1.13143945        0.208481587E-2      1.13520491   
     35.0633698        0.647090748E-1      1.13283908        0.209762808E-2      1.13555336   
     35.0667038        0.704509988E-1      1.13342512        0.211056997E-2      1.13590384   
     35.0700378        0.776612684E-1      1.13236070        0.212364853E-2      1.13625669   
     35.0733719        0.857285783E-1      1.12877023        0.213686796E-2      1.13661158   
     35.0767097        0.934761092E-1      1.12199581        0.215023756E-2      1.13696897   
     35.0800438        0.992167965E-1      1.11210346        0.216373918E-2      1.13732827   
     35.0833817        0.101366840         1.10024273        0.217738352E-2      1.13768983   
     35.0867157        0.992843732E-1      1.08846104        0.219117687E-2      1.13805377   
     35.0900497        0.937050655E-1      1.07877159        0.220511644E-2      1.13842010   
     35.0933838        0.862679705E-1      1.07225251        0.221921410E-2      1.13878846   
     35.0967216        0.786344633E-1      1.06888056        0.223347428E-2      1.13915980   
     35.1000557        0.719785988E-1      1.06796241        0.224787928E-2      1.13953304   
     35.1033897        0.668773428E-1      1.06858265        0.226244377E-2      1.13990867   
     35.1067276        0.634933710E-1      1.06986785        0.227717310E-2      1.14028680   
     35.1100616        0.617041253E-1      1.07104754        0.229206122E-2      1.14066744   
     35.1133957        0.611465238E-1      1.07146394        0.230712118E-2      1.14105046   
     35.1167297        0.612022541E-1      1.07063663        0.232234714E-2      1.14143610   
     35.1200676        0.610345565E-1      1.06842482        0.233776821E-2      1.14182472   
     35.1234016        0.598127954E-1      1.06520391        0.235334202E-2      1.14221525   
     35.1267357        0.570889227E-1      1.06179130        0.236909953E-2      1.14260864   
     35.1300735        0.530230515E-1      1.05906844        0.238503865E-2      1.14300454   
     35.1334076        0.482184812E-1      1.05755782        0.240115752E-2      1.14340329   
     35.1367416        0.433366597E-1      1.05730522        0.241747056E-2      1.14380467   
     35.1400795        0.388242491E-1      1.05805016        0.243399059E-2      1.14420915   
     35.1434135        0.348787904E-1      1.05944717        0.245068385E-2      1.14461589   
     35.1467476        0.314960293E-1      1.06121290        0.246758270E-2      1.14502537   
     35.1500816        0.285901483E-1      1.06317532        0.248468015E-2      1.14543796   
     35.1534195        0.260722823E-1      1.06525862        0.250198413E-2      1.14585328   
     35.1567535        0.238893107E-1      1.06743479        0.251949625E-2      1.14627159   
     35.1600914        0.220168158E-1      1.06968319        0.253723841E-2      1.14669311   
     35.1634254        0.204434209E-1      1.07196867        0.255517848E-2      1.14711702   
     35.1667595        0.191460904E-1      1.07425988        0.257333973E-2      1.14754426   
     35.1700935        0.180970784E-1      1.07653117        0.259172707E-2      1.14797437   
     35.1734276        0.172680244E-1      1.07876778        0.261034118E-2      1.14840758   
     35.1767654        0.166366827E-1      1.08096480        0.262918719E-2      1.14884377   
     35.1800995        0.161902253E-1      1.08312082        0.264827162E-2      1.14928329   
     35.1834373        0.159240700E-1      1.08523405        0.266761682E-2      1.14972651   
     35.1867714        0.158399306E-1      1.08729100        0.268719043E-2      1.15017235   
     35.1901054        0.159412492E-1      1.08927560        0.270701479E-2      1.15062165   
     35.1934395        0.162302740E-1      1.09115803        0.272709550E-2      1.15107405   
     35.1967735        0.167005993E-1      1.09289384        0.274744001E-2      1.15153015   
     35.2001114        0.173242316E-1      1.09442461        0.276804692E-2      1.15198922   
     35.2034492        0.180353969E-1      1.09569001        0.278894114E-2      1.15245247   
     35.2067833        0.187171847E-1      1.09665334        0.281009707E-2      1.15291870   
     35.2101173        0.192237496E-1      1.09735155        0.283153029E-2      1.15338850   
     35.2134514        0.194351487E-1      1.09791124        0.285325805E-2      1.15386164   
     35.2167854        0.193225332E-1      1.09851480        0.287527614E-2      1.15433860   
     35.2201195        0.189607255E-1      1.09932268        0.289759226E-2      1.15481937   
     35.2234573        0.184801575E-1      1.10042226        0.292023527E-2      1.15530419   
     35.2267952        0.180112366E-1      1.10182309        0.294317072E-2      1.15579224   
     35.2301292        0.176508911E-1      1.10349214        0.296641979E-2      1.15628433   
     35.2334633        0.174599085E-1      1.10537922        0.298999925E-2      1.15678048   
     35.2367973        0.174711999E-1      1.10743678        0.301390956E-2      1.15728021   
     35.2401314        0.177021101E-1      1.10962820        0.303815771E-2      1.15778387   
     35.2434654        0.181649663E-1      1.11192858        0.306274742E-2      1.15829194   
     35.2468033        0.188756660E-1      1.11432517        0.308771734E-2      1.15880454   
     35.2501411        0.198555440E-1      1.11680317        0.311302743E-2      1.15932059   
     35.2534752        0.211390164E-1      1.11935556        0.313870073E-2      1.15984106   
     35.2568092        0.227738731E-1      1.12196863        0.316475378E-2      1.16036594   
     35.2601433        0.248243064E-1      1.12461734        0.319119706E-2      1.16089487   
     35.2634773        0.273727998E-1      1.12725592        0.321802823E-2      1.16142833   
     35.2668152        0.305229761E-1      1.12980640        0.324528804E-2      1.16196704   
     35.2701492        0.343808308E-1      1.13212812        0.327293575E-2      1.16250944   
     35.2734871        0.390539430E-1      1.13400567        0.330100814E-2      1.16305685   
     35.2768211        0.445956625E-1      1.13511038        0.332950638E-2      1.16360855   
     35.2801552        0.509257950E-1      1.13499153        0.335844862E-2      1.16416538   
     35.2834892        0.577077605E-1      1.13312745        0.338783977E-2      1.16472673   
     35.2868233        0.642391294E-1      1.12909734        0.341769657E-2      1.16529334   
     35.2901611        0.694958270E-1      1.12287390        0.344805350E-2      1.16586506   
     35.2934952        0.724382102E-1      1.11509752        0.347886863E-2      1.16644180   
     35.2968330        0.725333318E-1      1.10694098        0.351017690E-2      1.16702330   
     35.3001671        0.699809790E-1      1.09966135        0.354199484E-2      1.16761005   
     35.3035011        0.655379072E-1      1.09414113        0.357433292E-2      1.16820252   
     35.3068352        0.601530410E-1      1.09073591        0.360721024E-2      1.16879988   
     35.3101730        0.546787269E-1      1.08935452        0.364066241E-2      1.16940379   
     35.3135071        0.497402549E-1      1.08963060        0.367464847E-2      1.17001235   
     35.3168449        0.456733517E-1      1.09109282        0.370920566E-2      1.17062688   
     35.3201790        0.426014885E-1      1.09329700        0.374435564E-2      1.17124689   
     35.3235130        0.405107364E-1      1.09587729        0.378011167E-2      1.17187309   
     35.3268471        0.393100791E-1      1.09855127        0.381648773E-2      1.17250502   
     35.3301849        0.388647094E-1      1.10111439        0.385354250E-2      1.17314363   
     35.3335190        0.390205979E-1      1.10342801        0.389121147E-2      1.17378795   
     35.3368530        0.396302678E-1      1.10542738        0.392955774E-2      1.17443871   
     35.3401909        0.405800976E-1      1.10708678        0.396859599E-2      1.17509580   
     35.3435249        0.417876206E-1      1.10838449        0.400834670E-2      1.17575908   
     35.3468590        0.431707390E-1      1.10928500        0.404882478E-2      1.17642963   
     35.3501930        0.446179435E-1      1.10976112        0.409005489E-2      1.17710650   
     35.3535309        0.460016020E-1      1.10983527        0.413210085E-2      1.17779112   
     35.3568649        0.472257771E-1      1.10958421        0.417489698E-2      1.17848206   
     35.3601990        0.482608601E-1      1.10908568        0.421850709E-2      1.17917991   
     35.3635368        0.490988977E-1      1.10837471        0.426296704E-2      1.17988503   
     35.3668709        0.497075468E-1      1.10745978        0.430829264E-2      1.18059814   
     35.3702049        0.500243716E-1      1.10636103        0.435450673E-2      1.18131852   
     35.3735428        0.499782264E-1      1.10512733        0.440169359E-2      1.18204737   
     35.3768768        0.495040976E-1      1.10383332        0.444977544E-2      1.18278337   
     35.3802109        0.485316664E-1      1.10257244        0.449883891E-2      1.18352723   
     35.3835449        0.469877422E-1      1.10150230        0.454890216E-2      1.18427968   
     35.3868828        0.448750034E-1      1.10087335        0.460001221E-2      1.18504012   
     35.3902168        0.423617586E-1      1.10094655        0.465218723E-2      1.18580902   
     35.3935509        0.397549868E-1      1.10185611        0.470547145E-2      1.18658698   
     35.3968887        0.373707525E-1      1.10355604        0.475995569E-2      1.18737471   
     35.4002228        0.354396030E-1      1.10586965        0.481556868E-2      1.18817031   
     35.4035568        0.340712555E-1      1.10858548        0.487239333E-2      1.18897557   
     35.4068909        0.332917161E-1      1.11150253        0.493048644E-2      1.18979049   
     35.4102287        0.330700651E-1      1.11444533        0.498987548E-2      1.19061446   
     35.4135628        0.333312005E-1      1.11726499        0.505062705E-2      1.19144881   
     35.4169006        0.339560844E-1      1.11984801        0.511282124E-2      1.19229424   
     35.4202347        0.347842127E-1      1.12212968        0.517641427E-2      1.19314885   
     35.4235687        0.356457531E-1      1.12413168        0.524149556E-2      1.19401443   
     35.4269028        0.364036262E-1      1.12595153        0.530812843E-2      1.19489062   
     35.4302368        0.369888023E-1      1.12773645        0.537637621E-2      1.19577801   
     35.4335747        0.374150164E-1      1.12964213        0.544628920E-2      1.19667685   
     35.4369125        0.377681851E-1      1.13178849        0.551800802E-2      1.19758832   
     35.4402466        0.381626859E-1      1.13422108        0.559145538E-2      1.19851077   
     35.4435806        0.386949703E-1      1.13693845        0.566675933E-2      1.19944537   
     35.4469147        0.394324511E-1      1.13992143        0.574401068E-2      1.20039272   
     35.4502487        0.404332615E-1      1.14315045        0.582328485E-2      1.20135283   
     35.4535828        0.417505577E-1      1.14659309        0.590465264E-2      1.20232618   
     35.4569206        0.434156805E-1      1.15020752        0.598820951E-2      1.20331323   
     35.4602585        0.454369336E-1      1.15397358        0.607411517E-2      1.20431495   
     35.4635925        0.478204638E-1      1.15789807        0.616232166E-2      1.20533037   
     35.4669266        0.506174527E-1      1.16202283        0.625299290E-2      1.20635998   
     35.4702606        0.539283939E-1      1.16637802        0.634624762E-2      1.20740533   
     35.4735947        0.579007156E-1      1.17096055        0.644219248E-2      1.20846581   
     35.4769287        0.627214089E-1      1.17570543        0.654094387E-2      1.20954227   
     35.4802666        0.685952827E-1      1.18045545        0.664273975E-2      1.21063626   
     35.4836044        0.756615102E-1      1.18492508        0.674751168E-2      1.21174598   
     35.4869385        0.839532390E-1      1.18875396        0.685549900E-2      1.21287370   
     35.4902725        0.933186114E-1      1.19157147        0.696685351E-2      1.21401894   
     35.4936066        0.103443399         1.19313121        0.708174845E-2      1.21518302   
     35.4969406        0.113985494         1.19340062        0.720033702E-2      1.21636581   
     35.5002785        0.124757685         1.19248676        0.732293725E-2      1.21756947   
     35.5036125        0.135696441         1.19044936        0.744949793E-2      1.21879268   
     35.5069504        0.146751463         1.18722534        0.758037297E-2      1.22003686   
     35.5102844        0.157738611         1.18279445        0.771575142E-2      1.22130251   
     35.5136185        0.168520376         1.17735183        0.785589218E-2      1.22259068   
     35.5169525        0.179324850         1.17117858        0.800105184E-2      1.22390211   
     35.5202866        0.190812916         1.16415477        0.815150701E-2      1.22523761   
     35.5236244        0.203602567         1.15530241        0.830769818E-2      1.22659922   
     35.5269585        0.217385724         1.14294875        0.846967008E-2      1.22798586   
     35.5302963        0.230436876         1.12554276        0.863788091E-2      1.22939897   
     35.5336304        0.239864796         1.10291243        0.881273393E-2      1.23083973   
     35.5369644        0.242967099         1.07695353        0.899460074E-2      1.23230970   
     35.5402985        0.238781035         1.05091155        0.918394234E-2      1.23380947   
     35.5436363        0.228362605         1.02766323        0.938141067E-2      1.23534191   
     35.5469704        0.213728890         1.00877678        0.958713703E-2      1.23690581   
     35.5503044        0.196727693        0.994659126        0.980186835E-2      1.23850298   
     35.5536423        0.178900391        0.985251606        0.100261988E-1      1.24013591   
     35.5569763        0.161632493        0.980122328        0.102608101E-1      1.24180520   
     35.5603104        0.146033496        0.978383780        0.105063943E-1      1.24351323   
     35.5636444        0.132681578        0.978840411        0.107637709E-1      1.24526155   
     35.5669823        0.121536560        0.980320752        0.110340528E-1      1.24705362   
     35.5703163        0.112118974        0.981957316        0.113176890E-1      1.24888813   
     35.5736504        0.103691563        0.983349860        0.116159506E-1      1.25076914   
     35.5769882        0.955804586E-1     0.984574556        0.119300336E-1      1.25269818   
     35.5803223        0.874208733E-1     0.986041784        0.122612175E-1      1.25467825   
     35.5836563        0.792648643E-1     0.988202453        0.126109095E-1      1.25671220   
     35.5869942        0.714344084E-1     0.991278529        0.129810805E-1      1.25880456   
     35.5903282        0.642946437E-1     0.995191753        0.133727780E-1      1.26095414   
     35.5936623        0.580433309E-1     0.999701500        0.137883145E-1      1.26316726   
     35.5969963        0.527218953E-1      1.00453722        0.142299384E-1      1.26544666   
     35.6003342        0.482615754E-1      1.00948429        0.147001464E-1      1.26779592   
     35.6036682        0.445479304E-1      1.01440656        0.152017511E-1      1.27022028   
     35.6070061        0.414657556E-1      1.01924014        0.157385338E-1      1.27272642   
     35.6103401        0.389336944E-1      1.02394485        0.163130797E-1      1.27531409   
     35.6136742        0.368851051E-1      1.02850652        0.169300586E-1      1.27799189   
     35.6170082        0.352677703E-1      1.03290725        0.175943021E-1      1.28076530   
     35.6203423        0.340311378E-1      1.03713310        0.183112677E-1      1.28364062   
     35.6236801        0.331279896E-1      1.04118156        0.190873947E-1      1.28662586   
     35.6270142        0.325250924E-1      1.04506075        0.199301094E-1      1.28972840   
     35.6303520        0.322099328E-1      1.04878032        0.208490398E-1      1.29295945   
     35.6336861        0.321830660E-1      1.05231881        0.218526572E-1      1.29632342   
     35.6370201        0.324338265E-1      1.05564046        0.229538847E-1      1.29983270   
     35.6403542        0.329199247E-1      1.05869651        0.241671186E-1      1.30349863   
     35.6436882        0.335619189E-1      1.06145966        0.255096592E-1      1.30733359   
     35.6470261        0.342672169E-1      1.06395745        0.270022731E-1      1.31135046   
     35.6503639        0.349833630E-1      1.06627822        0.286718253E-1      1.31556928   
     35.6536980        0.357395485E-1      1.06851506        0.305459276E-1      1.31999397   
     35.6570320        0.366379917E-1      1.07070744        0.326639302E-1      1.32464516   
     35.6603661        0.377866551E-1      1.07279646        0.350724757E-1      1.32953584   
     35.6637001        0.392384976E-1      1.07465029        0.378295965E-1      1.33467877   
     35.6670380        0.409690402E-1      1.07610834        0.410075746E-1      1.34008110   
     35.6703720        0.428774767E-1      1.07700932        0.446960852E-1      1.34574127   
     35.6737099        0.447748490E-1      1.07720852        0.490107983E-1      1.35164762   
     35.6770439        0.463481024E-1      1.07663560        0.540783890E-1      1.35774648   
     35.6803780        0.472096615E-1      1.07541084        0.600618385E-1      1.36395752   
     35.6837120        0.470574275E-1      1.07390785        0.671363175E-1      1.37013102   
     35.6870461        0.458608828E-1      1.07263243        0.754715726E-1      1.37602687   
     35.6903839        0.438678488E-1      1.07199287        0.851866901E-1      1.38129532   
     35.6937218        0.414376669E-1      1.07217658        0.962953642E-1      1.38548732   
     35.6970558        0.389034748E-1      1.07318890        0.108599931         1.38809419   
     35.7003899        0.365110002E-1      1.07493722        0.121751502         1.38866210   
     35.7037239        0.344291031E-1      1.07727981        0.135261104         1.38680255   
     35.7070580        0.327492282E-1      1.08005619        0.148470685         1.38213146   
     35.7103920        0.314928703E-1      1.08311808        0.160325184         1.37434483   
     35.7137299        0.306307040E-1      1.08635700        0.169250220         1.36368465   
     35.7170677        0.301133487E-1      1.08970535        0.173625603         1.35158288   
     35.7204018        0.298973974E-1      1.09315181        0.172893986         1.34050691   
     35.7237358        0.299709160E-1      1.09670854        0.168133646         1.33293188   
     35.7270699        0.303553697E-1      1.10038817        0.161549076         1.33020723   
     35.7304039        0.310932267E-1      1.10418808        0.155404538         1.33231997   
     35.7337379        0.322368480E-1      1.10808849        0.151346311         1.33841729   
     35.7370758        0.338476375E-1      1.11205804        0.150339603         1.34741998   
     35.7404137        0.359915085E-1      1.11603463        0.152912036         1.35830390   
     35.7437477        0.387495346E-1      1.11993730        0.159404472         1.37021685   
     35.7470818        0.422058254E-1      1.12363172        0.170146212         1.38235521   
     35.7504158        0.464274436E-1      1.12691021        0.185515329         1.39382684   
     35.7537498        0.514163189E-1      1.12946999        0.205900818         1.40347672   
     35.7570877        0.570311807E-1      1.13092113        0.231567025         1.40972877   
     35.7604218        0.628562719E-1      1.13086176        0.262235880         1.41047740   
     35.7637596        0.681767389E-1      1.12908888        0.296798319         1.40325332   
     35.7670937        0.720944256E-1      1.12586939        0.332805097         1.38564909   
     35.7704277        0.739372149E-1      1.12206089        0.366340697         1.35608935   
     35.7737617        0.736847967E-1      1.11882138        0.392294198         1.31476450   
     35.7770996        0.719934776E-1      1.11705101        0.405274272         1.26456141   
     35.7804337        0.697964653E-1      1.11705840        0.401511431         1.21169198   
     35.7837677        0.678531900E-1      1.11863828        0.381253272         1.16391695   
     35.7871056        0.665776134E-1      1.12137771        0.349098504         1.12749147   
     35.7904396        0.660934597E-1      1.12490392        0.311645418         1.10477340   
     35.7937737        0.663897991E-1      1.12899518        0.274587929         1.09454906   
     35.7971077        0.674634203E-1      1.13356578        0.241388127         1.09388268   
     35.8004456        0.693901256E-1      1.13859105        0.213478312         1.09971237   
     35.8037796        0.723170936E-1      1.14401221        0.191133797         1.10955071   
     35.8071136        0.764488950E-1      1.14971995        0.173979104         1.12163699   
     35.8104515        0.820015892E-1      1.15550160        0.161508322         1.13477397   
     35.8137856        0.891496092E-1      1.16103494        0.153254271         1.14813030   
     35.8171196        0.979661718E-1      1.16591084        0.148856416         1.16105604   
     35.8204575        0.108396247         1.16969728        0.148049235         1.17293918   
     35.8237915        0.120230526         1.17200518        0.150581941         1.18303168   
     35.8271255        0.133247256         1.17255425        0.156055436         1.19044840   
     35.8304596        0.147274166         1.17110932        0.163691357         1.19415665   
     35.8337975        0.162237391         1.16732883        0.172093391         1.19324684   
     35.8371315        0.178019643         1.16054308        0.179229721         1.18743193   
     35.8404655        0.194021240         1.14967501        0.182879090         1.17754793   
     35.8438034        0.208613455         1.13366807        0.181435734         1.16558564   
     35.8471375        0.219058454         1.11260951        0.174571723         1.15414751   
     35.8504715        0.222699046         1.08855915        0.163304508         1.14550424   
     35.8538055        0.218636870         1.06519818        0.149507552         1.14096415   
     35.8571434        0.208507150         1.04596734        0.135154754         1.14068341   
     35.8604774        0.195416301         1.03238189        0.121722482         1.14399409   
     35.8638153        0.182155773         1.02387404        0.110001452         1.14992857   
     35.8671494        0.170215711         1.01885402        0.100281700         1.15756607   
     35.8704834        0.159723699         1.01582921        0.925119817E-1      1.16621900   
     35.8738174        0.150175676         1.01411092        0.865268931E-1      1.17541742   
     35.8771515        0.141231924         1.01377797        0.821399689E-1      1.18486071   
     35.8804893        0.133136109         1.01512730        0.791945085E-1      1.19436431   
     35.8838272        0.126552299         1.01813197        0.775841624E-1      1.20381570   
     35.8871613        0.122181058         1.02226770        0.772628561E-1      1.21310258   
     35.8904953        0.120442919         1.02666056        0.782360062E-1      1.22213137   
     35.8938293        0.121403284         1.03023326        0.805598870E-1      1.23075521   
     35.8971634        0.124687672         1.03181124        0.843218490E-1      1.23874187   
     35.9004974        0.129342496         1.03027892        0.895986930E-1      1.24572623   
     35.9038353        0.133731663         1.02494454        0.963711143E-1      1.25116289   
     35.9071732        0.135765806         1.01608932        0.104379617         1.25432706   
     35.9105072        0.133685350         1.00533795        0.112880781         1.25441694   
     35.9138412        0.127037272        0.995124459        0.120536730         1.25092292   
     35.9171753        0.116895631        0.987563610        0.125545740         1.24414730   
     35.9205093        0.105112143        0.983589411        0.126344875         1.23557174   
     35.9238434        0.933574215E-1     0.983000457        0.122514673         1.22747493   
     35.9271812        0.826543719E-1     0.985024214        0.115044080         1.22187603   
     35.9305191        0.734578595E-1     0.988803625        0.105707504         1.21972871   
     35.9338531        0.658139735E-1     0.993645966        0.961175412E-1      1.22088814   
     35.9371872        0.596008375E-1     0.999063671        0.872997269E-1      1.22464967   
     35.9405212        0.546395518E-1      1.00474024        0.797071755E-1      1.23021698   
     35.9438553        0.507535040E-1      1.01047838        0.734240860E-1      1.23693490   
     35.9471931        0.477883443E-1      1.01616132        0.683493689E-1      1.24434698   
     35.9505272        0.456260480E-1      1.02169776        0.643318817E-1      1.25214088   
     35.9538651        0.441603288E-1      1.02703393        0.611996986E-1      1.26014137   
     35.9571991        0.432970785E-1      1.03212178        0.588055141E-1      1.26824749   
     35.9605331        0.429387018E-1      1.03692937        0.570274852E-1      1.27640772   
     35.9638672        0.429854468E-1      1.04145801        0.557691343E-1      1.28460121   
     35.9672012        0.433620065E-1      1.04575634        0.549557135E-1      1.29282725   
     35.9705391        0.440608561E-1      1.04990602        0.545305498E-1      1.30110371   
     35.9738770        0.451572649E-1      1.05394685        0.544529334E-1      1.30943131   
     35.9772110        0.467781425E-1      1.05783939        0.546931773E-1      1.31784165   
     35.9805450        0.490304865E-1      1.06142509        0.552325547E-1      1.32635844   
     35.9838791        0.519302525E-1      1.06444764        0.560609140E-1      1.33500910   
     35.9872131        0.553360954E-1      1.06660664        0.571760610E-1      1.34382308   
     35.9905510        0.589103289E-1      1.06766605        0.585848726E-1      1.35283875   
     35.9938850        0.621522143E-1      1.06761110        0.602969043E-1      1.36207044   
     35.9972229        0.646225065E-1      1.06676030        0.623335540E-1      1.37156141   
     36.0005569        0.661967471E-1      1.06564391        0.647229552E-1      1.38134587   
     36.0038910        0.671378374E-1      1.06467271        0.675022900E-1      1.39146137   
     36.0072250        0.678457394E-1      1.06387842        0.707200170E-1      1.40194702   
     36.0105591        0.684995577E-1      1.06296659        0.744372830E-1      1.41284418   
     36.0138969        0.688795745E-1      1.06162608        0.787359551E-1      1.42420554   
     36.0172310        0.684959143E-1      1.05988050        0.837046281E-1      1.43605232   
     36.0205688        0.669645667E-1      1.05820274        0.894692689E-1      1.44843376   
     36.0239029        0.643409342E-1      1.05728173        0.961834863E-1      1.46138465   
     36.0272369        0.611193366E-1      1.05761731        0.104040593         1.47492850   
     36.0305710        0.579419099E-1      1.05931377        0.113285169         1.48906446   
     36.0339088        0.553237796E-1      1.06216276        0.124235071         1.50376558   
     36.0372429        0.535755828E-1      1.06581533        0.137251437         1.51889682   
     36.0405769        0.528295524E-1      1.06992579        0.152812481         1.53425026   
     36.0439148        0.531200506E-1      1.07418203        0.171466514         1.54942191   
     36.0472488        0.544222109E-1      1.07829869        0.193809643         1.56371951   
     36.0505829        0.566542521E-1      1.08199561        0.220376164         1.57603335   
     36.0539207        0.596472211E-1      1.08500230        0.251433134         1.58470607   
     36.0572548        0.630996451E-1      1.08710480        0.286406815         1.58749056   
     36.0605888        0.666317046E-1      1.08826780        0.323450923         1.58195066   
     36.0639229        0.699246153E-1      1.08867538        0.358863235         1.56643796   
     36.0672607        0.728916302E-1      1.08861506        0.387610823         1.54171205   
     36.0705948        0.756656602E-1      1.08823705        0.405435503         1.51197457   
     36.0739288        0.783706829E-1      1.08742785        0.411567956         1.48367691   
     36.0772667        0.808793157E-1      1.08593583        0.409524083         1.46223903   
     36.0806007        0.827617794E-1      1.08367038        0.405041993         1.44952559   
     36.0839348        0.835327059E-1      1.08092189        0.403123885         1.44361186   
     36.0872688        0.829958096E-1      1.07830119        0.406275421         1.44045198   
     36.0906067        0.813849196E-1      1.07638764        0.414041787         1.43565869   
     36.0939407        0.791394487E-1      1.07544959        0.423320502         1.42616606   
     36.0972786        0.766045004E-1      1.07550681        0.429560333         1.41173530   
     36.1006126        0.739924014E-1      1.07655716        0.429047912         1.39557719   
     36.1039467        0.715178549E-1      1.07866120        0.421283692         1.38277817   
     36.1072807        0.694978759E-1      1.08184206        0.409294575         1.37747347   
     36.1106148        0.682873130E-1      1.08598590        0.397746533         1.38093877   
     36.1139526        0.681832880E-1      1.09085429        0.390779346         1.39177978   
     36.1172905        0.694012567E-1      1.09615183        0.391019285         1.40714836   
     36.1206245        0.720938519E-1      1.10153341        0.399548322         1.42365491   
     36.1239586        0.763777122E-1      1.10661435        0.416082025         1.43795013   
     36.1272926        0.823045522E-1      1.11090481        0.438995630         1.44705868   
     36.1306267        0.897766799E-1      1.11378479        0.465408385         1.44907260   
     36.1339607        0.984041393E-1      1.11454391        0.491949022         1.44398594   
     36.1372986        0.107362203         1.11256683        0.516330838         1.43370724   
     36.1406364        0.115414076         1.10767436        0.538571596         1.42047632   
     36.1439705        0.121234052         1.10047376        0.560132265         1.40480173   
     36.1473045        0.124056868         1.09227586        0.581676364         1.38493109   
     36.1506386        0.124039546         1.08455825        0.601301551         1.35873961   
     36.1539726        0.122105137         1.07828581        0.615237713         1.32620275   
     36.1573067        0.119357429         1.07358849        0.620325744         1.29013419   
     36.1606445        0.116475567         1.06994343        0.615758657         1.25449526   
     36.1639824        0.113452338         1.06672704        0.602573276         1.22268200   
     36.1673164        0.109791048         1.06374729        0.582444251         1.19724309   
     36.1706505        0.105078593         1.06143796        0.557849824         1.18053079   
     36.1739845        0.994452164E-1      1.06050873        0.532637954         1.17397416   
     36.1773186        0.935358554E-1      1.06140924        0.511351764         1.17689359   
     36.1806526        0.881155506E-1      1.06408966        0.497768730         1.18634617   
     36.1839905        0.837250277E-1      1.06813896        0.493887722         1.19792902   
     36.1873283        0.806039274E-1      1.07301927        0.499563962         1.20661545   
     36.1906624        0.787390769E-1      1.07826149        0.512234509         1.20764530   
     36.1939964        0.779901519E-1      1.08349895        0.526784599         1.19769800   
     36.1973305        0.781396180E-1      1.08844995        0.536266983         1.17671871   
     36.2006645        0.788774118E-1      1.09291363        0.534416497         1.14919698   
     36.2040024        0.797916278E-1      1.09685111        0.519003987         1.12288272   
     36.2073364        0.804687291E-1      1.10047734        0.493168414         1.10506666   
     36.2106743        0.807095692E-1      1.10426557        0.463144749         1.09915042   
     36.2140083        0.806661397E-1      1.10872328        0.434964031         1.10445702   
     36.2173424        0.807633400E-1      1.11414742        0.412564248         1.11790800   
     36.2206764        0.814825743E-1      1.12053680        0.397615671         1.13573134   
     36.2240143        0.831942558E-1      1.12767506        0.389973760         1.15441763   
     36.2273483        0.860930830E-1      1.13521862        0.388095528         1.17113400   
     36.2306824        0.902058780E-1      1.14282358        0.389320582         1.18436396   
     36.2340202        0.953867435E-1      1.15018618        0.390646845         1.19444168   
     36.2373543        0.101334773         1.15714860        0.390051007         1.20362353   
     36.2406883        0.107695907         1.16381645        0.387663007         1.21496499   
     36.2440224        0.114280187         1.17058277        0.385670722         1.23061872   
     36.2473602        0.121267758         1.17795312        0.387089819         1.25093961   
     36.2506943        0.129161566         1.18622267        0.394578546         1.27462268   
     36.2540283        0.138586923         1.19536114        0.409988225         1.29945064   
     36.2573662        0.150021464         1.20507014        0.434335113         1.32259274   
     36.2607002        0.163722992         1.21501231        0.467720717         1.34069872   
     36.2640343        0.179863274         1.22501957        0.508927941         1.35000300   
     36.2673721        0.198839858         1.23512793        0.554881930         1.34691501   
     36.2707062        0.221458986         1.24528027        0.600337982         1.32938099   
     36.2740402        0.249041513         1.25495791        0.639375508         1.29832077   
     36.2773743        0.283076465         1.26278579        0.667568028         1.25755167   
     36.2807121        0.324835777         1.26633072        0.683298230         1.21159613   
     36.2840462        0.374849409         1.26194954        0.686348259         1.16375446   
     36.2873840        0.432109892         1.24476218        0.675956488         1.11690831   
     36.2907181        0.492577046         1.20935106        0.651599228         1.07571280   
     36.2940521        0.548398495         1.15162945        0.615460396         1.04590321   
     36.2973862        0.588300526         1.07224226        0.573076725         1.03161025   
     36.3007240        0.601559162        0.979269981        0.531122744         1.03336596   
     36.3040581        0.583846331        0.886733472        0.494906873         1.04873610   
     36.3073921        0.539996803        0.808387756        0.467511952         1.07412362   
     36.3107300        0.480742872        0.751761794        0.450261056         1.10612810   
     36.3140640        0.417181760        0.717310190        0.443598807         1.14187765   
     36.3173981        0.356825590        0.700913787        0.447612703         1.17912304   
     36.3207321        0.303412974        0.697336674        0.462413669         1.21577847   
     36.3240700        0.257990330        0.701983452        0.488129020         1.24954939   
     36.3274040        0.220164165        0.711454451        0.524601579         1.27756941   
     36.3307419        0.188927531        0.723479033        0.570789576         1.29626143   
     36.3340759        0.163237885        0.736589789        0.623620987         1.30168569   
     36.3374100        0.142042339        0.749926925        0.677505195         1.29110825   
     36.3407440        0.124473602        0.762990475        0.724806428         1.26531780   
     36.3440781        0.109824099        0.775508165        0.758997083         1.23032475   
     36.3474159        0.975275114E-1     0.787348926        0.778884828         1.19566190   
     36.3507500        0.871350542E-1     0.798463285        0.790060222         1.16934979   
     36.3540878        0.782839730E-1     0.808860302        0.801801801         1.15361023   
     36.3574219        0.707103088E-1     0.818546176        0.822352886         1.14449286   
     36.3607559        0.641815662E-1     0.827571034        0.855997622         1.13411522   
     36.3640900        0.585195944E-1     0.835980356        0.902145684         1.11344719   
     36.3674240        0.535812639E-1     0.843821526        0.955510259         1.07455301   
     36.3707619        0.492509194E-1     0.851140976         1.00685835         1.01273024   
     36.3740997        0.454309992E-1     0.857989132         1.04493129        0.928539813   
     36.3774338        0.420518778E-1     0.864393234         1.05990350        0.828960538   
     36.3807678        0.390461758E-1     0.870397747         1.04718280        0.724666536   
     36.3841019        0.363614596E-1     0.876037002         1.00798297        0.626349926   
     36.3874359        0.339538902E-1     0.881341696        0.947497845        0.541925430   
     36.3907700        0.317868888E-1     0.886340201        0.872585535        0.475749314   
     36.3941078        0.298277196E-1     0.891062260        0.789797187        0.429046988   
     36.3974457        0.280541666E-1     0.895521522        0.704802036        0.401290596   
     36.4007797        0.264419168E-1     0.899743319        0.622072756        0.390785575   
     36.4041138        0.249720048E-1     0.903746486        0.545324802        0.394932508   
     36.4074478        0.236281622E-1     0.907547772        0.477042794        0.410313666   
     36.4107819        0.223963596E-1     0.911162436        0.418216288        0.433355570   
     36.4141159        0.212644245E-1     0.914604425        0.368613660        0.460979700   
     36.4174538        0.202208403E-1     0.917889237        0.327267081        0.490934551   
     36.4207916        0.192584433E-1     0.921022058        0.293076694        0.521640062   
     36.4241257        0.183681101E-1     0.924016356        0.264837921        0.552198529   
     36.4274597        0.175427794E-1     0.926881611        0.241528839        0.582089424   
     36.4307938        0.167762563E-1     0.929626584        0.222299799        0.611057520   
     36.4341278        0.160630085E-1     0.932259023        0.206469148        0.639012754   
     36.4374657        0.153975617E-1     0.934788704        0.193488672        0.665987551   
     36.4407997        0.147768958E-1     0.937217176        0.182968542        0.691992164   
     36.4441376        0.141964601E-1     0.939553261        0.174580783        0.717150211   
     36.4474716        0.136528369E-1     0.941802204        0.168094128        0.741571784   
     36.4508057        0.131429415E-1     0.943969548        0.163349360        0.765375018   
     36.4541397        0.126640033E-1     0.946059883        0.160249814        0.788678110   
     36.4574776        0.122131249E-1     0.948079765        0.158755884        0.811616778   
     36.4608116        0.117889410E-1     0.950028896        0.158889383        0.834252357   
     36.4641457        0.113889677E-1     0.951913476        0.160725325        0.856697917   
     36.4674835        0.110113798E-1     0.953736722        0.164406940        0.879020810   
     36.4708176        0.106545184E-1     0.955502093        0.170148477        0.901251137   
     36.4741516        0.103168767E-1     0.957212567        0.178248435        0.923357666   
     36.4774857        0.999707635E-2     0.958870828        0.189095601        0.945210099   
     36.4808235        0.969358068E-2     0.960481226        0.203185201        0.966541171   
     36.4841576        0.940584112E-2     0.962043047        0.221034572        0.986777365   
     36.4874916        0.913250539E-2     0.963560045        0.243183658         1.00504982   
     36.4908295        0.887261797E-2     0.965034604        0.269954860         1.01999378   
     36.4941635        0.862528011E-2     0.966468513        0.301114053         1.02974141   
     36.4974976        0.838971231E-2     0.967863739        0.335382432         1.03217566   
     36.5008354        0.816494133E-2     0.969223499        0.370098680         1.02568591   
     36.5041695        0.795073155E-2     0.970546603        0.401458889         1.01040173   
     36.5075035        0.774621405E-2     0.971836090        0.426297575        0.988860250   
     36.5108376        0.755081931E-2     0.973093331        0.443833083        0.964978576   
     36.5141754        0.736399321E-2     0.974319816        0.455889493        0.941625118   
     36.5175095        0.718523283E-2     0.975516796        0.464861095        0.919178486   
     36.5208435        0.701408461E-2     0.976685524        0.471557826        0.896556854   
     36.5241814        0.684995949E-2     0.977828264        0.475134969        0.873442769   
     36.5275154        0.669277366E-2     0.978943884        0.475045025        0.851369143   
     36.5308495        0.654199533E-2     0.980034530        0.472819597        0.832167387   
     36.5341835        0.639727153E-2     0.981101334        0.471567124        0.815750718   
     36.5375214        0.625828002E-2     0.982145011        0.473712921        0.799225390   
     36.5408554        0.612472417E-2     0.983166575        0.478858471        0.778089464   
     36.5441933        0.599619513E-2     0.984167874        0.483004153        0.748673439   
     36.5475273        0.587267987E-2     0.985147655        0.479763299        0.710937381   
     36.5508614        0.575380214E-2     0.986107767        0.463645041        0.669527769   
     36.5541954        0.563933654E-2     0.987048864        0.433493495        0.631969333   
     36.5575294        0.552905770E-2     0.987971663        0.393108845        0.604576468   
     36.5608673        0.542277051E-2     0.988876820        0.348582149        0.589745522   
     36.5642014        0.532027893E-2     0.989764869        0.305170596        0.586303830   
     36.5675392        0.522131426E-2     0.990637422        0.265924335        0.591417968   
     36.5708733        0.512589188E-2     0.991493165        0.232072696        0.602140427   
     36.5742073        0.503375800E-2     0.992333651        0.203548774        0.616143942   
     36.5775414        0.494476687E-2     0.993159294        0.179785952        0.631812096   
     36.5808754        0.485877320E-2     0.993970633        0.160055816        0.648111463   
     36.5842133        0.477564381E-2     0.994768202        0.143652901        0.664418101   
     36.5875511        0.469517754E-2     0.995553076        0.129950702        0.680393696   
     36.5908852        0.461741025E-2     0.996324182        0.118466653        0.695819616   
     36.5942192        0.454215240E-2     0.997082829        0.108776480        0.710629702   
     36.5975533        0.446930202E-2     0.997829378        0.100552894        0.724799752   
     36.6008873        0.439874642E-2     0.998564124        0.935364962E-1     0.738342643   
     36.6042213        0.433040177E-2     0.999287426        0.875213668E-1     0.751288950   
     36.6075630        0.426411116E-2      1.00000048        0.823382586E-1     0.763691247   
     36.6108971        0.419991603E-2      1.00070202        0.778667480E-1     0.775570393   
     36.6142311        0.413766596E-2      1.00139332        0.739960447E-1     0.786984742   
     36.6175652        0.407729298E-2      1.00207436        0.706414431E-1     0.797978520   
     36.6208992        0.401872117E-2      1.00274575        0.677353963E-1     0.808594823   
     36.6242332        0.396187697E-2      1.00340772        0.652224496E-1     0.818874300   
     36.6275711        0.390664255E-2      1.00406098        0.630565286E-1     0.828864276   
     36.6309090        0.385306263E-2      1.00470471        0.612064153E-1     0.838581860   
     36.6342430        0.380102685E-2      1.00533974        0.596417971E-1     0.848069608   
     36.6375771        0.375047326E-2      1.00596631        0.583411865E-1     0.857360423   
     36.6409111        0.370134879E-2      1.00658476        0.572884865E-1     0.866483510   
     36.6442451        0.365360430E-2      1.00719512        0.564729571E-1     0.875467718   
     36.6475792        0.360718556E-2      1.00779784        0.558886938E-1     0.884340167   
     36.6509171        0.356200663E-2      1.00839353        0.555345677E-1     0.893135846   
     36.6542549        0.351810711E-2      1.00898135        0.554153286E-1     0.901862502   
     36.6575890        0.347540178E-2      1.00956202        0.555402301E-1     0.910552979   
     36.6609230        0.343384757E-2      1.01013565        0.559251755E-1     0.919229209   
     36.6642570        0.339340698E-2      1.01070261        0.565931238E-1     0.927910924   
     36.6675911        0.335404300E-2      1.01126301        0.575757064E-1     0.936614811   
     36.6709290        0.331568206E-2      1.01181757        0.589154921E-1     0.945358634   
     36.6742630        0.327836373E-2      1.01236522        0.606617928E-1     0.954125762   
     36.6776009        0.324201654E-2      1.01290691        0.628782138E-1     0.962907612   
     36.6809349        0.320661068E-2      1.01344264        0.656343251E-1     0.971662641   
     36.6842690        0.317211705E-2      1.01397264        0.689973086E-1     0.980312943   
     36.6876030        0.313850585E-2      1.01449692        0.730099753E-1     0.988736570   
     36.6909370        0.310574658E-2      1.01501584        0.776533335E-1     0.996771872   
     36.6942749        0.307378755E-2      1.01552987        0.828081891E-1      1.00426710   
     36.6976089        0.304265996E-2      1.01603818        0.882230699E-1      1.01114714   
     36.7009468        0.301230978E-2      1.01654136        0.936318189E-1      1.01757205   
     36.7042809        0.298271538E-2      1.01703978        0.989355966E-1      1.02392340   
     36.7076149        0.295385346E-2      1.01753318        0.104387686         1.03063560   
     36.7109489        0.292569911E-2      1.01802194        0.110571235         1.03791487   
     36.7142868        0.289820996E-2      1.01850653        0.118204422         1.04558170   
     36.7176208        0.287141604E-2      1.01898623        0.127897918         1.05303478   
     36.7209549        0.284527265E-2      1.01946151        0.140055731         1.05934179   
     36.7242928        0.281976280E-2      1.01993251        0.154693693         1.06323862   
     36.7276268        0.279486319E-2      1.02039933        0.171190843         1.06322122   
     36.7309608        0.277056475E-2      1.02086210        0.187963739         1.05788541   
     36.7342949        0.274684280E-2      1.02132094        0.202364340         1.04666674   
     36.7376328        0.272366544E-2      1.02177632        0.211314544         1.03073943   
     36.7409668        0.270105922E-2      1.02222753        0.212759733         1.01328969   
     36.7443008        0.267898710E-2      1.02267492        0.207038581        0.998186707   
     36.7476387        0.265743444E-2      1.02311873        0.196638361        0.988141656   
     36.7509727        0.263639144E-2      1.02355909        0.184690118        0.983763933   
     36.7543068        0.261584087E-2      1.02399600        0.173568398        0.984020472   
     36.7576447        0.259575155E-2      1.02442992        0.164374709        0.987234771   
     36.7609787        0.257615093E-2      1.02486014        0.157125175        0.991875768   
     36.7643127        0.255700783E-2      1.02528715        0.151131928        0.997055411   
     36.7676468        0.253830873E-2      1.02571106        0.145602494         1.00267303   
     36.7709846        0.252004550E-2      1.02613199        0.140149742         1.00918961   
     36.7743187        0.250220508E-2      1.02654970        0.134973243         1.01712513   
     36.7776566        0.248476211E-2      1.02696514        0.130616367         1.02667189   
     36.7809906        0.246774149E-2      1.02737713        0.127626538         1.03760707   
     36.7843246        0.245111273E-2      1.02778649        0.126334310         1.04951334   
     36.7876587        0.243487069E-2      1.02819300        0.126847804         1.06190491   
     36.7909927        0.241900398E-2      1.02859688        0.129075900         1.07432401   
     36.7943306        0.240350608E-2      1.02899826        0.132742509         1.08641124   
     36.7976685        0.238835486E-2      1.02939737        0.137420386         1.09802186   
     36.8010025        0.237356639E-2      1.02979362        0.142643377         1.10930932   
     36.8043365        0.235912413E-2      1.03018749        0.148195028         1.12080014   
     36.8076706        0.234501739E-2      1.03057897        0.154315457         1.13311934   
     36.8110046        0.233124057E-2      1.03096819        0.161679998         1.14666879   
     36.8143387        0.231778622E-2      1.03135514        0.171166271         1.16144633   
     36.8176765        0.230464689E-2      1.03173983        0.183647111         1.17706990   
     36.8210144        0.229180395E-2      1.03212285        0.199938685         1.19286835   
     36.8243484        0.227927743E-2      1.03250325        0.220733389         1.20780432   
     36.8276825        0.226704683E-2      1.03288174        0.246638596         1.22045064   
     36.8310165        0.225510751E-2      1.03325808        0.277899325         1.22875631   
     36.8343506        0.224345410E-2      1.03363252        0.313932538         1.22998011   
     36.8376846        0.223208009E-2      1.03400517        0.352574110         1.22098279   
     36.8410225        0.222097058E-2      1.03437614        0.389394730         1.19927323   
     36.8443604        0.221013953E-2      1.03474510        0.417768866         1.16506779   
     36.8476944        0.219957507E-2      1.03511214        0.431282938         1.12292075   
     36.8510284        0.218927069E-2      1.03547752        0.427133739         1.08114791   
     36.8543625        0.217922055E-2      1.03584123        0.408078909         1.04815638   
     36.8576965        0.216942187E-2      1.03620327        0.380659819         1.02871358   
     36.8610306        0.215987163E-2      1.03656363        0.351655155         1.02317286   
     36.8643684        0.215055328E-2      1.03692293        0.325805664         1.02918875   
     36.8677063        0.214148313E-2      1.03728020        0.305646777         1.04366851   
     36.8710403        0.213264953E-2      1.03763604        0.292077214         1.06392336   
     36.8743744        0.212404621E-2      1.03799045        0.285255790         1.08796489   
     36.8777084        0.211567106E-2      1.03834343        0.285114616         1.11441982   
     36.8810425        0.210752082E-2      1.03869510        0.291653216         1.14231658   
     36.8843803        0.209958409E-2      1.03904569        0.305100590         1.17088711   
     36.8877144        0.209187320E-2      1.03939474        0.325907558         1.19923246   
     36.8910522        0.208437815E-2      1.03974247        0.354809374         1.22624969   
     36.8943863        0.207709637E-2      1.04008889        0.392669052         1.25024831   
     36.8977203        0.207002414E-2      1.04043424        0.440200865         1.26867330   
     36.9010544        0.206315937E-2      1.04077840        0.497393966         1.27786577   
     36.9043884        0.205649994E-2      1.04112136        0.562547386         1.27317595   
     36.9077263        0.205003726E-2      1.04146373        0.631195664         1.24989855   
     36.9110603        0.204378110E-2      1.04180455        0.695418179         1.20558870   
     36.9143982        0.203772308E-2      1.04214442        0.746017098         1.14256620   
     36.9177322        0.203186297E-2      1.04248333        0.776316226         1.06847286   
     36.9210663        0.202619797E-2      1.04282129        0.785486460        0.992802203   
     36.9244003        0.202072458E-2      1.04315817        0.777433455        0.922150373   
     36.9277382        0.201543840E-2      1.04349458        0.756506860        0.858782709   
     36.9310722        0.201034802E-2      1.04382992        0.724879622        0.803509951   
     36.9344063        0.200544647E-2      1.04416430        0.683552623        0.758202672   
     36.9377441        0.200073211E-2      1.04449797        0.635049224        0.725847960   
     36.9410782        0.199620519E-2      1.04483068        0.583904445        0.708132029   
     36.9444122        0.199186336E-2      1.04516292        0.534808397        0.704229176   
     36.9477501        0.198770338E-2      1.04549456        0.490928710        0.711754322   
     36.9510841        0.198373105E-2      1.04582524        0.454017431        0.728156567   
     36.9544182        0.197994453E-2      1.04615533        0.424899697        0.751350760   
     36.9577560        0.197633938E-2      1.04648483        0.404152125        0.779592454   
     36.9610901        0.197291910E-2      1.04681361        0.392193109        0.811330020   
     36.9644241        0.196968066E-2      1.04714191        0.389345109        0.845171094   
     36.9677620        0.196662475E-2      1.04747009        0.395987153        0.879887581   
     36.9710960        0.196375279E-2      1.04779732        0.412667423        0.914140463   
     36.9744301        0.196106778E-2      1.04812419        0.440231889        0.946429729   
     36.9777641        0.195856602E-2      1.04845059        0.479772776        0.974596560   
     36.9811020        0.195624982E-2      1.04877663        0.532383561        0.995398402   
     36.9844360        0.195411965E-2      1.04910219        0.598534048         1.00401747   
     36.9877701        0.195217668E-2      1.04942751        0.676857233        0.993799984   
     36.9911079        0.195042253E-2      1.04975271        0.762338579        0.956793725   
     36.9944420        0.194886001E-2      1.05007744        0.844024837        0.886380076   
     36.9977760        0.194749050E-2      1.05040193        0.905626178        0.781853735   
     37.0011101        0.194631470E-2      1.05072606        0.930062056        0.653327703   
     37.0044479        0.194533530E-2      1.05105019        0.908444941        0.521048069   
     37.0077820        0.194455590E-2      1.05137396        0.845848322        0.406787813   
     37.0111198        0.194397813E-2      1.05169809        0.757735252        0.323817492   
     37.0144539        0.194360688E-2      1.05202174        0.661376536        0.274225533   
     37.0177879        0.194344495E-2      1.05234540        0.568957508        0.252318740   
     37.0211220        0.194349501E-2      1.05266905        0.486720324        0.250177503   
     37.0244560        0.194376218E-2      1.05299258        0.416539788        0.260692358   
     37.0277939        0.194425287E-2      1.05331635        0.357932687        0.278578937   
     37.0311279        0.194496952E-2      1.05364001        0.309445441        0.300291061   
     37.0344658        0.194591982E-2      1.05396426        0.269374162        0.323613822   
     37.0377998        0.194710947E-2      1.05428839        0.236242622        0.347160399   
     37.0411339        0.194854348E-2      1.05461264        0.208684385        0.370180786   
     37.0444679        0.195023126E-2      1.05493712        0.185618237        0.392261028   
     37.0478020        0.195217947E-2      1.05526197        0.166178972        0.413202107   
     37.0511398        0.195439765E-2      1.05558705        0.149679706        0.432932854   
     37.0544777        0.195689662E-2      1.05591285        0.135564566        0.451473415   
     37.0578117        0.195968454E-2      1.05623877        0.123430371        0.468831658   
     37.0611458        0.196277280E-2      1.05656517        0.112919971        0.485090613   
     37.0644798        0.196617399E-2      1.05689204        0.103759795        0.500324488   
     37.0678139        0.196990161E-2      1.05721951        0.957297385E-1     0.514610052   
     37.0711479        0.197397126E-2      1.05754757        0.886518657E-1     0.528021693   
     37.0744858        0.197839784E-2      1.05787635        0.823810399E-1     0.540630102   
     37.0778236        0.198320532E-2      1.05820608        0.767934397E-1     0.552512288   
     37.0811577        0.198840280E-2      1.05853641        0.718018115E-1     0.563705981   
     37.0844917        0.199401658E-2      1.05886757        0.673191920E-1     0.574278474   
     37.0878258        0.200006901E-2      1.05919957        0.632775351E-1     0.584279895   
     37.0911598        0.200658687E-2      1.05953264        0.596201569E-1     0.593756497   
     37.0944939        0.201359787E-2      1.05986679        0.562987961E-1     0.602748513   
     37.0978317        0.202114182E-2      1.06020236        0.532699265E-1     0.611302495   
     37.1011696        0.202923804E-2      1.06053877        0.505046770E-1     0.619435430   
     37.1045036        0.203793100E-2      1.06087661        0.479701795E-1     0.627186298   
     37.1078377        0.204726332E-2      1.06121576        0.456408374E-1     0.634583414   
     37.1111717        0.205728388E-2      1.06155658        0.434944555E-1     0.641651392   
     37.1145058        0.206804438E-2      1.06189895        0.415118746E-1     0.648413479   
     37.1178398        0.207960280E-2      1.06224298        0.396763794E-1     0.654890776   
     37.1211777        0.209203805E-2      1.06258917        0.379717276E-1     0.661108017   
     37.1245155        0.210539810E-2      1.06293714        0.363883860E-1     0.667070806   
     37.1278496        0.211977912E-2      1.06328714        0.349133797E-1     0.672800899   
     37.1311836        0.213527330E-2      1.06363952        0.335366502E-1     0.678313136   
     37.1345177        0.215198658E-2      1.06399429        0.322494432E-1     0.683620930   
     37.1378555        0.217005541E-2      1.06435204        0.310427230E-1     0.688741386   
     37.1411896        0.218958105E-2      1.06471229        0.299118124E-1     0.693675160   
     37.1445236        0.221073348E-2      1.06507552        0.288492963E-1     0.698438883   
     37.1478615        0.223369128E-2      1.06544197        0.278495811E-1     0.703041792   
     37.1511955        0.225865585E-2      1.06581211        0.269075874E-1     0.707493126   
     37.1545296        0.228586188E-2      1.06618595        0.260188393E-1     0.711800337   
     37.1578636        0.231557968E-2      1.06656396        0.251792204E-1     0.715971470   
     37.1612015        0.234815455E-2      1.06694674        0.243842881E-1     0.720018029   
     37.1645355        0.238389126E-2      1.06733406        0.236322507E-1     0.723937690   
     37.1678696        0.242324593E-2      1.06772661        0.229192749E-1     0.727741599   
     37.1712074        0.246672239E-2      1.06812477        0.222425759E-1     0.731435001   
     37.1745415        0.251491764E-2      1.06852913        0.215996597E-1     0.735023260   
     37.1778755        0.256853830E-2      1.06894028        0.209882166E-1     0.738511503   
     37.1812134        0.262848916E-2      1.06935918        0.204056092E-1     0.741907716   
     37.1845474        0.269567152E-2      1.06978571        0.198510103E-1     0.745209575   
     37.1878815        0.277136220E-2      1.07022107        0.193221010E-1     0.748424768   
     37.1912155        0.285705319E-2      1.07066596        0.188172534E-1     0.751556754   
     37.1945534        0.295456080E-2      1.07112122        0.183349662E-1     0.754609346   
     37.1978874        0.306612509E-2      1.07158792        0.178738367E-1     0.757586181   
     37.2012215        0.319451489E-2      1.07206678        0.174326450E-1     0.760490298   
     37.2045593        0.334333489E-2      1.07255936        0.170097612E-1     0.763327539   
     37.2078934        0.351662189E-2      1.07306528        0.166049544E-1     0.766094923   
     37.2112274        0.371994847E-2      1.07358575        0.162167642E-1     0.768798351   
     37.2145615        0.396018568E-2      1.07412076        0.158442967E-1     0.771440268   
     37.2178993        0.424603513E-2      1.07466924        0.154866371E-1     0.774022818   
     37.2212334        0.458848197E-2      1.07522881        0.151430191E-1     0.776548684   
     37.2245712        0.500173448E-2      1.07579494        0.148123307E-1     0.779022276   
     37.2279053        0.550192734E-2      1.07635677        0.144945551E-1     0.781440377   
     37.2312393        0.610944582E-2      1.07689834        0.141886761E-1     0.783808231   
     37.2345734        0.684617227E-2      1.07739186        0.138940951E-1     0.786126971   
     37.2379074        0.773201743E-2      1.07779312        0.136102550E-1     0.788398683   
     37.2412453        0.877601001E-2      1.07803571        0.133366007E-1     0.790625036   
     37.2445793        0.995957572E-2      1.07802904        0.130726406E-1     0.792807579   
     37.2479172        0.112126209E-1      1.07766771        0.128176548E-1     0.794949770   
     37.2512512        0.123851979E-1      1.07686901        0.125717083E-1     0.797048926   
     37.2545853        0.132618081E-1      1.07563424        0.123341186E-1     0.799108803   
     37.2579193        0.136251943E-1      1.07410729        0.121045038E-1     0.801130295   
     37.2612534        0.133710913E-1      1.07255673        0.118825054E-1     0.803115010   
     37.2645912        0.125754289E-1      1.07126403        0.116677731E-1     0.805063963   
     37.2679291        0.114443963E-1      1.07039750        0.114597669E-1     0.806980073   
     37.2712631        0.102048237E-1      1.06998014        0.112586142E-1     0.808860958   
     37.2745972        0.901653431E-2      1.06993580        0.110637974E-1     0.810709357   
     37.2779312        0.796160661E-2      1.07015920        0.108750472E-1     0.812526345   
     37.2812653        0.706481468E-2      1.07055581        0.106921131E-1     0.814312875   
     37.2846031        0.631983392E-2      1.07105553        0.105147474E-1     0.816069484   
     37.2879372        0.570756430E-2      1.07161105        0.103427209E-1     0.817797840   
     37.2912750        0.520557258E-2      1.07219303        0.101756426E-1     0.819500148   
     37.2946091        0.479435921E-2      1.07278216        0.100136492E-1     0.821173370   
     37.2979431        0.445595430E-2      1.07336879        0.985635538E-2     0.822820485   
     37.3012772        0.417613238E-2      1.07394731        0.970359799E-2     0.824442327   
     37.3046112        0.394351641E-2      1.07451463        0.955518149E-2     0.826039195   
     37.3079491        0.374909560E-2      1.07506990        0.941094663E-2     0.827612042   
     37.3112869        0.358560984E-2      1.07561362        0.927061308E-2     0.829163074   
     37.3146210        0.344774057E-2      1.07614493        0.913427956E-2     0.830689669   
     37.3179550        0.333085330E-2      1.07666552        0.900166575E-2     0.832194090   
     37.3212891        0.323138176E-2      1.07717597        0.887263380E-2     0.833677113   
     37.3246231        0.314647472E-2      1.07767737        0.874706078E-2     0.835139275   
     37.3279572        0.307383062E-2      1.07817066        0.862481445E-2     0.836580813   
     37.3312950        0.301152142E-2      1.07865715        0.850567222E-2     0.838003993   
     37.3346329        0.295814173E-2      1.07913685        0.838974025E-2     0.839406371   
     37.3379669        0.291237421E-2      1.07961082        0.827679224E-2     0.840789855   
     37.3413010        0.287318463E-2      1.08007979        0.816673785E-2     0.842154860   
     37.3446350        0.283971359E-2      1.08054459        0.805945974E-2     0.843502164   
     37.3479691        0.281124399E-2      1.08100557        0.795487501E-2     0.844831824   
     37.3513069        0.278715161E-2      1.08146393        0.785279833E-2     0.846145749   
     37.3546410        0.276697730E-2      1.08191919        0.775332702E-2     0.847442031   
     37.3579788        0.275026890E-2      1.08237231        0.765628833E-2     0.848721683   
     37.3613129        0.273666135E-2      1.08282351        0.756160542E-2     0.849985719   
     37.3646469        0.272584544E-2      1.08327329        0.746919075E-2     0.851234317   
     37.3679810        0.271755434E-2      1.08372211        0.737898936E-2     0.852467656   
     37.3713150        0.271156477E-2      1.08417010        0.729091233E-2     0.853686571   
     37.3746529        0.270767673E-2      1.08461809        0.720482273E-2     0.854892015   
     37.3779869        0.270573096E-2      1.08506560        0.712081930E-2     0.856082320   
     37.3813248        0.270557962E-2      1.08551311        0.703875767E-2     0.857258976   
     37.3846588        0.270709675E-2      1.08596098        0.695857406E-2     0.858422101   
     37.3879929        0.271018012E-2      1.08640957        0.688021397E-2     0.859572113   
     37.3913269        0.271473313E-2      1.08685887        0.680363365E-2     0.860709369   
     37.3946648        0.272068824E-2      1.08730960        0.672869151E-2     0.861835241   
     37.3979988        0.272796350E-2      1.08776116        0.665548909E-2     0.862947702   
     37.4013329        0.273650931E-2      1.08821416        0.658390578E-2     0.864048302   
     37.4046707        0.274627889E-2      1.08866882        0.651389733E-2     0.865137041   
     37.4080048        0.275723054E-2      1.08912516        0.644541578E-2     0.866214454   
     37.4113388        0.276933354E-2      1.08958364        0.637842156E-2     0.867280543   
     37.4146729        0.278256228E-2      1.09004414        0.631286437E-2     0.868335605   
     37.4180107        0.279690721E-2      1.09050751        0.624865806E-2     0.869381070   
     37.4213448        0.281232595E-2      1.09097290        0.618586782E-2     0.870414972   
     37.4246788        0.282881944E-2      1.09144092        0.612440845E-2     0.871438622   
     37.4280167        0.284638279E-2      1.09191179        0.606424455E-2     0.872452199   
     37.4313507        0.286501762E-2      1.09238565        0.600533932E-2     0.873455942   
     37.4346848        0.288473233E-2      1.09286273        0.594765414E-2     0.874449968   
     37.4380226        0.290556322E-2      1.09334362        0.589110330E-2     0.875435472   
     37.4413567        0.292748795E-2      1.09382749        0.583576970E-2     0.876410782   
     37.4446907        0.295054913E-2      1.09431517        0.578157231E-2     0.877377033   
     37.4480247        0.297477213E-2      1.09480655        0.572847622E-2     0.878334463   
     37.4513626        0.300017674E-2      1.09530210        0.567644648E-2     0.879283071   
     37.4546967        0.302679208E-2      1.09580171        0.562547334E-2     0.880223155   
     37.4580307        0.305462396E-2      1.09630573        0.557551812E-2     0.881154895   
     37.4613686        0.308370218E-2      1.09681475        0.552651053E-2     0.882079482   
     37.4647026        0.311395596E-2      1.09732795        0.547852041E-2     0.882995009   
     37.4680367        0.314540532E-2      1.09784615        0.543148117E-2     0.883902609   
     37.4713707        0.317807938E-2      1.09836960        0.538536860E-2     0.884802520   
     37.4747086        0.321205426E-2      1.09889865        0.534015987E-2     0.885694802   
     37.4780426        0.324743963E-2      1.09943342        0.529583404E-2     0.886579812   
     37.4813805        0.328438962E-2      1.09997475        0.525232730E-2     0.887458265   
     37.4847145        0.332293357E-2      1.10052192        0.520970067E-2     0.888328731   
     37.4880486        0.336320419E-2      1.10107553        0.516790152E-2     0.889192283   
     37.4913826        0.340528670E-2      1.10163581        0.512690982E-2     0.890048921   
     37.4947166        0.344927120E-2      1.10220325        0.508670183E-2     0.890898883   
     37.4980545        0.349524897E-2      1.10277796        0.504726171E-2     0.891742110   
     37.5013924        0.354337529E-2      1.10336089        0.500853080E-2     0.892579794   
     37.5047264        0.359367393E-2      1.10395122        0.497057894E-2     0.893410265   
     37.5080605        0.364631391E-2      1.10454988        0.493334932E-2     0.894234478   
     37.5113945        0.370143913E-2      1.10515714        0.489682145E-2     0.895052612   
     37.5147285        0.375920907E-2      1.10577357        0.486098183E-2     0.895864725   
     37.5180626        0.381979789E-2      1.10639942        0.482581602E-2     0.896670938   
     37.5214005        0.388346706E-2      1.10703588        0.479127839E-2     0.897472143   
     37.5247383        0.395030528E-2      1.10768199        0.475741597E-2     0.898266912   
     37.5280724        0.402062433E-2      1.10833895        0.472419290E-2     0.899056017   
     37.5314064        0.409470499E-2      1.10900736        0.469158636E-2     0.899839878   
     37.5347404        0.417285785E-2      1.10968781        0.465959869E-2     0.900618136   
     37.5380745        0.425544661E-2      1.11038065        0.462819636E-2     0.901391268   
     37.5414085        0.434288615E-2      1.11108661        0.459737936E-2     0.902159214   
     37.5447464        0.443574740E-2      1.11180711        0.456711603E-2     0.902922809   
     37.5480843        0.453441078E-2      1.11254120        0.453743385E-2     0.903680682   
     37.5514183        0.463961251E-2      1.11329043        0.450831046E-2     0.904433727   
     37.5547523        0.475210370E-2      1.11405528        0.447972585E-2     0.905182004   
     37.5580864        0.487276027E-2      1.11483634        0.445167487E-2     0.905925453   
     37.5614204        0.500253960E-2      1.11563385        0.442414125E-2     0.906664371   
     37.5647583        0.514257327E-2      1.11644900        0.439709472E-2     0.907399476   
     37.5680923        0.529345917E-2      1.11727977        0.437058136E-2     0.908129334   
     37.5714302        0.545574538E-2      1.11812639        0.434456021E-2     0.908854961   
     37.5747643        0.562889781E-2      1.11898792        0.431901729E-2     0.909576237   
     37.5780983        0.581094902E-2      1.11986387        0.429396005E-2     0.910293400   
     37.5814323        0.599859189E-2      1.12075591        0.426936755E-2     0.911006331   
     37.5847664        0.618857658E-2      1.12166822        0.424523791E-2     0.911715209   
     37.5881042        0.638035685E-2      1.12260914        0.422153482E-2     0.912420869   
     37.5914421        0.657682912E-2      1.12358463        0.419830158E-2     0.913121879   
     37.5947762        0.678441720E-2      1.12460089        0.417550374E-2     0.913819134   
     37.5981102        0.701000262E-2      1.12566066        0.415313803E-2     0.914512515   
     37.6014442        0.725953560E-2      1.12676466        0.413119467E-2     0.915202379   
     37.6047783        0.753787905E-2      1.12791359        0.410967274E-2     0.915888548   
     37.6081161        0.784972124E-2      1.12910938        0.408853823E-2     0.916571796   
     37.6114502        0.819901470E-2      1.13035142        0.406782934E-2     0.917250991   
     37.6147881        0.859136507E-2      1.13164306        0.404751953E-2     0.917926788   
     37.6181221        0.903331209E-2      1.13298666        0.402760552E-2     0.918599188   
     37.6214561        0.953306537E-2      1.13438499        0.400807243E-2     0.919268310   
     37.6247902        0.101009095E-1      1.13584030        0.398892164E-2     0.919934273   
     37.6281242        0.107497983E-1      1.13735425        0.397014804E-2     0.920597017   
     37.6314621        0.114967125E-1      1.13892782        0.395172462E-2     0.921257377   
     37.6347961        0.123602981E-1      1.14055443        0.393368863E-2     0.921914041   
     37.6381340        0.133656906E-1      1.14222693        0.391600700E-2     0.922567666   
     37.6414680        0.145415040E-1      1.14392722        0.389868137E-2     0.923218429   
     37.6448021        0.159187727E-1      1.14562333        0.388170942E-2     0.923866391   
     37.6481361        0.175254866E-1      1.14726245        0.386507669E-2     0.924511552   
     37.6514740        0.193763860E-1      1.14876556        0.384878134E-2     0.925154507   
     37.6548080        0.214428939E-1      1.15002096        0.383283384E-2     0.925794303   
     37.6581421        0.236317981E-1      1.15090954        0.381722022E-2     0.926431417   
     37.6614799        0.257528163E-1      1.15135145        0.380193302E-2     0.927065909   
     37.6648140        0.275419801E-1      1.15139055        0.378697016E-2     0.927697897   
     37.6681480        0.287664533E-1      1.15125525        0.377233396E-2     0.928327441   
     37.6714859        0.293682180E-1      1.15130639        0.375799928E-2     0.928955138   
     37.6748199        0.295144878E-1      1.15187633        0.374398660E-2     0.929579973   
     37.6781540        0.295059942E-1      1.15313303        0.373029080E-2     0.930202484   
     37.6814880        0.296333898E-1      1.15507388        0.371690700E-2     0.930822730   
     37.6848259        0.301045962E-1      1.15760303        0.370382192E-2     0.931440711   
     37.6881599        0.310469270E-1      1.16060615        0.369103649E-2     0.932056606   
     37.6914978        0.325426571E-1      1.16399026        0.367854140E-2     0.932671010   
     37.6948318        0.346560441E-1      1.16767740        0.366635155E-2     0.933282733   
     37.6981659        0.374650806E-1      1.17161620        0.365445460E-2     0.933892488   
     37.7014999        0.410715416E-1      1.17575502        0.364284939E-2     0.934500217   
     37.7048340        0.456120633E-1      1.18002725        0.363152823E-2     0.935106099   
     37.7081718        0.512646697E-1      1.18432951        0.362049439E-2     0.935710073   
     37.7115059        0.582497753E-1      1.18848848        0.360974157E-2     0.936312318   
     37.7148438        0.668291301E-1      1.19222069        0.359926117E-2     0.936913252   
     37.7181778        0.772343576E-1      1.19505787        0.358906924E-2     0.937512040   
     37.7215118        0.896291360E-1      1.19630158        0.357914809E-2     0.938109100   
     37.7248459        0.103905968         1.19497037        0.356950355E-2     0.938704491   
     37.7281799        0.119424619         1.18988347        0.356013305E-2     0.939298272   
     37.7315178        0.134732679         1.18000269        0.355103170E-2     0.939890623   
     37.7348557        0.147573039         1.16508222        0.354219135E-2     0.940482020   
     37.7381897        0.155492038         1.14641738        0.353362155E-2     0.941071332   
     37.7415237        0.157149836         1.12671006        0.352532021E-2     0.941659272   
     37.7448578        0.153118894         1.10897005        0.351728406E-2     0.942245841   
     37.7481918        0.145480379         1.09508753        0.350950751E-2     0.942831159   
     37.7515259        0.136585832         1.08536267        0.350199500E-2     0.943415165   
     37.7548637        0.128158644         1.07902634        0.349473953E-2     0.943997920   
     37.7582016        0.121136636         1.07491446        0.348773529E-2     0.944580078   
     37.7615356        0.115866743         1.07181013        0.348099764E-2     0.945160508   
     37.7648697        0.112128675         1.06853533        0.347451260E-2     0.945739865   
     37.7682037        0.109131627         1.06417704        0.346829020E-2     0.946318150   
     37.7715378        0.105645053         1.05845344        0.346232066E-2     0.946895421   
     37.7748718        0.100500569         1.05197036        0.345660211E-2     0.947471738   
     37.7782097        0.932287872E-1      1.04597068        0.345113408E-2     0.948047638   
     37.7815475        0.843175203E-1      1.04165041        0.344592566E-2     0.948622108   
     37.7848816        0.747665316E-1      1.03954506        0.344096706E-2     0.949195743   
     37.7882156        0.655263960E-1      1.03952122        0.343626109E-2     0.949768543   
     37.7915497        0.571840480E-1      1.04108751        0.343181100E-2     0.950340629   
     37.7948837        0.499657318E-1      1.04370010        0.342760328E-2     0.950911999   
     37.7982178        0.438662991E-1      1.04691470        0.342365447E-2     0.951482654   
     37.8015556        0.387660898E-1      1.05042219        0.341995107E-2     0.952053189   
     37.8048935        0.345260464E-1      1.05401564        0.341650355E-2     0.952622652   
     37.8082275        0.309954211E-1      1.05757809        0.341330748E-2     0.953191519   
     37.8115616        0.280474853E-1      1.06104290        0.341035775E-2     0.953759849   
     37.8148956        0.255772639E-1      1.06437600        0.340766576E-2     0.954327762   
     37.8182297        0.235003270E-1      1.06756353        0.340522639E-2     0.954895258   
     37.8215675        0.217483211E-1      1.07060635        0.340303616E-2     0.955462873   
     37.8249016        0.202723481E-1      1.07350254        0.340110203E-2     0.956029594   
     37.8282394        0.190302078E-1      1.07626259        0.339941937E-2     0.956596017   
     37.8315735        0.179913212E-1      1.07889473        0.339799072E-2     0.957162142   
     37.8349075        0.171331074E-1      1.08140635        0.339682074E-2     0.957728148   
     37.8382416        0.164397564E-1      1.08380282        0.339590549E-2     0.958293915   
     37.8415794        0.159003809E-1      1.08608782        0.339524518E-2     0.958860099   
     37.8449135        0.155093679E-1      1.08825243        0.339484541E-2     0.959425628   
     37.8482475        0.152603984E-1      1.09028661        0.339470548E-2     0.959991097   
     37.8515854        0.151435174E-1      1.09216762        0.339482608E-2     0.960556626   
     37.8549194        0.151359988E-1      1.09386253        0.339520862E-2     0.961122155   
     37.8582535        0.151911173E-1      1.09533644        0.339585613E-2     0.961687803   
     37.8615913        0.152311046E-1      1.09657133        0.339676510E-2     0.962254107   
     37.8649254        0.151577350E-1      1.09759057        0.339794555E-2     0.962819993   
     37.8682594        0.148904361E-1      1.09848094        0.339939143E-2     0.963386118   
     37.8715935        0.144103076E-1      1.09936416        0.340110576E-2     0.963952482   
     37.8749313        0.137698911E-1      1.10034490        0.340309856E-2     0.964519203   
     37.8782654        0.130576761E-1      1.10147107        0.340536563E-2     0.965086281   
     37.8815994        0.123536550E-1      1.10273671        0.340790651E-2     0.965653718   
     37.8849373        0.117072277E-1      1.10410917        0.341072818E-2     0.966222167   
     37.8882713        0.111409919E-1      1.10554707        0.341383182E-2     0.966790497   
     37.8916054        0.106571680E-1      1.10702038        0.341722136E-2     0.967359424   
     37.8949394        0.102495505E-1      1.10850668        0.342089660E-2     0.967928886   
     37.8982773        0.990875252E-2      1.10999274        0.342486100E-2     0.968499005   
     37.9016113        0.962519925E-2      1.11147034        0.342911994E-2     0.969069839   
     37.9049492        0.939020421E-2      1.11293733        0.343368319E-2     0.969641924   
     37.9082832        0.919717457E-2      1.11438942        0.343853631E-2     0.970214248   
     37.9116173        0.904023647E-2      1.11582851        0.344369677E-2     0.970787346   
     37.9149513        0.891503226E-2      1.11725545        0.344915711E-2     0.971361339   
     37.9182854        0.881824642E-2      1.11867201        0.345493574E-2     0.971936285   
     37.9216232        0.874748640E-2      1.12008011        0.346102798E-2     0.972512245   
     37.9249573        0.870112237E-2      1.12148190        0.346743478E-2     0.973089218   
     37.9282951        0.867822580E-2      1.12288070        0.347417383E-2     0.973667800   
     37.9316292        0.867856387E-2      1.12427604        0.348123442E-2     0.974246979   
     37.9349632        0.870245509E-2      1.12567151        0.348862680E-2     0.974827349   
     37.9382973        0.875096768E-2      1.12706900        0.349635794E-2     0.975408971   
     37.9416351        0.882587768E-2      1.12847042        0.350442901E-2     0.975991905   
     37.9449692        0.892985146E-2      1.12987757        0.351284794E-2     0.976576269   
     37.9483070        0.906675216E-2      1.13129282        0.352163007E-2     0.977162540   
     37.9516411        0.924126711E-2      1.13271415        0.353075820E-2     0.977749765   
     37.9549751        0.945999380E-2      1.13414216        0.354025629E-2     0.978338480   
     37.9583092        0.973116141E-2      1.13557434        0.355012366E-2     0.978928864   
     37.9616432        0.100648748E-1      1.13700509        0.356036611E-2     0.979520857   
     37.9649811        0.104728611E-1      1.13842380        0.357099553E-2     0.980114579   
     37.9683151        0.109672314E-1      1.13981247        0.358201307E-2     0.980710149   
     37.9716530        0.115577942E-1      1.14114320        0.359344273E-2     0.981308103   
     37.9749870        0.122428192E-1      1.14237118        0.360526331E-2     0.981907368   
     37.9783211        0.130004222E-1      1.14344275        0.361750019E-2     0.982508659   
     37.9816551        0.137710785E-1      1.14430237        0.363016222E-2     0.983112037   
     37.9849892        0.144501133E-1      1.14492297        0.364325102E-2     0.983717561   
     37.9883270        0.149076898E-1      1.14534521        0.365677592E-2     0.984325171   
     37.9916649        0.150465528E-1      1.14569438        0.367076555E-2     0.984935760   
     37.9949989        0.148622692E-1      1.14613819        0.368520664E-2     0.985548079   
     37.9983330        0.144475289E-1      1.14680910        0.370010640E-2     0.986162841   
     38.0016670        0.139338830E-1      1.14775562        0.371548859E-2     0.986780047   
     38.0050011        0.134318247E-1      1.14895546        0.373135903E-2     0.987399876   
     38.0083351        0.130071826E-1      1.15035439        0.374772982E-2     0.988022327   
     38.0116730        0.126873031E-1      1.15189826        0.376462890E-2     0.988648236   
     38.0150108        0.124775330E-1      1.15354037        0.378203718E-2     0.989276290   
     38.0183449        0.123718204E-1      1.15525138        0.379998377E-2     0.989907265   
     38.0216789        0.123614799E-1      1.15701151        0.381847634E-2     0.990541279   
     38.0250130        0.124380486E-1      1.15880740        0.383753865E-2     0.991178393   
     38.0283470        0.125939446E-1      1.16062975        0.385717768E-2     0.991818726   
     38.0316849        0.128218019E-1      1.16247296        0.387743209E-2     0.992462933   
     38.0350189        0.131123047E-1      1.16432869        0.389826857E-2     0.993109882   
     38.0383568        0.134556266E-1      1.16619849        0.391973741E-2     0.993760407   
     38.0416908        0.138439182E-1      1.16808903        0.394184887E-2     0.994414449   
     38.0450249        0.142770093E-1      1.17001104        0.396462111E-2     0.995072246   
     38.0483589        0.147647979E-1      1.17197311        0.398806483E-2     0.995733857   
     38.0516930        0.153225297E-1      1.17397320        0.401221542E-2     0.996399343   
     38.0550308        0.159619879E-1      1.17599928        0.403711060E-2     0.997069597   
     38.0583649        0.166801531E-1      1.17802691        0.406271918E-2     0.997743309   
     38.0617027        0.174588654E-1      1.18004227        0.408908911E-2     0.998421371   
     38.0650368        0.182679873E-1      1.18204880        0.411624741E-2     0.999103844   
     38.0683708        0.190847069E-1      1.18407738        0.414421316E-2     0.999790788   
     38.0717049        0.199165232E-1      1.18617499        0.417301850E-2      1.00048244   
     38.0750427        0.208084453E-1      1.18837857        0.420270953E-2      1.00117958   
     38.0783768        0.218217019E-1      1.19068277        0.423326809E-2      1.00188112   
     38.0817108        0.230128486E-1      1.19304979        0.426474307E-2      1.00258768   
     38.0850487        0.244119260E-1      1.19541049        0.429716893E-2      1.00329947   
     38.0883827        0.260110497E-1      1.19767785        0.433057873E-2      1.00401676   
     38.0917168        0.277499147E-1      1.19976294        0.436500041E-2      1.00473952   
     38.0950508        0.295032617E-1      1.20160878        0.440047914E-2      1.00546813   
     38.0983887        0.310995281E-1      1.20324779        0.443708617E-2      1.00620329   
     38.1017227        0.323890857E-1      1.20483482        0.447478332E-2      1.00694406   
     38.1050568        0.333530605E-1      1.20661664        0.451365858E-2      1.00769091   
     38.1083946        0.341298357E-1      1.20881116        0.455373619E-2      1.00844431   
     38.1117287        0.349489190E-1      1.21151614        0.459507992E-2      1.00920451   
     38.1150627        0.360354744E-1      1.21470451        0.463773403E-2      1.00997150   
     38.1184006        0.375629552E-1      1.21827555        0.468178699E-2      1.01074636   
     38.1217346        0.396459550E-1      1.22208190        0.472722156E-2      1.01152790   
     38.1250687        0.423613451E-1      1.22596264        0.477411551E-2      1.01231694   
     38.1284027        0.457416028E-1      1.22972238        0.482254336E-2      1.01311374   
     38.1317406        0.497490577E-1      1.23312759        0.487256655E-2      1.01391876   
     38.1350746        0.542237088E-1      1.23592830        0.492425635E-2      1.01473200   
     38.1384087        0.588345565E-1      1.23794115        0.497766910E-2      1.01555395   
     38.1417465        0.631105006E-1      1.23919892        0.503295008E-2      1.01638556   
     38.1450806        0.666008145E-1      1.24006855        0.509007461E-2      1.01722562   
     38.1484146        0.691687316E-1      1.24119031        0.514915213E-2      1.01807511   
     38.1517487        0.711019635E-1      1.24318647        0.521030789E-2      1.01893449   
     38.1550865        0.729703456E-1      1.24639094        0.527361827E-2      1.01980400   
     38.1584206        0.753618330E-1      1.25080514        0.533918757E-2      1.02068412   
     38.1617584        0.787360519E-1      1.25623739        0.540720113E-2      1.02157593   
     38.1650925        0.834156200E-1      1.26241338        0.547763053E-2      1.02247822   
     38.1684265        0.896674618E-1      1.26904821        0.555067044E-2      1.02339220   
     38.1717606        0.977190062E-1      1.27580130        0.562644703E-2      1.02431822   
     38.1750946        0.107735656         1.28225410        0.570510468E-2      1.02525687   
     38.1784325        0.119766824         1.28792250        0.578679005E-2      1.02620864   
     38.1817665        0.133708134         1.29232693        0.587167218E-2      1.02717400   
     38.1851044        0.149358913         1.29509306        0.595999835E-2      1.02815425   
     38.1884384        0.166504860         1.29596281        0.605180440E-2      1.02914822   
     38.1917725        0.185113698         1.29464507        0.614735251E-2      1.03015733   
     38.1951065        0.205126360         1.29059076        0.624685362E-2      1.03118241   
     38.1984406        0.226155072         1.28306580        0.635055685E-2      1.03222382   
     38.2017784        0.247450143         1.27149951        0.645879982E-2      1.03328347   
     38.2051163        0.268168867         1.25567520        0.657165283E-2      1.03435981   
     38.2084503        0.287680477         1.23526525        0.668950565E-2      1.03545487   
     38.2117844        0.304916203         1.20955670        0.681265676E-2      1.03656936   
     38.2151184        0.317658752         1.17812037        0.694145961E-2      1.03770423   
     38.2184525        0.322930098         1.14214492        0.707628531E-2      1.03886008   
     38.2217865        0.318657100         1.10486126        0.721752690E-2      1.04003823   
     38.2251244        0.305020511         1.07021677        0.736576645E-2      1.04124069   
     38.2284622        0.284200221         1.04123127        0.752117857E-2      1.04246628   
     38.2317963        0.258932054         1.01916409        0.768446364E-2      1.04371727   
     38.2351303        0.231633827         1.00415778        0.785613898E-2      1.04499507   
     38.2384644        0.204282105        0.995755196        0.803685095E-2      1.04630077   
     38.2417984        0.178464517        0.993056238        0.822727755E-2      1.04763603   
     38.2451363        0.155241907        0.994825244        0.842836685E-2      1.04900372   
     38.2484741        0.135159239        0.999733686        0.864057150E-2      1.05040252   
     38.2518082        0.118217103         1.00662374        0.886497274E-2      1.05183589   
     38.2551422        0.104160279         1.01461661        0.910259876E-2      1.05330539   
     38.2584763        0.926209837E-1      1.02310526        0.935455784E-2      1.05481327   
     38.2618103        0.832211524E-1      1.03169811        0.962210633E-2      1.05636179   
     38.2651443        0.756231695E-1      1.04015315        0.990664959E-2      1.05795312   
     38.2684822        0.695423707E-1      1.04833066        0.102100354E-1      1.05959177   
     38.2718201        0.647692084E-1      1.05611813        0.105334483E-1      1.06127715   
     38.2751541        0.611235090E-1      1.06344545        0.108790975E-1      1.06301379   
     38.2784882        0.584606454E-1      1.07022738        0.112492498E-1      1.06480515   
     38.2818222        0.566346310E-1      1.07635629        0.116463769E-1      1.06665480   
     38.2851562        0.554569773E-1      1.08170652        0.120733855E-1      1.06856668   
     38.2884941        0.546530671E-1      1.08617830        0.125339413E-1      1.07054710   
     38.2918282        0.538587384E-1      1.08976758        0.130309202E-1      1.07259667   
     38.2951660        0.526990891E-1      1.09268379        0.135690216E-1      1.07472265   
     38.2985001        0.509559549E-1      1.09532738        0.141532067E-1      1.07693052   
     38.3018341        0.486818515E-1      1.09813797        0.147892153E-1      1.07922661   
     38.3051682        0.461427979E-1      1.10140252        0.154837174E-1      1.08161759   
     38.3085022        0.436500236E-1      1.10519028        0.162445884E-1      1.08411109   
     38.3118401        0.414320417E-1      1.10942519        0.170819033E-1      1.08671784   
     38.3151741        0.396155640E-1      1.11396849        0.180049613E-1      1.08944142   
     38.3185120        0.382422879E-1      1.11870468        0.190276280E-1      1.09229457   
     38.3218460        0.373167694E-1      1.12354624        0.201654918E-1      1.09528768   
     38.3251801        0.368322842E-1      1.12843513        0.214374680E-1      1.09843206   
     38.3285141        0.367867276E-1      1.13333273        0.228664409E-1      1.10173988   
     38.3318520        0.371916480E-1      1.13821411        0.244821496E-1      1.10522699   
     38.3351860        0.380738899E-1      1.14303732        0.263159275E-1      1.10889900   
     38.3385201        0.394788086E-1      1.14775908        0.284118671E-1      1.11277056   
     38.3418579        0.414661542E-1      1.15230083        0.308229439E-1      1.11685026   
     38.3451920        0.440998189E-1      1.15653360        0.336148776E-1      1.12114108   
     38.3485260        0.474230610E-1      1.16025591        0.368691087E-1      1.12563634   
     38.3518600        0.514077395E-1      1.16317654        0.406854637E-1      1.13031232   
     38.3551979        0.558751300E-1      1.16493130        0.451880544E-1      1.13512099   
     38.3585320        0.603787713E-1      1.16516817        0.505036637E-1      1.13995433   
     38.3618660        0.641979128E-1      1.16376543        0.567742847E-1      1.14464903   
     38.3652039        0.664906055E-1      1.16107452        0.641059056E-1      1.14894080   
     38.3685379        0.667000711E-1      1.15798080        0.725045726E-1      1.15245640   
     38.3718719        0.649114102E-1      1.15557265        0.817705616E-1      1.15475011   
     38.3752098        0.617962070E-1      1.15463066        0.914054140E-1      1.15544820   
     38.3785439        0.582228079E-1      1.15538311        0.100598313         1.15452194   
     38.3818779        0.548729077E-1      1.15762532        0.108589083         1.15253925   
     38.3852119        0.521378256E-1      1.16098309        0.115143567         1.15057063   
     38.3885498        0.501765423E-1      1.16509509        0.120852612         1.14964652   
     38.3918839        0.490220264E-1      1.16968131        0.126867399         1.15016747   
     38.3952217        0.486649424E-1      1.17454481        0.134328321         1.15174747   
     38.3985558        0.490972139E-1      1.17951393        0.143889740         1.15346169   
     38.4018898        0.503148064E-1      1.18443012        0.155610695         1.15427446   
     38.4052238        0.522974767E-1      1.18909860        0.169057101         1.15343583   
     38.4085579        0.549641773E-1      1.19328213        0.183718920         1.15071130   
     38.4118958        0.581125021E-1      1.19672608        0.199537203         1.14616454   
     38.4152336        0.613703653E-1      1.19924736        0.217067838         1.13944817   
     38.4185677        0.642120317E-1      1.20087528        0.236800224         1.12917829   
     38.4219017        0.661551654E-1      1.20198274        0.258161396         1.11294818   
     38.4252357        0.670029372E-1      1.20320225        0.278523922         1.08835995   
     38.4285698        0.669549182E-1      1.20515740        0.293235153         1.05477285   
     38.4319038        0.664655045E-1      1.20822835        0.297237247         1.01490688   
     38.4352417        0.660234392E-1      1.21252096        0.287889540        0.974631071   
     38.4385796        0.660291687E-1      1.21796942        0.266719699        0.940274358   
     38.4419136        0.667710081E-1      1.22441435        0.238437429        0.915730774   
     38.4452477        0.684450641E-1      1.23169935        0.208103254        0.901390433   
     38.4485817        0.711917803E-1      1.23968756        0.179319128        0.895474255   
     38.4519157        0.751354545E-1      1.24827886        0.153882697        0.895551324   
     38.4552498        0.804190785E-1      1.25740337        0.132296041        0.899461865   
     38.4585876        0.872386321E-1      1.26701427        0.114352398        0.905616403   
     38.4619255        0.958368629E-1      1.27702594        0.996190831E-1     0.912934840   
     38.4652596        0.106561340         1.28733909        0.875541717E-1     0.920752525   
     38.4685936        0.119856738         1.29776025        0.776779577E-1     0.928668082   
     38.4719276        0.136282548         1.30794549        0.695864931E-1     0.936452866   
     38.4752617        0.156508908         1.31730402        0.629539937E-1     0.943983734   
     38.4785957        0.181269377         1.32485509        0.575252771E-1     0.951200843   
     38.4819336        0.211252913         1.32904112        0.531004705E-1     0.958086312   
     38.4852715        0.246660993         1.32751608        0.495412871E-1     0.964619577   
     38.4886055        0.286776572         1.31710672        0.467358865E-1     0.970804691   
     38.4919395        0.328955561         1.29418731        0.446085781E-1     0.976632297   
     38.4952736        0.367849350         1.25600815        0.431066975E-1     0.982076228   
     38.4986076        0.395766705         1.20300937        0.421868600E-1     0.987082958   
     38.5019455        0.405344933         1.14069104        0.417944901E-1     0.991566598   
     38.5052795        0.393631995         1.07888067        0.418311059E-1     0.995393038   
     38.5086174        0.364106894         1.02699375        0.421087779E-1     0.998434424   
     38.5119514        0.324319512        0.990119338        0.423264615E-1      1.00062370   
     38.5152855        0.281817913        0.968312383        0.421128310E-1      1.00206518   
     38.5186195        0.241691709        0.958661795        0.411726497E-1      1.00308776   
     38.5219536        0.206369191        0.957543254        0.394522622E-1      1.00414717   
     38.5252914        0.176436394        0.961850941        0.371609777E-1      1.00561976   
     38.5286255        0.151625738        0.969311893        0.346362814E-1      1.00765824   
     38.5319633        0.131218582        0.978427947        0.321633480E-1      1.01022232   
     38.5352974        0.114466541        0.988260329        0.299129859E-1      1.01317656   
     38.5386314        0.100687809        0.998246729        0.279518832E-1      1.01637697   
     38.5419693        0.892975330E-1      1.00807500        0.262813438E-1      1.01971209   
     38.5453033        0.798509642E-1      1.01755321        0.248775501E-1      1.02309680   
     38.5486374        0.719644800E-1      1.02660894        0.237021539E-1      1.02648520   
     38.5519714        0.653447732E-1      1.03521287        0.227190368E-1      1.02984929   
     38.5553093        0.597608611E-1      1.04336762        0.218964852E-1      1.03317487   
     38.5586433        0.550310872E-1      1.05109191        0.212077983E-1      1.03645575   
     38.5619774        0.510123521E-1      1.05841446        0.206315275E-1      1.03969121   
     38.5653114        0.475920290E-1      1.06536663        0.201501846E-1      1.04288352   
     38.5686493        0.446790271E-1      1.07198799        0.197495874E-1      1.04603970   
     38.5719833        0.422099493E-1      1.07829714        0.194192659E-1      1.04915798   
     38.5753212        0.401287116E-1      1.08433020        0.191498902E-1      1.05224681   
     38.5786552        0.383958779E-1      1.09011364        0.189342089E-1      1.05531108   
     38.5819893        0.369837880E-1      1.09566975        0.187663268E-1      1.05835617   
     38.5853271        0.358743928E-1      1.10102022        0.186414216E-1      1.06139004   
     38.5886612        0.350624397E-1      1.10616398        0.185557939E-1      1.06441152   
     38.5919952        0.345476493E-1      1.11110437        0.185062066E-1      1.06742835   
     38.5953293        0.343367159E-1      1.11582434        0.184900407E-1      1.07044482   
     38.5986671        0.344362743E-1      1.12028432        0.185052268E-1      1.07346559   
     38.6020012        0.348407030E-1      1.12441647        0.185500626E-1      1.07649481   
     38.6053352        0.355100483E-1      1.12812316        0.186231919E-1      1.07953656   
     38.6086731        0.363394655E-1      1.13129568        0.187236629E-1      1.08259761   
     38.6120071        0.371299610E-1      1.13385105        0.188505314E-1      1.08567631   
     38.6153412        0.376120657E-1      1.13583148        0.190031901E-1      1.08877969   
     38.6186752        0.375407338E-1      1.13745046        0.191814024E-1      1.09191060   
     38.6220131        0.368338153E-1      1.13905048        0.193848368E-1      1.09507418   
     38.6253471        0.356259495E-1      1.14094996        0.196136404E-1      1.09827363   
     38.6286850        0.341792032E-1      1.14331198        0.198680889E-1      1.10151613   
     38.6320190        0.327522606E-1      1.14612186        0.201480296E-1      1.10479927   
     38.6353531        0.315139629E-1      1.14927149        0.204541143E-1      1.10813022   
     38.6386871        0.305424519E-1      1.15262222        0.207869131E-1      1.11151290   
     38.6420212        0.298464075E-1      1.15604579        0.211471599E-1      1.11495209   
     38.6453590        0.293848906E-1      1.15943944        0.215357281E-1      1.11845183   
     38.6486931        0.290794764E-1      1.16273761        0.219536852E-1      1.12201631   
     38.6520309        0.288308039E-1      1.16593146        0.224026740E-1      1.12565410   
     38.6553650        0.285538305E-1      1.16906595        0.228830930E-1      1.12936246   
     38.6586990        0.282165390E-1      1.17223692        0.233969819E-1      1.13315082   
     38.6620331        0.278521832E-1      1.17553079        0.239459816E-1      1.13702416   
     38.6653671        0.275304578E-1      1.17899060        0.245321039E-1      1.14098763   
     38.6687050        0.273189936E-1      1.18261540        0.251573846E-1      1.14504755   
     38.6720428        0.272643846E-1      1.18638539        0.258249398E-1      1.14921415   
     38.6753769        0.273935180E-1      1.19026637        0.265361462E-1      1.15348601   
     38.6787109        0.277223531E-1      1.19424105        0.272945035E-1      1.15787375   
     38.6820450        0.282650683E-1      1.19829524        0.281033553E-1      1.16238499   
     38.6853790        0.290398803E-1      1.20241964        0.289662965E-1      1.16702771   
     38.6887131        0.300728120E-1      1.20660543        0.298873577E-1      1.17181039   
     38.6920509        0.314001590E-1      1.21083963        0.308710374E-1      1.17674220   
     38.6953888        0.330718420E-1      1.21510291        0.319233164E-1      1.18183732   
     38.6987228        0.351447016E-1      1.21934474        0.330478400E-1      1.18709683   
     38.7020569        0.376889855E-1      1.22349560        0.342516936E-1      1.19253683   
     38.7053909        0.407719612E-1      1.22743499        0.355419107E-1      1.19816911   
     38.7087250        0.444353111E-1      1.23097765        0.369262137E-1      1.20400715   
     38.7120628        0.486533418E-1      1.23386800        0.384150818E-1      1.21007121   
     38.7153969        0.532469228E-1      1.23579228        0.400152169E-1      1.21636462   
     38.7187347        0.578404814E-1      1.23648465        0.417393185E-1      1.22290981   
     38.7220688        0.618478060E-1      1.23587584        0.436000116E-1      1.22972608   
     38.7254028        0.646218657E-1      1.23425674        0.456117839E-1      1.23683190   
     38.7287369        0.657219514E-1      1.23229575        0.477906615E-1      1.24424982   
     38.7320709        0.651420727E-1      1.23083854        0.501557216E-1      1.25200403   
     38.7354050        0.633293614E-1      1.23058963        0.527282692E-1      1.26011968   
     38.7387428        0.609714538E-1      1.23188496        0.555359162E-1      1.26863551   
     38.7420807        0.587276034E-1      1.23467898        0.586017855E-1      1.27756524   
     38.7454147        0.570518225E-1      1.23871040        0.619619377E-1      1.28695250   
     38.7487488        0.561949611E-1      1.24366653        0.656547546E-1      1.29683566   
     38.7520828        0.562728681E-1      1.24927557        0.697261021E-1      1.30725646   
     38.7554207        0.573419631E-1      1.25533462        0.742340758E-1      1.31827331   
     38.7587547        0.594435632E-1      1.26167202        0.792334154E-1      1.32991683   
     38.7620888        0.626356378E-1      1.26815808        0.848035663E-1      1.34225345   
     38.7654266        0.669997111E-1      1.27465820        0.910351649E-1      1.35534513   
     38.7687607        0.726471543E-1      1.28101909        0.980372578E-1      1.36925983   
     38.7720947        0.797290280E-1      1.28704286        0.105941780         1.38407278   
     38.7754288        0.884455517E-1      1.29243743        0.114910096         1.39986002   
     38.7787666        0.990305841E-1      1.29672837        0.125150651         1.41672182   
     38.7821007        0.111591808         1.29913640        0.136887267         1.43470836   
     38.7854347        0.125931308         1.29856288        0.150433838         1.45391297   
     38.7887726        0.141164631         1.29371583        0.166168183         1.47440028   
     38.7921066        0.155435801         1.28359556        0.184566244         1.49620557   
     38.7954407        0.166041270         1.26832402        0.206223890         1.51930952   
     38.7987785        0.170374349         1.24982274        0.231914818         1.54361856   
     38.8021126        0.167375803         1.23155665        0.262514472         1.56880450   
     38.8054466        0.158280134         1.21687925        0.299170852         1.59433246   
     38.8087807        0.145791873         1.20761096        0.343188524         1.61921442   
     38.8121185        0.132635146         1.20376825        0.395960450         1.64179528   
     38.8154526        0.120660841         1.20428956        0.458700538         1.65949094   
     38.8187866        0.110756122         1.20784509        0.531915009         1.66857684   
     38.8221245        0.103130378         1.21330237        0.614636779         1.66429317   
     38.8254585        0.976697281E-1      1.21985304        0.703184962         1.64167213   
     38.8287926        0.941459537E-1      1.22703099        0.791348815         1.59709215   
     38.8321266        0.924145281E-1      1.23458612        0.871011674         1.52983224   
     38.8354645        0.924725458E-1      1.24234319        0.933751822         1.44263005   
     38.8387985        0.944344997E-1      1.25007749        0.971935034         1.34175849   
     38.8421364        0.984738618E-1      1.25744748        0.980356395         1.23750436   
     38.8454704        0.104737863         1.26392078        0.959682941         1.14356673   
     38.8488045        0.113279551         1.26876998        0.918562353         1.07161367   
     38.8521385        0.123882428         1.27101755        0.870615363         1.02645516   
     38.8554726        0.135808825         1.26952946        0.828793526         1.00501573   
     38.8588104        0.147542402         1.26335955        0.801729381        0.999169469   
     38.8621445        0.156819224         1.25240278        0.793043256        0.998902798   
     38.8654823        0.161316007         1.23801374        0.801838994        0.994220793   
     38.8688164        0.159845665         1.22293675        0.822959542        0.976494968   
     38.8721504        0.153135687         1.21002305        0.847401798        0.940285921   
     38.8754845        0.143291309         1.20092940        0.864076793        0.885585308   
     38.8788185        0.132540420         1.19571245        0.863419771        0.818623602   
     38.8821602        0.122298203         1.19340503        0.840898573        0.749721766   
     38.8854942        0.113019988         1.19284832        0.798283637        0.689783871   
     38.8888283        0.104456656         1.19325244        0.742277622        0.646584034   
     38.8921623        0.961872339E-1      1.19438887        0.681971192        0.623184800   
     38.8954964        0.880093500E-1      1.19641483        0.625828803        0.617922783   
     38.8988304        0.800524130E-1      1.19953084        0.579733312        0.626114368   
     38.9021645        0.726169273E-1      1.20374262        0.546681523        0.642007470   
     38.9055023        0.659598261E-1      1.20885420        0.527401507        0.659899950   
     38.9088402        0.601907521E-1      1.21459043        0.520880818        0.674441278   
     38.9121742        0.553084277E-1      1.22067869        0.524363816        0.680677772   
     38.9155083        0.512215011E-1      1.22692716        0.532935500        0.674757898   
     38.9188423        0.478183143E-1      1.23320556        0.539679110        0.655369997   
     38.9221764        0.449877456E-1      1.23943555        0.537399769        0.625401855   
     38.9255142        0.426288880E-1      1.24558103        0.521874845        0.591669083   
     38.9288521        0.406631790E-1      1.25161099        0.494130969        0.561838388   
     38.9321861        0.390201509E-1      1.25752640        0.459043413        0.540387392   
     38.9355202        0.376449414E-1      1.26333034        0.421830028        0.527614713   
     38.9388542        0.364934355E-1      1.26903069        0.385484904        0.521385908   
     38.9421883        0.355301760E-1      1.27463746        0.350612849        0.519586623   
     38.9455223        0.347266011E-1      1.28016138        0.316824287        0.521379352   
     38.9488602        0.340589844E-1      1.28561914        0.284098148        0.526905358   
     38.9521980        0.335098021E-1      1.29101086        0.253236413        0.536252975   
     38.9555321        0.330629610E-1      1.29635239        0.225134641        0.548935294   
     38.9588661        0.327057987E-1      1.30165339        0.200373769        0.564015865   
     38.9622002        0.324278660E-1      1.30692339        0.179055616        0.580498159   
     38.9655342        0.322204791E-1      1.31217074        0.160942227        0.597566128   
     38.9688721        0.320762917E-1      1.31740868        0.145624101        0.614671707   
     38.9722061        0.319895335E-1      1.32263470        0.132704943        0.631428480   
     38.9755440        0.319549479E-1      1.32786083        0.121775202        0.647660971   
     38.9788780        0.319682658E-1      1.33309388        0.112498052        0.663276315   
     38.9822121        0.320258960E-1      1.33834004        0.104595207        0.678248882   
     38.9855461        0.321248062E-1      1.34360516        0.978410915E-1     0.692588747   
     38.9888802        0.322624706E-1      1.34889519        0.920551121E-1     0.706329465   
     38.9922180        0.324369185E-1      1.35422063        0.870882720E-1     0.719526768   
     38.9955521        0.326460414E-1      1.35957634        0.828351304E-1     0.732205451   
     38.9988899        0.328885168E-1      1.36497259        0.791988671E-1     0.744429231   
     39.0022240        0.331631340E-1      1.37041438        0.761064366E-1     0.756249011   
     39.0055580        0.334689207E-1      1.37590635        0.735007301E-1     0.767714143   
     39.0088921        0.338051021E-1      1.38145328        0.713372380E-1     0.778873086   
     39.0122299        0.341714658E-1      1.38706541        0.695808679E-1     0.789783180   
     39.0155640        0.345668830E-1      1.39273620        0.682105720E-1     0.800467908   
     39.0188980        0.349914394E-1      1.39847600        0.672086179E-1     0.810981750   
     39.0222359        0.354449973E-1      1.40428913        0.665667579E-1     0.821367621   
     39.0255699        0.359275602E-1      1.41018009        0.662846118E-1     0.831668019   
     39.0289040        0.364392549E-1      1.41615367        0.663692132E-1     0.841925442   
     39.0322380        0.369803160E-1      1.42221451        0.668357313E-1     0.852181792   
     39.0355759        0.375516601E-1      1.42837334        0.677096024E-1     0.862490177   
     39.0389099        0.381526351E-1      1.43462276        0.690233856E-1     0.872874320   
     39.0422440        0.387843251E-1      1.44097376        0.708239302E-1     0.883387864   
     39.0455818        0.394473933E-1      1.44743133        0.731725246E-1     0.894076109   
     39.0489159        0.401425920E-1      1.45400047        0.761472732E-1     0.904983819   
     39.0522499        0.408707783E-1      1.46068645        0.798486397E-1     0.916154325   
     39.0555878        0.416336693E-1      1.46750140        0.844098628E-1     0.927638233   
     39.0589218        0.424308479E-1      1.47443748        0.899859071E-1     0.939445376   
     39.0622559        0.432642028E-1      1.48150694        0.967888907E-1     0.951602876   
     39.0655899        0.441350117E-1      1.48871577        0.105083629        0.964100301   
     39.0689278        0.450446829E-1      1.49607015        0.115205131        0.976879895   
     39.0722618        0.459947065E-1      1.50357628        0.127574190        0.989805281   
     39.0755959        0.469867364E-1      1.51124096        0.142708391         1.00260961   
     39.0789337        0.480235592E-1      1.51907861        0.161238894         1.01482761   
     39.0822678        0.491050668E-1      1.52708125        0.183799744         1.02563131   
     39.0856018        0.502343178E-1      1.53526378        0.211018562         1.03374803   
     39.0889359        0.514134951E-1      1.54363418        0.243189022         1.03725338   
     39.0922737        0.526450090E-1      1.55220032        0.279803306         1.03353989   
     39.0956116        0.539326705E-1      1.56097984        0.318900108         1.01962328   
     39.0989456        0.552767366E-1      1.56996429        0.356334537        0.993218839   
     39.1022797        0.566814058E-1      1.57917166        0.386309475        0.954322457   
     39.1056137        0.581498407E-1      1.58861184        0.403046548        0.906568289   
     39.1089478        0.596854761E-1      1.59829521        0.403484941        0.856722951   
     39.1122818        0.612919852E-1      1.60823274        0.388846636        0.812213898   
     39.1156197        0.629733354E-1      1.61843586        0.363972723        0.778336048   
     39.1189575        0.647355542E-1      1.62892723        0.335081309        0.756819069   
     39.1222916        0.665798113E-1      1.63969922        0.307666570        0.746279597   
     39.1256256        0.685127601E-1      1.65077567        0.285187572        0.743479788   
     39.1289597        0.705397502E-1      1.66217089        0.269154966        0.744699240   
     39.1322937        0.726665780E-1      1.67389989        0.259488314        0.746392727   
     39.1356277        0.748995245E-1      1.68597925        0.254776448        0.745518446   
     39.1389656        0.772476867E-1      1.69843793        0.252362996        0.739946008   
     39.1423035        0.797138810E-1      1.71127009        0.248714671        0.729209602   
     39.1456375        0.823082998E-1      1.72450709        0.240521431        0.715046346   
     39.1489716        0.850396082E-1      1.73816967        0.226274014        0.700901449   
     39.1523056        0.879172385E-1      1.75227952        0.206954926        0.690194011   
     39.1556396        0.909514800E-1      1.76686025        0.185124338        0.684733272   
     39.1589737        0.941534936E-1      1.78193665        0.163367659        0.684484422   
     39.1623116        0.975389108E-1      1.79755116        0.143365547        0.688347220   
     39.1656494        0.101114534         1.81370187        0.125897288        0.694970191   
     39.1689835        0.104898199         1.83043432        0.111039437        0.703218341   
     39.1723175        0.108905986         1.84778178        0.985684916E-1     0.712278008   
     39.1756516        0.113155551         1.86577916        0.881468356E-1     0.721619964   
     39.1789856        0.117666341         1.88446462        0.794309527E-1     0.730923057   
     39.1823235        0.122464597         1.90389824        0.721073374E-1     0.740012407   
     39.1856575        0.127564684         1.92408633        0.659330934E-1     0.748776317   
     39.1889954        0.132997364         1.94509530        0.606914163E-1     0.757182002   
     39.1923294        0.138791725         1.96697640        0.562143922E-1     0.765218616   
     39.1956635        0.144980058         1.98978543        0.523679256E-1     0.772894979   
     39.1989975        0.151598349         2.01358271        0.490450151E-1     0.780228138   
     39.2023315        0.158686817         2.03843355        0.461603142E-1     0.787241280   
     39.2056694        0.166298106         2.06443524        0.436423756E-1     0.793964684   
     39.2090034        0.174467891         2.09161520        0.414405428E-1     0.800410509   
     39.2123413        0.183260098         2.12008214        0.395070761E-1     0.806608915   
     39.2156754        0.192738697         2.14992881        0.378047749E-1     0.812582552   
     39.2190094        0.202976048         2.18125629        0.363035537E-1     0.818353295   
     39.2223434        0.214054286         2.21417522        0.349781178E-1     0.823940158   
     39.2256813        0.226078913         2.24884152        0.338067971E-1     0.829367280   
     39.2290154        0.239133209         2.28532124        0.327744409E-1     0.834640622   
     39.2323532        0.253350496         2.32379508        0.318653919E-1     0.839781642   
     39.2356873        0.268871009         2.36442375        0.310675930E-1     0.844804227   
     39.2390213        0.285856485         2.40738702        0.303710680E-1     0.849723101   
     39.2423553        0.304494262         2.45288277        0.297673065E-1     0.854549825   
     39.2456894        0.325002044         2.50112891        0.292494278E-1     0.859297156   
     39.2490273        0.347657233         2.55241966        0.288111325E-1     0.863980114   
     39.2523613        0.372714013         2.60692477        0.284488685E-1     0.868600726   
     39.2556992        0.400544554         2.66499043        0.281584393E-1     0.873173475   
     39.2590332        0.431564599         2.72694731        0.279370658E-1     0.877708793   
     39.2623672        0.466268808         2.79316139        0.277828649E-1     0.882215858   
     39.2657051        0.505289257         2.86410975        0.276946723E-1     0.886708677   
     39.2690392        0.549262583         2.94010067        0.276722629E-1     0.891187370   
     39.2723732        0.599086046         3.02169013        0.277160164E-1     0.895665526   
     39.2757072        0.655808032         3.10940909        0.278272815E-1     0.900152385   
     39.2790451        0.720712721         3.20382667        0.280083995E-1     0.904657006   
     39.2823792        0.795382261         3.30553842        0.282624885E-1     0.909188986   
     39.2857132        0.881778777         3.41514730        0.285940878E-1     0.913757443   
     39.2890511        0.982455373         3.53334260        0.290095489E-1     0.918376744   
     39.2923851         1.10028899         3.66036463        0.295154918E-1     0.923047245   
     39.2957191         1.23924077         3.79658198        0.301218703E-1     0.927783251   
     39.2990532         1.40420485         3.94185138        0.308406372E-1     0.932594299   
     39.3023911         1.60137522         4.09531307        0.316869542E-1     0.937489688   
     39.3057251         1.83856285         4.25488377        0.326798744E-1     0.942476988   
     39.3090630         2.12582445         4.41658306        0.338441022E-1     0.947567463   
     39.3123970         2.47449780         4.57258749        0.352069773E-1     0.952752829   
     39.3157310         2.89866781         4.71015739        0.368055217E-1     0.958033144   
     39.3190651         3.41291475         4.80807161        0.386824496E-1     0.963392496   
     39.3223991         4.02924681         4.83302021        0.408856533E-1     0.968796670   
     39.3257370         4.74986410         4.73608685        0.434621535E-1     0.974185050   
     39.3290710         5.55419922         4.45289707        0.464438312E-1     0.979459465   
     39.3324089         6.38213348         3.91383147        0.498233438E-1     0.984485507   
     39.3357430         7.11860275         3.07609892        0.534979030E-1     0.989088833   
     39.3390770         7.61395597         1.96538568        0.572486594E-1     0.993144929   
     39.3424110         7.73891115        0.705185950        0.607393049E-1     0.996668279   
     39.3457451         7.45790243       -0.515786886        0.636420026E-1     0.999918222   
     39.3490829         6.85126257        -1.52762079        0.658404306E-1      1.00336254   
     39.3524208         6.06406641        -2.24718428        0.675451383E-1      1.00747180   
     39.3557549         5.23705435        -2.67961550        0.691900104E-1      1.01247954   
     39.3590889         4.46155024        -2.88340282        0.712345913E-1      1.01834655   
     39.3624229         3.78076625        -2.92740536        0.740128309E-1      1.02482677   
     39.3657570         3.20482397        -2.87021780        0.776876733E-1      1.03156960   
     39.3690910         2.72678232        -2.75437212        0.822368637E-1      1.03818977   
     39.3724289         2.33318663        -2.60807610        0.874265581E-1      1.04433382   
     39.3757668         2.00928450        -2.44883180        0.928012431E-1      1.04981101   
     39.3791008         1.74257302        -2.28752398        0.977567211E-1      1.05475187   
     39.3824348         1.52165663        -2.13004470        0.101839915         1.05972934   
     39.3857689         1.33756661        -1.97963667        0.105031617         1.06556487   
     39.3891029         1.18314946        -1.83784795        0.107807204         1.07295763   
     39.3924370         1.05274320        -1.70522261        0.110888526         1.08223057   
     39.3957748        0.941773534        -1.58161116        0.114955708         1.09337270   
     39.3991127        0.846911907        -1.46689820        0.120507419         1.10617304   
     39.4024467        0.765226722        -1.36044312        0.127912715         1.12043619   
     39.4057808        0.694469869        -1.26165771        0.137482107         1.13600302   
     39.4091148        0.632834911        -1.16993952        0.149547532         1.15276456   
     39.4124489        0.578861535        -1.08470106        0.164521873         1.17063451   
     39.4157829        0.531361997        -1.00538778        0.182943180         1.18950593   
     39.4191208        0.489325494       -0.931414723        0.205538779         1.20921600   
     39.4224586        0.452032626       -0.862452984        0.233169302         1.22938657   
     39.4257927        0.418777019       -0.797997713        0.266989648         1.24942064   
     39.4291267        0.389006257       -0.737659335        0.308366090         1.26824546   
     39.4324608        0.362257510       -0.681085110        0.358824521         1.28406322   
     39.4357986        0.338119090       -0.627907991        0.419884264         1.29399359   
     39.4391327        0.316307843       -0.577943802        0.492247552         1.29363894   
     39.4424667        0.296518624       -0.530881166        0.575068474         1.27694392   
     39.4458046        0.278512061       -0.486487269        0.664056957         1.23672163   
     39.4491386        0.262082696       -0.444551229        0.749867916         1.16690779   
     39.4524727        0.247053429       -0.404883385        0.818350315         1.06675494   
     39.4558067        0.233271107       -0.367311120        0.854978800        0.944772959   
     39.4591408        0.220602766       -0.331678748        0.852376342        0.817661285   
     39.4624786        0.208921641       -0.297812343        0.814438581        0.702649593   
     39.4658127        0.198149055       -0.265649080        0.752769887        0.610218644   
     39.4691505        0.188184336       -0.235038161        0.679146826        0.542270184   
     39.4724846        0.178949222       -0.205872655        0.601800561        0.496523142   
     39.4758186        0.170374677       -0.178055048        0.525929868        0.469784260   
     39.4791565        0.162392095       -0.151470900        0.455092967        0.458735943   
     39.4824905        0.154962689       -0.126089811        0.391853780        0.459810019   
     39.4858246        0.148030117       -0.101810575        0.337228835        0.469359040   
     39.4891586        0.141551316       -0.785640478E-1     0.291138589        0.484230220   
     39.4924965        0.135487720       -0.562872887E-1     0.252779931        0.502033591   
     39.4958305        0.129804790       -0.349214077E-1     0.221060306        0.521140754   
     39.4991646        0.124471419       -0.144126415E-1     0.194871172        0.540520549   
     39.5025024        0.119454950        0.530761480E-2     0.173203528        0.559589148   
     39.5058365        0.114739858        0.242472887E-1     0.155267984        0.577982664   
     39.5091705        0.110298276        0.424687266E-1     0.140367746        0.595567763   
     39.5125046        0.106109589        0.600112081E-1     0.127967328        0.612297416   
     39.5158424        0.102154985        0.769119263E-1     0.117644340        0.628186703   
     39.5191765        0.984173790E-1     0.932050347E-1     0.109070338        0.643283784   
     39.5225143        0.948779359E-1     0.108937383        0.101984695        0.657670617   
     39.5258484        0.915293097E-1     0.124108255        0.962076038E-1     0.671394289   
     39.5291824        0.883550122E-1     0.138760746        0.915884078E-1     0.684547424   
     39.5325165        0.853431895E-1     0.152920902        0.880267471E-1     0.697206974   
     39.5358505        0.824829563E-1     0.166613042        0.854606852E-1     0.709446192   
     39.5391884        0.797643363E-1     0.179859638        0.838633478E-1     0.721331477   
     39.5425224        0.771781579E-1     0.192682087        0.832437053E-1     0.732922077   
     39.5458603        0.747136325E-1     0.205112278        0.836487785E-1     0.744274497   
     39.5491943        0.723677650E-1     0.217144668        0.851641968E-1     0.755392075   
     39.5525284        0.701309219E-1     0.228809118        0.879228339E-1     0.766282678   
     39.5558624        0.679964423E-1     0.240122259        0.921095610E-1     0.776894629   
     39.5592003        0.659582093E-1     0.251099706        0.979657322E-1     0.787100255   
     39.5625343        0.640105158E-1     0.261756063        0.105784804        0.796650112   
     39.5658722        0.621463060E-1     0.272115052        0.115900449        0.805118680   
     39.5692062        0.603643246E-1     0.282169580        0.128574729        0.811784148   
     39.5725403        0.586581528E-1     0.291942418        0.143902853        0.815594137   
     39.5758743        0.570235513E-1     0.301445007        0.161490709        0.815117359   
     39.5792084        0.554565936E-1     0.310688436        0.180059940        0.808766723   
     39.5825462        0.539535806E-1     0.319683254        0.197125405        0.795442164   
     39.5858803        0.525110923E-1     0.328439236        0.209267750        0.775579035   
     39.5892181        0.511246063E-1     0.336974084        0.213444397        0.751865208   
     39.5925522        0.497938246E-1     0.345279992        0.208768606        0.728670418   
     39.5958862        0.485145636E-1     0.353373826        0.197152674        0.709857106   
     39.5992203        0.472841896E-1     0.361263514        0.182037175        0.697181344   
     39.6025543        0.461002588E-1     0.368956923        0.166575223        0.690205455   
     39.6058922        0.449593700E-1     0.376468241        0.152635425        0.687338233   
     39.6092300        0.438615754E-1     0.383790016        0.140875116        0.686880171   
     39.6125641        0.428037047E-1     0.390936077        0.131152838        0.687548518   
     39.6158981        0.417838469E-1     0.397912621        0.123073660        0.688528657   
     39.6192322        0.408002138E-1     0.404725790        0.116175547        0.689277768   
     39.6225662        0.398510918E-1     0.411381066        0.109871283        0.689436674   
     39.6259003        0.389348939E-1     0.417884111        0.103433229        0.688981652   
     39.6292381        0.380501226E-1     0.424239874        0.962559506E-1     0.688364387   
     39.6325760        0.371945277E-1     0.430459499        0.882005617E-1     0.688324273   
     39.6359100        0.363684334E-1     0.436535478        0.796760842E-1     0.689450085   
     39.6392441        0.355697274E-1     0.442478538        0.712863952E-1     0.691903830   
     39.6425781        0.347972140E-1     0.448292971        0.635281280E-1     0.695483446   
     39.6459122        0.340497531E-1     0.453982830        0.566558428E-1     0.699834585   
     39.6492500        0.333255939E-1     0.459557652        0.507155471E-1     0.704622865   
     39.6525841        0.326251052E-1     0.465010226        0.456535220E-1     0.709579229   
     39.6559219        0.319466293E-1     0.470349729        0.413513333E-1     0.714536309   
     39.6592560        0.312892422E-1     0.475579739        0.376891047E-1     0.719388247   
     39.6625900        0.306520779E-1     0.480703533        0.345573537E-1     0.724077821   
     39.6659241        0.300343223E-1     0.485724330        0.318626985E-1     0.728574991   
     39.6692581        0.294351932E-1     0.490645170        0.295282882E-1     0.732870460   
     39.6725960        0.288533792E-1     0.495473742        0.274900291E-1     0.736968577   
     39.6759300        0.282893218E-1     0.500203550        0.257015862E-1     0.740867615   
     39.6792679        0.277417675E-1     0.504841924        0.241205152E-1     0.744580746   
     39.6826019        0.272100810E-1     0.509391665        0.227141250E-1     0.748119712   
     39.6859360        0.266936496E-1     0.513855219        0.214559585E-1     0.751495302   
     39.6892700        0.261918958E-1     0.518234968        0.203243662E-1     0.754718900   
     39.6926079        0.257038064E-1     0.522537470        0.193006620E-1     0.757803738   
     39.6959419        0.252297986E-1     0.526756763        0.183721371E-1     0.760753751   
     39.6992760        0.247688871E-1     0.530898929        0.175255258E-1     0.763581216   
     39.7026138        0.243205968E-1     0.534966350        0.167505555E-1     0.766294837   
     39.7059479        0.238844715E-1     0.538960934        0.160386153E-1     0.768902063   
     39.7092819        0.234600678E-1     0.542884588        0.153823895E-1     0.771410346   
     39.7126160        0.230469778E-1     0.546739340        0.147756143E-1     0.773826241   
     39.7159538        0.226444043E-1     0.550530493        0.142124016E-1     0.776157379   
     39.7192879        0.222527627E-1     0.554252505        0.136892395E-1     0.778404891   
     39.7226219        0.218712818E-1     0.557910919        0.132015543E-1     0.780576468   
     39.7259598        0.214996133E-1     0.561507106        0.127458703E-1     0.782676041   
     39.7292938        0.211374238E-1     0.565042794        0.123191429E-1     0.784708440   
     39.7326279        0.207843967E-1     0.568519473        0.119187115E-1     0.786677063   
     39.7359657        0.204398930E-1     0.571941972        0.115418565E-1     0.788587570   
     39.7392998        0.201042797E-1     0.575305045        0.111872423E-1     0.790438771   
     39.7426338        0.197769459E-1     0.578613400        0.108526219E-1     0.792236805   
     39.7459679        0.194576178E-1     0.581868351        0.105363866E-1     0.793983817   
     39.7493057        0.191460364E-1     0.585071206        0.102370400E-1     0.795682013   
     39.7526398        0.188419502E-1     0.588223219        0.995326694E-2     0.797334611   
     39.7559738        0.185451210E-1     0.591325700        0.968389306E-2     0.798943222   
     39.7593117        0.182550456E-1     0.594382584        0.942761265E-2     0.800511718   
     39.7626457        0.179720558E-1     0.597389221        0.918395910E-2     0.802038789   
     39.7659798        0.176956654E-1     0.600349665        0.895178877E-2     0.803527951   
     39.7693138        0.174256675E-1     0.603264928        0.873034261E-2     0.804980814   
     39.7726517        0.171618648E-1     0.606135964        0.851886440E-2     0.806399226   
     39.7759895        0.169038177E-1     0.608966768        0.831653643E-2     0.807785630   
     39.7793236        0.166518521E-1     0.611752629        0.812312216E-2     0.809138834   
     39.7826576        0.164055359E-1     0.614497304        0.793789420E-2     0.810461700   
     39.7859917        0.161647014E-1     0.617201686        0.776033429E-2     0.811755180   
     39.7893257        0.159291886E-1     0.619866610        0.758997956E-2     0.813020766   
     39.7926598        0.156988390E-1     0.622493148        0.742640765E-2     0.814259231   
     39.7959976        0.154735046E-1     0.625081897        0.726922089E-2     0.815471709   
     39.7993317        0.152530409E-1     0.627633810        0.711806072E-2     0.816659272   
     39.8026695        0.150370970E-1     0.630151987        0.697244750E-2     0.817823768   
     39.8060036        0.148259578E-1     0.632632494        0.683235284E-2     0.818964005   
     39.8093376        0.146192890E-1     0.635078371        0.669734227E-2     0.820081949   
     39.8126717        0.144169545E-1     0.637490392        0.656714756E-2     0.821178377   
     39.8160057        0.142188398E-1     0.639869273        0.644151215E-2     0.822253644   
     39.8193436        0.140246404E-1     0.642217934        0.632009609E-2     0.823310256   
     39.8226814        0.138346218E-1     0.644532561        0.620292081E-2     0.824346066   
     39.8260155        0.136484802E-1     0.646816015        0.608965661E-2     0.825362921   
     39.8293495        0.134661151E-1     0.649068952        0.598010560E-2     0.826361775   
     39.8326836        0.132874232E-1     0.651291966        0.587410852E-2     0.827342927   
     39.8360176        0.131123038E-1     0.653485775        0.577147678E-2     0.828307271   
     39.8393517        0.129406648E-1     0.655650854        0.567207206E-2     0.829254925   
     39.8426895        0.127722519E-1     0.657789707        0.557564665E-2     0.830187321   
     39.8460274        0.126073016E-1     0.659898996        0.548225082E-2     0.831103444   
     39.8493614        0.124455653E-1     0.661981225        0.539165316E-2     0.832004547   
     39.8526955        0.122869583E-1     0.664036810        0.530374516E-2     0.832890749   
     39.8560295        0.121314004E-1     0.666066408        0.521841319E-2     0.833763003   
     39.8593636        0.119788125E-1     0.668070495        0.513552409E-2     0.834621191   
     39.8627014        0.118289758E-1     0.670051455        0.505491626E-2     0.835466862   
     39.8660393        0.116821099E-1     0.672005892        0.497664697E-2     0.836298704   
     39.8693733        0.115379971E-1     0.673936188        0.490054348E-2     0.837117910   
     39.8727074        0.113965664E-1     0.675842822        0.482652429E-2     0.837924659   
     39.8760414        0.112577518E-1     0.677726269        0.475450046E-2     0.838719368   
     39.8793755        0.111214891E-1     0.679586887        0.468439050E-2     0.839502335   
     39.8827095        0.109877177E-1     0.681425035        0.461612176E-2     0.840274096   
     39.8860474        0.108562484E-1     0.683243036        0.454956805E-2     0.841035545   
     39.8893852        0.107272789E-1     0.685037613        0.448478432E-2     0.841785312   
     39.8927193        0.106006227E-1     0.686811090        0.442165276E-2     0.842524409   
     39.8960533        0.104762269E-1     0.688563704        0.436009606E-2     0.843253553   
     39.8993874        0.103540318E-1     0.690295875        0.430007000E-2     0.843972504   
     39.9027214        0.102339927E-1     0.692007959        0.424151449E-2     0.844681680   
     39.9060593        0.101159411E-1     0.693701982        0.418431545E-2     0.845381796   
     39.9093933        0.100000594E-1     0.695374846        0.412854273E-2     0.846072316   
     39.9127312        0.988618098E-2     0.697028756        0.407409947E-2     0.846753299   
     39.9160652        0.977426674E-2     0.698663831        0.402092794E-2     0.847425818   
     39.9193993        0.966426358E-2     0.700280547        0.396899180E-2     0.848089337   
     39.9227333        0.955613330E-2     0.701879144        0.391824311E-2     0.848744333   
     39.9260674        0.944983121E-2     0.703459978        0.386864576E-2     0.849391520   
     39.9294052        0.934521481E-2     0.705024838        0.382011477E-2     0.850030899   
     39.9327393        0.924244989E-2     0.706570923        0.377271674E-2     0.850661755   
     39.9360771        0.914139394E-2     0.708100140        0.372635596E-2     0.851284683   
     39.9394112        0.904200692E-2     0.709612727        0.368100591E-2     0.851900339   
     39.9427452        0.894425437E-2     0.711108923        0.363663281E-2     0.852508307   
     39.9460831        0.884800777E-2     0.712590456        0.359316403E-2     0.853109956   
     39.9494171        0.875341892E-2     0.714054704        0.355065800E-2     0.853703678   
     39.9527512        0.866035745E-2     0.715503395        0.350904558E-2     0.854290426   
     39.9560852        0.856879354E-2     0.716936767        0.346829253E-2     0.854870319   
     39.9594231        0.847869553E-2     0.718355060        0.342837675E-2     0.855443597   
     39.9627571        0.839002989E-2     0.719758511        0.338927913E-2     0.856010318   
     39.9660912        0.830276683E-2     0.721147299        0.335096382E-2     0.856570423   
     39.9694252        0.821687747E-2     0.722521782        0.331341662E-2     0.857124686   
     39.9727631        0.813225098E-2     0.723883331        0.327657722E-2     0.857673168   
     39.9760971        0.804902334E-2     0.725229740        0.324049429E-2     0.858214796   
     39.9794312        0.796708465E-2     0.726562381        0.320511870E-2     0.858751118   
     39.9827690        0.788640883E-2     0.727881551        0.317041692E-2     0.859281182   
     39.9861031        0.780697074E-2     0.729187369        0.313638570E-2     0.859805644   
     39.9894409        0.772866746E-2     0.730481267        0.310296332E-2     0.860324979   
     39.9927750        0.765162706E-2     0.731761217        0.307019986E-2     0.860838294   
     39.9961090        0.757575035E-2     0.733028293        0.303804991E-2     0.861346364   
     39.9994431        0.750101218E-2     0.734282970        0.300649204E-2     0.861849070   
     40.0027771        0.742739066E-2     0.735525250        0.297551532E-2     0.862346649   
     40.0061150        0.735486299E-2     0.736755431        0.294509297E-2     0.862839401   
     40.0094490        0.728340913E-2     0.737973690        0.291522895E-2     0.863326609   
     40.0127869        0.721293781E-2     0.739181280        0.288585993E-2     0.863809645   
     40.0161209        0.714356545E-2     0.740375996        0.285704457E-2     0.864287496   
     40.0194550        0.707520498E-2     0.741559386        0.282873749E-2     0.864760458   
     40.0227890        0.700783497E-2     0.742731452        0.280091981E-2     0.865228772   
     40.0261230        0.694143726E-2     0.743892431        0.277358666E-2     0.865692437   
     40.0294609        0.687599229E-2     0.745042443        0.274672173E-2     0.866151690   
     40.0327988        0.681142043E-2     0.746182799        0.272028917E-2     0.866607070   
     40.0361328        0.674782740E-2     0.747311354        0.269433064E-2     0.867057562   
     40.0394669        0.668513589E-2     0.748429418        0.266880798E-2     0.867503881   
     40.0428009        0.662332587E-2     0.749537110        0.264370767E-2     0.867945790   
     40.0461349        0.656238198E-2     0.750634670        0.261902134E-2     0.868383765   
     40.0494690        0.650228746E-2     0.751722097        0.259474176E-2     0.868817568   
     40.0528069        0.644302834E-2     0.752799630        0.257085799E-2     0.869247556   
     40.0561447        0.638453150E-2     0.753868461        0.254733860E-2     0.869673848   
     40.0594788        0.632689474E-2     0.754926562        0.252421666E-2     0.870095968   
     40.0628128        0.627004681E-2     0.755975187        0.250146282E-2     0.870514095   
     40.0661469        0.621397328E-2     0.757014394        0.247906870E-2     0.870928764   
     40.0694809        0.615866017E-2     0.758044302        0.245702616E-2     0.871339381   
     40.0728149        0.610409444E-2     0.759065151        0.243533007E-2     0.871746540   
     40.0761528        0.605020765E-2     0.760077953        0.241394760E-2     0.872150540   
     40.0794907        0.599709572E-2     0.761080861        0.239291647E-2     0.872550607   
     40.0828247        0.594468974E-2     0.762074947        0.237220456E-2     0.872947395   
     40.0861588        0.589297898E-2     0.763060451        0.235180557E-2     0.873340368   
     40.0894928        0.584194995E-2     0.764037371        0.233171624E-2     0.873730242   
     40.0928268        0.579159148E-2     0.765005946        0.231192191E-2     0.874116778   
     40.0961609        0.574189099E-2     0.765966117        0.229242980E-2     0.874500096   
     40.0994987        0.569279119E-2     0.766919017        0.227320497E-2     0.874880552   
     40.1028366        0.564437406E-2     0.767862916        0.225427584E-2     0.875257313   
     40.1061707        0.559658185E-2     0.768798769        0.223562634E-2     0.875631094   
     40.1095047        0.554940524E-2     0.769726753        0.221724552E-2     0.876001954   
     40.1128387        0.550282933E-2     0.770646930        0.219913176E-2     0.876369476   
     40.1161728        0.545684854E-2     0.771559417        0.218127319E-2     0.876734078   
     40.1195107        0.541140605E-2     0.772465169        0.216365466E-2     0.877096295   
     40.1228447        0.536658103E-2     0.773362577        0.214629783E-2     0.877454996   
     40.1261826        0.532231992E-2     0.774252534        0.212918525E-2     0.877811015   
     40.1295166        0.527861249E-2     0.775135219        0.211231550E-2     0.878164113   
     40.1328506        0.523545081E-2     0.776010633        0.209567556E-2     0.878514349   
     40.1361847        0.519282324E-2     0.776878953        0.207926123E-2     0.878862023   
     40.1395187        0.515072420E-2     0.777740240        0.206307648E-2     0.879207015   
     40.1428566        0.510910200E-2     0.778595328        0.204709638E-2     0.879549444   
     40.1461906        0.506803021E-2     0.779442787        0.203134562E-2     0.879889011   
     40.1495285        0.502746040E-2     0.780283332        0.201580743E-2     0.880225956   
     40.1528625        0.498738280E-2     0.781117320        0.200047414E-2     0.880560458   
     40.1561966        0.494779041E-2     0.781944573        0.198534527E-2     0.880892217   
     40.1595345        0.490863761E-2     0.782766104        0.197040150E-2     0.881222010   
     40.1628685        0.486999284E-2     0.783580422        0.195566937E-2     0.881548882   
     40.1662025        0.483181002E-2     0.784388304        0.194112852E-2     0.881873310   
     40.1695366        0.479408167E-2     0.785189867        0.192677544E-2     0.882195294   
     40.1728745        0.475680083E-2     0.785985231        0.191260758E-2     0.882515252   
     40.1762085        0.471996050E-2     0.786774397        0.189862284E-2     0.882832527   
     40.1795425        0.468355324E-2     0.787557423        0.188481645E-2     0.883147657   
     40.1828804        0.464753760E-2     0.788335264        0.187116687E-2     0.883460701   
     40.1862144        0.461197691E-2     0.789106369        0.185770774E-2     0.883771122   
     40.1895485        0.457682973E-2     0.789871573        0.184441463E-2     0.884079516   
     40.1928825        0.454209000E-2     0.790630937        0.183128961E-2     0.884385765   
     40.1962204        0.450774981E-2     0.791384637        0.181832584E-2     0.884689689   
     40.1995544        0.447380450E-2     0.792132616        0.180551957E-2     0.884991348   
     40.2028923        0.444021588E-2     0.792875707        0.179286092E-2     0.885291278   
     40.2062263        0.440704171E-2     0.793612480        0.178036548E-2     0.885588944   
     40.2095604        0.437424378E-2     0.794343829        0.176802557E-2     0.885884404   
     40.2128944        0.434181746E-2     0.795069695        0.175583118E-2     0.886177897   
     40.2162323        0.430975668E-2     0.795790255        0.174378487E-2     0.886469364   
     40.2195663        0.427805446E-2     0.796505451        0.173188024E-2     0.886758745   
     40.2229004        0.424670801E-2     0.797215462        0.172011775E-2     0.887046337   
     40.2262383        0.421568006E-2     0.797920942        0.170848367E-2     0.887332141   
     40.2295723        0.418502605E-2     0.798620582        0.169699627E-2     0.887615681   
     40.2329063        0.415471056E-2     0.799315155        0.168564322E-2     0.887897491   
     40.2362404        0.412472989E-2     0.800004721        0.167442265E-2     0.888177335   
     40.2395782        0.409507751E-2     0.800689280        0.166333118E-2     0.888455451   
     40.2429123        0.406574877E-2     0.801369011        0.165236543E-2     0.888731480   
     40.2462502        0.403671153E-2     0.802044511        0.164151622E-2     0.889006138   
     40.2495842        0.400801748E-2     0.802714527        0.163080264E-2     0.889278650   
     40.2529182        0.397963356E-2     0.803379834        0.162020908E-2     0.889549494   
     40.2562523        0.395155512E-2     0.804040372        0.160973566E-2     0.889818549   
     40.2595863        0.392377796E-2     0.804696321        0.159937749E-2     0.890085876   
     40.2629242        0.389629719E-2     0.805347681        0.158913690E-2     0.890351355   
     40.2662582        0.386910979E-2     0.805994451        0.157901004E-2     0.890615284   
     40.2695961        0.384218432E-2     0.806637406        0.156898343E-2     0.890877724   
     40.2729301        0.381556922E-2     0.807275176        0.155907695E-2     0.891138375   
     40.2762642        0.378923537E-2     0.807908654        0.154928071E-2     0.891397178   
     40.2795982        0.376317766E-2     0.808537722        0.153959007E-2     0.891654491   
     40.2829323        0.373739167E-2     0.809162498        0.153000245E-2     0.891910255   
     40.2862701        0.371187530E-2     0.809782982        0.152052299E-2     0.892164469   
     40.2896080        0.368659897E-2     0.810399771        0.151113211E-2     0.892417192   
     40.2929420        0.366160879E-2     0.811011910        0.150185183E-2     0.892668128   
     40.2962761        0.363687635E-2     0.811619818        0.149267027E-2     0.892917514   
     40.2996101        0.361239794E-2     0.812223673        0.148358580E-2     0.893165410   
     40.3029442        0.358817005E-2     0.812823474        0.147459586E-2     0.893411815   
     40.3062782        0.356418965E-2     0.813419223        0.146570138E-2     0.893656731   
     40.3096161        0.354045257E-2     0.814011037        0.145690108E-2     0.893900275   
     40.3129539        0.351693342E-2     0.814599454        0.144818122E-2     0.894142509   
     40.3162880        0.349367410E-2     0.815183461        0.143956009E-2     0.894383132   
     40.3196220        0.347064924E-2     0.815763593        0.143102882E-2     0.894622207   
     40.3229561        0.344785559E-2     0.816339910        0.142258417E-2     0.894859910   
     40.3262901        0.342528918E-2     0.816912413        0.141422637E-2     0.895096302   
     40.3296280        0.340292626E-2     0.817481816        0.140594470E-2     0.895331502   
     40.3329620        0.338080665E-2     0.818046868        0.139775465E-2     0.895565033   
     40.3362999        0.335890567E-2     0.818608284        0.138964667E-2     0.895797312   
     40.3396339        0.333722075E-2     0.819166124        0.138162170E-2     0.896028042   
     40.3429680        0.331574841E-2     0.819720328        0.137367484E-2     0.896257579   
     40.3463020        0.329448702E-2     0.820271015        0.136580819E-2     0.896485865   
     40.3496361        0.327343284E-2     0.820818126        0.135801919E-2     0.896712780   
     40.3529739        0.325256330E-2     0.821362257        0.135029852E-2     0.896938682   
     40.3563080        0.323191611E-2     0.821902514        0.134266156E-2     0.897162974   
     40.3596458        0.321146846E-2     0.822439253        0.133509783E-2     0.897386074   
     40.3629799        0.319121755E-2     0.822972655        0.132760906E-2     0.897607923   
     40.3663139        0.317116152E-2     0.823502660        0.132019201E-2     0.897828460   
     40.3696480        0.315129641E-2     0.824029326        0.131284667E-2     0.898047864   
     40.3729858        0.313160266E-2     0.824553251        0.130556407E-2     0.898266196   
     40.3763199        0.311211450E-2     0.825073421        0.129835971E-2     0.898483157   
     40.3796539        0.309281098E-2     0.825590372        0.129122287E-2     0.898698926   
     40.3829918        0.307368999E-2     0.826104045        0.128415436E-2     0.898913503   
     40.3863258        0.305474875E-2     0.826614618        0.127715082E-2     0.899126947   
     40.3896599        0.303598517E-2     0.827121973        0.127021444E-2     0.899339080   
     40.3929939        0.301739736E-2     0.827626348        0.126334256E-2     0.899550200   
     40.3963318        0.299896463E-2     0.828127980        0.125652726E-2     0.899760306   
     40.3996658        0.298072142E-2     0.828626156        0.124978379E-2     0.899969101   
     40.4029999        0.296264677E-2     0.829121351        0.124310143E-2     0.900176883   
     40.4063377        0.294473930E-2     0.829613447        0.123648148E-2     0.900383472   
     40.4096718        0.292699668E-2     0.830102682        0.122992008E-2     0.900588930   
     40.4130058        0.290941633E-2     0.830588877        0.122341886E-2     0.900793314   
     40.4163437        0.289198011E-2     0.831072688        0.121697236E-2     0.900996923   
     40.4196777        0.287471968E-2     0.831553102        0.121058989E-2     0.901199043   
     40.4230118        0.285761640E-2     0.832030654        0.120426423E-2     0.901400387   
     40.4263458        0.284066820E-2     0.832505405        0.119799632E-2     0.901600480   
     40.4296837        0.282387272E-2     0.832977355        0.119178381E-2     0.901799738   
     40.4330177        0.280722836E-2     0.833446503        0.118562730E-2     0.901997745   
     40.4363518        0.279073394E-2     0.833912849        0.117952528E-2     0.902194738   
     40.4396896        0.277437083E-2     0.834376991        0.117347110E-2     0.902391136   
     40.4430237        0.275816955E-2     0.834837914        0.116747629E-2     0.902586043   
     40.4463577        0.274211285E-2     0.835296154        0.116153352E-2     0.902780175   
     40.4496918        0.272619771E-2     0.835751772        0.115564466E-2     0.902973175   
     40.4530296        0.271042367E-2     0.836204708        0.114980491E-2     0.903165340   
     40.4563637        0.269478909E-2     0.836655021        0.114401581E-2     0.903356373   
     40.4597015        0.267927651E-2     0.837103248        0.113827211E-2     0.903546810   
     40.4630356        0.266391481E-2     0.837548375        0.113258348E-2     0.903735936   
     40.4663696        0.264868699E-2     0.837991059        0.112694199E-2     0.903924286   
     40.4697037        0.263359211E-2     0.838431120        0.112134975E-2     0.904111564   
     40.4730377        0.261862809E-2     0.838868737        0.111580640E-2     0.904298007   
     40.4763756        0.260379375E-2     0.839303851        0.111031032E-2     0.904483497   
     40.4797096        0.258908770E-2     0.839736521        0.110485766E-2     0.904667974   
     40.4830475        0.257449341E-2     0.840167165        0.109944749E-2     0.904851973   
     40.4863815        0.256003882E-2     0.840594947        0.109408842E-2     0.905034781   
     40.4897156        0.254570786E-2     0.841020346        0.108877348E-2     0.905216515   
     40.4930496        0.253149914E-2     0.841443360        0.108350255E-2     0.905397594   
     40.4963837        0.251741125E-2     0.841864049        0.107827573E-2     0.905577779   
     40.4997215        0.250342931E-2     0.842282772        0.107308873E-2     0.905757070   
     40.5030594        0.248957914E-2     0.842698812        0.106794585E-2     0.905935585   
     40.5063934        0.247584539E-2     0.843112528        0.106284872E-2     0.906113148   
     40.5097275        0.246222760E-2     0.843523979        0.105779129E-2     0.906289816   
     40.5130615        0.244872365E-2     0.843933105        0.105277426E-2     0.906465769   
     40.5163956        0.243533263E-2     0.844340086        0.104779971E-2     0.906640708   
     40.5197296        0.242205313E-2     0.844744802        0.104286650E-2     0.906814873   
     40.5230675        0.240888377E-2     0.845147312        0.103797030E-2     0.906988323   
     40.5264053        0.239581126E-2     0.845548034        0.103310915E-2     0.907161117   
     40.5297394        0.238285959E-2     0.845946193        0.102829235E-2     0.907332838   
     40.5330734        0.237001409E-2     0.846342266        0.102351373E-2     0.907503843   
     40.5364075        0.235727406E-2     0.846736133        0.101877318E-2     0.907674015   
     40.5397415        0.234463881E-2     0.847127914        0.101407140E-2     0.907843411   
     40.5430794        0.233209459E-2     0.847517967        0.100940012E-2     0.908012152   
     40.5464172        0.231966469E-2     0.847905576        0.100477075E-2     0.908179998   
     40.5497513        0.230733585E-2     0.848291099        0.100017909E-2     0.908347189   
     40.5530853        0.229510688E-2     0.848674595        0.995622249E-3     0.908513427   
     40.5564194        0.228297641E-2     0.849056065        0.991101260E-3     0.908679008   
     40.5597534        0.227094372E-2     0.849435449        0.986615429E-3     0.908843815   
     40.5630875        0.225900766E-2     0.849812984        0.982163125E-3     0.909007907   
     40.5664253        0.224715588E-2     0.850188792        0.977741205E-3     0.909171343   
     40.5697632        0.223541004E-2     0.850562334        0.973359274E-3     0.909333885   
     40.5730972        0.222375826E-2     0.850933850        0.969009125E-3     0.909495771   
     40.5764313        0.221219892E-2     0.851303458        0.964692095E-3     0.909656942   
     40.5797653        0.220073084E-2     0.851671219        0.960409117E-3     0.909817278   
     40.5830994        0.218935381E-2     0.852037013        0.956158037E-3     0.909977078   
     40.5864372        0.217805523E-2     0.852401257        0.951935479E-3     0.910136282   
     40.5897713        0.216685655E-2     0.852763355        0.947746215E-3     0.910294473   
     40.5931091        0.215574540E-2     0.853123486        0.943592051E-3     0.910452068   
     40.5964432        0.214472134E-2     0.853481829        0.939466932E-3     0.910609066   
     40.5997772        0.213378319E-2     0.853838384        0.935373188E-3     0.910765290   
     40.6031113        0.212293025E-2     0.854193032        0.931310002E-3     0.910920858   
     40.6064453        0.211216114E-2     0.854545951        0.927277026E-3     0.911075771   
     40.6097832        0.210146490E-2     0.854897380        0.923268730E-3     0.911230087   
     40.6131172        0.209086202E-2     0.855246782        0.919295766E-3     0.911383629   
     40.6164551        0.208034017E-2     0.855594337        0.915349519E-3     0.911536574   
     40.6197891        0.206989981E-2     0.855940163        0.911433483E-3     0.911688805   
     40.6231232        0.205953885E-2     0.856284201        0.907546142E-3     0.911840379   
     40.6264572        0.204925681E-2     0.856626630        0.903686916E-3     0.911991298   
     40.6297951        0.203904323E-2     0.856967628        0.899852021E-3     0.912141740   
     40.6331291        0.202891720E-2     0.857306600        0.896048499E-3     0.912291408   
     40.6364632        0.201886753E-2     0.857643902        0.892272394E-3     0.912440419   
     40.6398010        0.200889423E-2     0.857979536        0.888523879E-3     0.912588835   
     40.6431351        0.199899590E-2     0.858313501        0.884800509E-3     0.912736714   
     40.6464691        0.198917207E-2     0.858645797        0.881105196E-3     0.912883759   
     40.6498032        0.197942159E-2     0.858976543        0.877435610E-3     0.913030326   
     40.6531410        0.196973491E-2     0.859305978        0.873788958E-3     0.913176477   
     40.6564751        0.196012994E-2     0.859633446        0.870171003E-3     0.913321733   
     40.6598091        0.195059564E-2     0.859959304        0.866579358E-3     0.913466513   
     40.6631470        0.194113282E-2     0.860283613        0.863012101E-3     0.913610578   
     40.6664810        0.193173974E-2     0.860606313        0.859470398E-3     0.913754165   
     40.6698189        0.192240707E-2     0.860927820        0.855949474E-3     0.913897276   
     40.6731529        0.191315194E-2     0.861247420        0.852456840E-3     0.914039731   
     40.6764870        0.190396479E-2     0.861565530        0.848988537E-3     0.914181530   
     40.6798210        0.189484516E-2     0.861882091        0.845543924E-3     0.914322734   
     40.6831551        0.188579166E-2     0.862197161        0.842123176E-3     0.914463401   
     40.6864929        0.187680463E-2     0.862510681        0.838726060E-3     0.914603472   
     40.6898270        0.186788291E-2     0.862822771        0.835353334E-3     0.914743066   
     40.6931610        0.185902545E-2     0.863133311        0.832001271E-3     0.914881825   
     40.6964989        0.185022387E-2     0.863442719        0.828670745E-3     0.915020466   
     40.6998329        0.184149435E-2     0.863750339        0.825364608E-3     0.915158272   
     40.7031670        0.183282746E-2     0.864056528        0.822082337E-3     0.915295601   
     40.7065010        0.182422297E-2     0.864361286        0.818820845E-3     0.915432334   
     40.7098389        0.181568018E-2     0.864664674        0.815581705E-3     0.915568471   
     40.7131767        0.180718990E-2     0.864966810        0.812363171E-3     0.915704310   
     40.7165108        0.179876829E-2     0.865267277        0.809166813E-3     0.915839493   
     40.7198448        0.179040688E-2     0.865566373        0.805993390E-3     0.915974081   
     40.7231789        0.178210472E-2     0.865864158        0.802839233E-3     0.916108191   
     40.7265129        0.177386112E-2     0.866160452        0.799707894E-3     0.916241765   
     40.7298470        0.176567596E-2     0.866455436        0.796597102E-3     0.916374803   
     40.7331848        0.175754807E-2     0.866749048        0.793504936E-3     0.916507304   
     40.7365227        0.174946967E-2     0.867041588        0.790432503E-3     0.916639447   
     40.7398567        0.174145552E-2     0.867332458        0.787381607E-3     0.916770875   
     40.7431908        0.173349748E-2     0.867622077        0.784351199E-3     0.916901886   
     40.7465248        0.172559498E-2     0.867910326        0.781340816E-3     0.917032301   
     40.7498589        0.171774731E-2     0.868197262        0.778350164E-3     0.917162418   
     40.7531929        0.170995411E-2     0.868482947        0.775378547E-3     0.917291880   
     40.7565308        0.170220737E-2     0.868767560        0.772424100E-3     0.917421103   
     40.7598686        0.169452175E-2     0.869050622        0.769490609E-3     0.917549491   
     40.7632027        0.168688898E-2     0.869332433        0.766575977E-3     0.917677522   
     40.7665367        0.167930883E-2     0.869612932        0.763680495E-3     0.917805076   
     40.7698708        0.167178037E-2     0.869892180        0.760804571E-3     0.917932034   
     40.7732048        0.166430348E-2     0.870170236        0.757945178E-3     0.918058753   
     40.7765388        0.165687746E-2     0.870446980        0.755103712E-3     0.918184757   
     40.7798767        0.164949510E-2     0.870722771        0.752279710E-3     0.918310583   
     40.7832146        0.164217001E-2     0.870997131        0.749475264E-3     0.918435752   
     40.7865486        0.163489440E-2     0.871270180        0.746687409E-3     0.918560386   
     40.7898827        0.162766839E-2     0.871542096        0.743918703E-3     0.918684661   
     40.7932167        0.162049069E-2     0.871812820        0.741166179E-3     0.918808401   
     40.7965508        0.161336141E-2     0.872082293        0.738432049E-3     0.918931723   
     40.7998886        0.160627300E-2     0.872350872        0.735711190E-3     0.919054687   
     40.8032227        0.159923907E-2     0.872618020        0.733009889E-3     0.919177055   
     40.8065605        0.159225217E-2     0.872883976        0.730326807E-3     0.919299185   
     40.8098946        0.158531184E-2     0.873148799        0.727659499E-3     0.919420660   
     40.8132286        0.157841761E-2     0.873412430        0.725007325E-3     0.919541538   
     40.8165627        0.157156901E-2     0.873674989        0.722373370E-3     0.919662356   
     40.8198967        0.156476605E-2     0.873936296        0.719755422E-3     0.919782460   
     40.8232346        0.155800127E-2     0.874196827        0.717151328E-3     0.919902265   
     40.8265686        0.155128783E-2     0.874455929        0.714564405E-3     0.920021653   
     40.8299065        0.154461828E-2     0.874713957        0.711993780E-3     0.920140505   
     40.8332405        0.153799274E-2     0.874970853        0.709439279E-3     0.920258999   
     40.8365746        0.153141026E-2     0.875226676        0.706899795E-3     0.920377135   
     40.8399124        0.152486470E-2     0.875481606        0.704373117E-3     0.920494795   
     40.8432465        0.151836802E-2     0.875735223        0.701864425E-3     0.920611978   
     40.8465805        0.151191361E-2     0.875987768        0.699370401E-3     0.920728862   
     40.8499184        0.150550122E-2     0.876239240        0.696891861E-3     0.920845151   
     40.8532524        0.149913027E-2     0.876489639        0.694427639E-3     0.920961142   
     40.8565865        0.149280019E-2     0.876738966        0.691978377E-3     0.921076596   
     40.8599205        0.148651132E-2     0.876987278        0.689544016E-3     0.921191871   
     40.8632545        0.148026261E-2     0.877234578        0.687123742E-3     0.921306491   
     40.8665924        0.147404801E-2     0.877480984        0.684715749E-3     0.921420991   
     40.8699265        0.146787928E-2     0.877726138        0.682323822E-3     0.921535015   
     40.8732643        0.146175001E-2     0.877970338        0.679946388E-3     0.921648502   
     40.8765984        0.145565963E-2     0.878213465        0.677582400E-3     0.921761632   
     40.8799324        0.144960801E-2     0.878455579        0.675232557E-3     0.921874404   
     40.8832703        0.144358911E-2     0.878696918        0.672894588E-3     0.921986818   
     40.8866043        0.143761409E-2     0.878937066        0.670572685E-3     0.922098875   
     40.8899384        0.143167668E-2     0.879176199        0.668263005E-3     0.922210455   
     40.8932724        0.142577675E-2     0.879414320        0.665968517E-3     0.922321677   
     40.8966103        0.141991407E-2     0.879651487        0.663686253E-3     0.922432482   
     40.8999443        0.141408807E-2     0.879887700        0.661417434E-3     0.922542930   
     40.9032784        0.140829850E-2     0.880122900        0.659162237E-3     0.922652900   
     40.9066162        0.140253978E-2     0.880357385        0.656916993E-3     0.922762752   
     40.9099503        0.139682228E-2     0.880590677        0.654686650E-3     0.922872066   
     40.9132843        0.139114051E-2     0.880823076        0.652469986E-3     0.922980964   
     40.9166183        0.138549390E-2     0.881054461        0.650264614E-3     0.923089623   
     40.9199562        0.137988257E-2     0.881284952        0.648072863E-3     0.923197865   
     40.9232903        0.137430569E-2     0.881514490        0.645893917E-3     0.923305750   
     40.9266281        0.136875792E-2     0.881743312        0.643723877E-3     0.923413217   
     40.9299622        0.136324961E-2     0.881971002        0.641568855E-3     0.923520446   
     40.9332962        0.135777518E-2     0.882197738        0.639425765E-3     0.923627138   
     40.9366302        0.135233416E-2     0.882423639        0.637295248E-3     0.923733592   
     40.9399643        0.134692655E-2     0.882648587        0.635176955E-3     0.923839688   
     40.9433022        0.134155212E-2     0.882872641        0.633070245E-3     0.923945308   
     40.9466362        0.133621017E-2     0.883095801        0.630975293E-3     0.924050808   
     40.9499741        0.133089570E-2     0.883318305        0.628889655E-3     0.924155831   
     40.9533081        0.132561848E-2     0.883539736        0.626816938E-3     0.924260437   
     40.9566422        0.132037338E-2     0.883760214        0.624756853E-3     0.924364746   
     40.9599762        0.131515984E-2     0.883979917        0.622707943E-3     0.924468696   
     40.9633102        0.130997761E-2     0.884198666        0.620669744E-3     0.924572349   
     40.9666481        0.130482670E-2     0.884416640        0.618643011E-3     0.924675703   
     40.9699860        0.129970175E-2     0.884633899        0.616626290E-3     0.924778759   
     40.9733200        0.129461242E-2     0.884850144        0.614621444E-3     0.924881399   
     40.9766541        0.128955371E-2     0.885065496        0.612628006E-3     0.924983621   
     40.9799881        0.128452491E-2     0.885280013        0.610645919E-3     0.925085545   
     40.9833221        0.127952604E-2     0.885493755        0.608674949E-3     0.925187230   
     40.9866562        0.127455697E-2     0.885706604        0.606712711E-3     0.925288498   
     40.9899940        0.126961747E-2     0.885918617        0.604762579E-3     0.925389588   
     40.9933319        0.126470230E-2     0.886130035        0.602821179E-3     0.925490201   
     40.9966660        0.125982089E-2     0.886340499        0.600891770E-3     0.925590634   
     41.0000000        0.125496823E-2     0.886550069        0.598972721E-3     0.925690591   
# 
# 03/15/2022 at 13:07 yambo @ unimi-XPS-8930 [start]
# 03/15/2022 at 13:07                        [end]
#  
# Timing   [Min/Max/Average]: 06s/06s/06s
#
# .-Input file  yambo.in
# | optics                           # [R] Linear Response optical properties
# | bss                              # [R] BSE solver
# | bse                              # [R][BSE] Bethe Salpeter Equation.
# | em1s                             # [R][Xs] Statically Screened Interaction
# | FFTGvecs=  3281            RL    # [FFT] Plane-waves
# | X_and_IO_nCPU_LinAlg_INV= 1      # [PARALLEL] CPUs for Linear Algebra (if -1 it is automatically set)
# | X_Threads= 1                     # [OPENMP/X] Number of threads for response functions
# | DIP_Threads= 1                   # [OPENMP/X] Number of threads for dipoles
# | BS_nCPU_LinAlg_INV= 1            # [PARALLEL] CPUs for Linear Algebra (if -1 it is automatically set)
# | BS_nCPU_LinAlg_DIAGO= 1          # [PARALLEL] CPUs for Linear Algebra (if -1 it is automatically set)
# | K_Threads= 1                     # [OPENMP/BSK] Number of threads for response functions
# | Chimod= "HARTREE"                # [X] IP/Hartree/ALDA/LRC/PF/BSfxc
# | BSEmod= "resonant"               # [BSE] resonant/retarded/coupling
# | BSKmod= "SEX"                    # [BSE] IP/Hartree/HF/ALDA/SEX/BSfxc
# | BSSmod= "d"                      # [BSS] (h)aydock/(d)iagonalization/(s)lepc/(i)nversion/(t)ddft`
# | BSENGexx=  4               Ry    # [BSK] Exchange components
# | BSENGBlk= 1                Ry    # [BSK] Screened interaction block size [if -1 uses all the G-vectors of W(q,G,Gp)]
# | #WehCpl                        # [BSK] eh interaction included also in coupling
# | % KfnQP_E
# |  0.700000 | 1.000000 | 1.000000 |        # [EXTQP BSK BSS] E parameters  (c/v) eV|adim|adim
# | %
# | BSEprop= "abs"                   # [BSS] Can be any among abs/jdos/kerr/magn/dich/photolum/esrt
# | BSEdips= "none"                  # [BSS] Can be "trace/none" or "xy/xz/yz" to define off-diagonal rotation plane
# | % BSEQptR
# |  1 | 1 |                             # [BSK] Transferred momenta range
# | %
# | % BSEBands
# |   3 | 30 |                           # [BSK] Bands range
# | %
# | % BSECoreBands
# |   3 |  8 |                           # [BSK] Bands range for Core Hole. If set higher energy bands are ignored in the hole channel
# | %
# | % BEnRange
# |  35.00000 | 41.00000 |         eV    # [BSS] Energy range
# | %
# | % BDmRange
# |  0.020000 | 0.020000 |         eV    # [BSS] Damping range
# | %
# | BEnSteps= 1800                   # [BSS] Energy steps
# | % BLongDir
# |  0.100000E-4 |  0.00000    |  0.00000    # [BSS] [cc] Electric Field
# | %
# | #WRbsWF                        # [BSS] Write to disk excitonic the WFs
# | % BndsRnXs
# |  11 | 30 |                           # [Xs] Polarization function bands
# | %
# | NGsBlkXs= 1                Ry    # [Xs] Response block size
# | % LongDrXs
# |  0.100000E-4 |  0.00000    |  0.00000    # [Xs] [cc] Electric Field
# | %
# | XTermKind= "none"                # [X] X terminator ("none","BG" Bruneval-Gonze)
