#                                                           
# :::   :::   :::     ::::    ::::  :::::::::   ::::::::    
# :+:   :+: :+: :+:   +:+:+: :+:+:+ :+:    :+: :+:    :+:   
#  +:+ +:+ +:+   +:+  +:+ +:+:+ +:+ +:+    +:+ +:+    +:+   
#   +#++: +#++:++#++: +#+  +:+  +#+ +#++:++#+  +#+    +:+   
#    +#+  +#+     +#+ +#+       +#+ +#+    +#+ +#+    +#+   
#    #+#  #+#     #+# #+#       #+# #+#    #+# #+#    #+#   
#    ###  ###     ### ###       ### #########   ########    
#                                                           
#                                                           
#        Version 4.2.0 Revision 14428 Hash 698a636          
#                  MPI+SLK+OpenMP Build                     
#                http://www.yambo-code.org                  
#
# EELS @ Q(1)  [q->0 direction]:0.1000E-4  0.000     0.000   
#
#
# - Energies      are GoWo Plasmon Pole appox.
# - Wavefunctions are Slater exchange(X)+Perdew & Zunger(C)
#
# - The Green`s function is Retarded -
# - Using the Length Gauge -
# - [r,Vnl] *is* included -
#
#   BSK|Identifier              :7981
#      |Dimension               :100
#      |Bands                   :2 - 7
#      |Exchange           [res]: yes
#      |Correlation        [res]: yes
#      |Kernel`s coupling       : no
#      |Exchange           [cpl]: no
#      |Correlation        [cpl]: no
#      |W interaction is bare   : no
#      |ALDA kernel in R-space  : no
#      |RL vectors    [exchange]:531
#      |RL vectors [correlation]:59
#      |E/h energy range    [ev]:-1.000000 - -1.000000
#      |Coupling range     [o/o]: 100.0000 -  100.0000
#    W |Interaction is diagonal : no
#      |Matrix size             :59
#      |Bands                   :1 - 8
#      |e/h energy range    [ev]:-1.000000 - -1.000000
#      |Poles              [o/o]: 100.0000
#      |RL vectors in the sum   :387
#      |[r,Vnl] included        : yes
#      |Field direction         :0.1000E-4  0.000000  0.000000
#      |Coulomb Cutoff          :none
#      |xc-Kernel               :none
#   RIM|RL components      [col]:0
#      |Random points      [col]:0
#  
#   Haydock|Accuracy (requested) [o/o]:  0.02000
#          |Accuracy (reached)   [o/o]:   0.0020
#          |Iteration                 :18
#
#    E/ev[1]      EEL-Im[2]    EEL-Re[3]    EELo-Im[4]   EELo-Re[5]   EEL`-Im[6]   EEL`-Re[7]
#
     0.00000     -0.00000     -0.02156     -0.00000     -0.02413     -0.00000     -0.02156
   0.2004E-1    0.6578E-5    -.2156E-1    0.5905E-5    -.2413E-1    0.6578E-5    -.2156E-1
   0.4008E-1    0.1316E-4    -.2156E-1    0.1181E-4    -.2412E-1    0.1316E-4    -.2156E-1
   0.6012E-1    0.1973E-4    -.2156E-1    0.1772E-4    -.2412E-1    0.1973E-4    -.2156E-1
   0.8016E-1    0.2631E-4    -.2155E-1    0.2362E-4    -.2412E-1    0.2631E-4    -.2155E-1
   0.1002       0.3289E-4    -.2155E-1    0.2953E-4    -.2411E-1    0.3289E-4    -.2155E-1
   0.1202       0.3947E-4    -.2154E-1    0.3544E-4    -.2410E-1    0.3947E-4    -.2154E-1
   0.1403       0.4606E-4    -.2153E-1    0.4135E-4    -.2410E-1    0.4606E-4    -.2153E-1
   0.1603       0.5264E-4    -.2152E-1    0.4726E-4    -.2409E-1    0.5264E-4    -.2152E-1
   0.1804       0.5922E-4    -.2151E-1    0.5317E-4    -.2408E-1    0.5922E-4    -.2151E-1
   0.2004       0.6581E-4    -.2150E-1    0.5908E-4    -.2407E-1    0.6581E-4    -.2150E-1
   0.2204       0.7240E-4    -.2148E-1    0.6500E-4    -.2405E-1    0.7240E-4    -.2148E-1
   0.2405       0.7898E-4    -.2147E-1    0.7091E-4    -.2404E-1    0.7898E-4    -.2147E-1
   0.2605       0.8558E-4    -.2145E-1    0.7683E-4    -.2403E-1    0.8558E-4    -.2145E-1
   0.2806       0.9217E-4    -.2143E-1    0.8276E-4    -.2401E-1    0.9217E-4    -.2143E-1
   0.3006       0.9876E-4    -.2142E-1    0.8868E-4    -.2399E-1    0.9876E-4    -.2142E-1
   0.3206       0.1054E-3    -.2140E-1    0.9461E-4    -.2397E-1    0.1054E-3    -.2140E-1
   0.3407       0.1120E-3    -.2137E-1    0.1005E-3    -.2395E-1    0.1120E-3    -.2137E-1
   0.3607       0.1186E-3    -.2135E-1    0.1065E-3    -.2393E-1    0.1186E-3    -.2135E-1
   0.3808       0.1252E-3    -.2133E-1    0.1124E-3    -.2391E-1    0.1252E-3    -.2133E-1
   0.4008       0.1318E-3    -.2130E-1    0.1183E-3    -.2389E-1    0.1318E-3    -.2130E-1
   0.4208       0.1384E-3    -.2127E-1    0.1243E-3    -.2386E-1    0.1384E-3    -.2127E-1
   0.4409       0.1450E-3    -.2124E-1    0.1302E-3    -.2384E-1    0.1450E-3    -.2124E-1
   0.4609       0.1516E-3    -.2122E-1    0.1362E-3    -.2381E-1    0.1516E-3    -.2122E-1
   0.4810       0.1583E-3    -.2118E-1    0.1421E-3    -.2378E-1    0.1583E-3    -.2118E-1
   0.5010       0.1649E-3    -.2115E-1    0.1481E-3    -.2376E-1    0.1649E-3    -.2115E-1
   0.5210       0.1715E-3    -.2112E-1    0.1541E-3    -.2373E-1    0.1715E-3    -.2112E-1
   0.5411       0.1782E-3    -.2108E-1    0.1600E-3    -.2369E-1    0.1782E-3    -.2108E-1
   0.5611       0.1848E-3    -.2105E-1    0.1660E-3    -.2366E-1    0.1848E-3    -.2105E-1
   0.5812       0.1915E-3    -.2101E-1    0.1720E-3    -.2363E-1    0.1915E-3    -.2101E-1
   0.6012       0.1981E-3    -.2097E-1    0.1780E-3    -.2359E-1    0.1981E-3    -.2097E-1
   0.6212       0.2048E-3    -.2093E-1    0.1840E-3    -.2356E-1    0.2048E-3    -.2093E-1
   0.6413       0.2114E-3    -.2089E-1    0.1900E-3    -.2352E-1    0.2114E-3    -.2089E-1
   0.6613       0.2181E-3    -.2084E-1    0.1960E-3    -.2348E-1    0.2181E-3    -.2084E-1
   0.6814       0.2248E-3    -.2080E-1    0.2020E-3    -.2344E-1    0.2248E-3    -.2080E-1
   0.7014       0.2315E-3    -.2075E-1    0.2080E-3    -.2340E-1    0.2315E-3    -.2075E-1
   0.7214       0.2382E-3    -.2071E-1    0.2140E-3    -.2336E-1    0.2382E-3    -.2071E-1
   0.7415       0.2449E-3    -.2066E-1    0.2200E-3    -.2331E-1    0.2449E-3    -.2066E-1
   0.7615       0.2516E-3    -.2061E-1    0.2261E-3    -.2327E-1    0.2516E-3    -.2061E-1
   0.7816       0.2583E-3    -.2056E-1    0.2321E-3    -.2322E-1    0.2583E-3    -.2056E-1
   0.8016       0.2650E-3    -.2051E-1    0.2382E-3    -.2318E-1    0.2650E-3    -.2051E-1
   0.8216       0.2717E-3    -.2045E-1    0.2442E-3    -.2313E-1    0.2717E-3    -.2045E-1
   0.8417       0.2784E-3    -.2040E-1    0.2503E-3    -.2308E-1    0.2784E-3    -.2040E-1
   0.8617       0.2852E-3    -.2034E-1    0.2564E-3    -.2303E-1    0.2852E-3    -.2034E-1
   0.8818       0.2919E-3    -.2028E-1    0.2625E-3    -.2297E-1    0.2919E-3    -.2028E-1
   0.9018       0.2987E-3    -.2022E-1    0.2686E-3    -.2292E-1    0.2987E-3    -.2022E-1
   0.9218       0.3055E-3    -.2016E-1    0.2747E-3    -.2287E-1    0.3055E-3    -.2016E-1
   0.9419       0.3122E-3    -.2010E-1    0.2808E-3    -.2281E-1    0.3122E-3    -.2010E-1
   0.9619       0.3190E-3    -.2004E-1    0.2869E-3    -.2275E-1    0.3190E-3    -.2004E-1
   0.9820       0.3258E-3    -.1997E-1    0.2931E-3    -.2270E-1    0.3258E-3    -.1997E-1
    1.002       0.3326E-3    -.1991E-1    0.2992E-3    -.2264E-1    0.3326E-3    -.1991E-1
    1.022       0.3394E-3    -.1984E-1    0.3054E-3    -.2258E-1    0.3394E-3    -.1984E-1
    1.042       0.3463E-3    -.1977E-1    0.3115E-3    -.2251E-1    0.3463E-3    -.1977E-1
    1.062       0.3531E-3    -.1970E-1    0.3177E-3    -.2245E-1    0.3531E-3    -.1970E-1
    1.082       0.3599E-3    -.1963E-1    0.3239E-3    -.2239E-1    0.3599E-3    -.1963E-1
    1.102       0.3668E-3    -.1956E-1    0.3301E-3    -.2232E-1    0.3668E-3    -.1956E-1
    1.122       0.3737E-3    -.1948E-1    0.3363E-3    -.2226E-1    0.3737E-3    -.1948E-1
    1.142       0.3805E-3    -.1941E-1    0.3426E-3    -.2219E-1    0.3805E-3    -.1941E-1
    1.162       0.3874E-3    -.1933E-1    0.3488E-3    -.2212E-1    0.3874E-3    -.1933E-1
    1.182       0.3943E-3    -.1925E-1    0.3551E-3    -.2205E-1    0.3943E-3    -.1925E-1
    1.202       0.4013E-3    -.1917E-1    0.3613E-3    -.2198E-1    0.4013E-3    -.1917E-1
    1.222       0.4082E-3    -.1909E-1    0.3676E-3    -.2190E-1    0.4082E-3    -.1909E-1
    1.242       0.4152E-3    -.1901E-1    0.3739E-3    -.2183E-1    0.4152E-3    -.1901E-1
    1.263       0.4221E-3    -.1893E-1    0.3802E-3    -.2175E-1    0.4221E-3    -.1893E-1
    1.283       0.4291E-3    -.1884E-1    0.3866E-3    -.2168E-1    0.4291E-3    -.1884E-1
    1.303       0.4361E-3    -.1875E-1    0.3929E-3    -.2160E-1    0.4361E-3    -.1875E-1
    1.323       0.4431E-3    -.1867E-1    0.3993E-3    -.2152E-1    0.4431E-3    -.1867E-1
    1.343       0.4501E-3    -.1858E-1    0.4057E-3    -.2144E-1    0.4501E-3    -.1858E-1
    1.363       0.4571E-3    -.1848E-1    0.4121E-3    -.2136E-1    0.4571E-3    -.1848E-1
    1.383       0.4642E-3    -.1839E-1    0.4185E-3    -.2127E-1    0.4642E-3    -.1839E-1
    1.403       0.4713E-3    -.1830E-1    0.4250E-3    -.2119E-1    0.4713E-3    -.1830E-1
    1.423       0.4784E-3    -.1820E-1    0.4314E-3    -.2110E-1    0.4784E-3    -.1820E-1
    1.443       0.4855E-3    -.1811E-1    0.4379E-3    -.2102E-1    0.4855E-3    -.1811E-1
    1.463       0.4926E-3    -.1801E-1    0.4444E-3    -.2093E-1    0.4926E-3    -.1801E-1
    1.483       0.4997E-3    -.1791E-1    0.4509E-3    -.2084E-1    0.4997E-3    -.1791E-1
    1.503       0.5069E-3    -.1781E-1    0.4575E-3    -.2075E-1    0.5069E-3    -.1781E-1
    1.523       0.5141E-3    -.1771E-1    0.4641E-3    -.2065E-1    0.5141E-3    -.1771E-1
    1.543       0.5213E-3    -.1760E-1    0.4707E-3    -.2056E-1    0.5213E-3    -.1760E-1
    1.563       0.5285E-3    -.1750E-1    0.4773E-3    -.2047E-1    0.5285E-3    -.1750E-1
    1.583       0.5358E-3    -.1739E-1    0.4839E-3    -.2037E-1    0.5358E-3    -.1739E-1
    1.603       0.5430E-3    -.1728E-1    0.4906E-3    -.2027E-1    0.5430E-3    -.1728E-1
    1.623       0.5503E-3    -.1717E-1    0.4973E-3    -.2017E-1    0.5503E-3    -.1717E-1
    1.643       0.5577E-3    -.1706E-1    0.5040E-3    -.2007E-1    0.5577E-3    -.1706E-1
    1.663       0.5650E-3    -.1695E-1    0.5108E-3    -.1997E-1    0.5650E-3    -.1695E-1
    1.683       0.5724E-3    -.1684E-1    0.5176E-3    -.1987E-1    0.5724E-3    -.1684E-1
    1.703       0.5798E-3    -.1672E-1    0.5244E-3    -.1976E-1    0.5798E-3    -.1672E-1
    1.723       0.5872E-3    -.1660E-1    0.5312E-3    -.1966E-1    0.5872E-3    -.1660E-1
    1.743       0.5946E-3    -.1649E-1    0.5381E-3    -.1955E-1    0.5946E-3    -.1649E-1
    1.764       0.6021E-3    -.1637E-1    0.5450E-3    -.1944E-1    0.6021E-3    -.1637E-1
    1.784       0.6096E-3    -.1624E-1    0.5520E-3    -.1933E-1    0.6096E-3    -.1624E-1
    1.804       0.6172E-3    -.1612E-1    0.5589E-3    -.1922E-1    0.6172E-3    -.1612E-1
    1.824       0.6247E-3    -.1600E-1    0.5660E-3    -.1911E-1    0.6247E-3    -.1600E-1
    1.844       0.6324E-3    -.1587E-1    0.5730E-3    -.1899E-1    0.6324E-3    -.1587E-1
    1.864       0.6400E-3    -.1574E-1    0.5801E-3    -.1888E-1    0.6400E-3    -.1574E-1
    1.884       0.6477E-3    -.1561E-1    0.5873E-3    -.1876E-1    0.6477E-3    -.1561E-1
    1.904       0.6553E-3    -.1548E-1    0.5944E-3    -.1864E-1    0.6553E-3    -.1548E-1
    1.924       0.6631E-3    -.1535E-1    0.6017E-3    -.1852E-1    0.6631E-3    -.1535E-1
    1.944       0.6708E-3    -.1522E-1    0.6089E-3    -.1840E-1    0.6708E-3    -.1522E-1
    1.964       0.6786E-3    -.1508E-1    0.6163E-3    -.1828E-1    0.6786E-3    -.1508E-1
    1.984       0.6865E-3    -.1495E-1    0.6236E-3    -.1816E-1    0.6865E-3    -.1495E-1
    2.004       0.6943E-3    -.1481E-1    0.6311E-3    -.1803E-1    0.6943E-3    -.1481E-1
    2.024       0.7023E-3    -.1467E-1    0.6385E-3    -.1790E-1    0.7023E-3    -.1467E-1
    2.044       0.7102E-3    -.1453E-1    0.6461E-3    -.1777E-1    0.7102E-3    -.1453E-1
    2.064       0.7183E-3    -.1438E-1    0.6536E-3    -.1764E-1    0.7183E-3    -.1438E-1
    2.084       0.7263E-3    -.1424E-1    0.6613E-3    -.1751E-1    0.7263E-3    -.1424E-1
    2.104       0.7344E-3    -.1409E-1    0.6690E-3    -.1738E-1    0.7344E-3    -.1409E-1
    2.124       0.7426E-3    -.1395E-1    0.6768E-3    -.1724E-1    0.7426E-3    -.1395E-1
    2.144       0.7508E-3    -.1380E-1    0.6846E-3    -.1711E-1    0.7508E-3    -.1380E-1
    2.164       0.7591E-3    -.1364E-1    0.6925E-3    -.1697E-1    0.7591E-3    -.1364E-1
    2.184       0.7674E-3    -.1349E-1    0.7005E-3    -.1683E-1    0.7674E-3    -.1349E-1
    2.204       0.7758E-3    -.1334E-1    0.7086E-3    -.1669E-1    0.7758E-3    -.1334E-1
    2.224       0.7842E-3    -.1318E-1    0.7167E-3    -.1655E-1    0.7842E-3    -.1318E-1
    2.244       0.7928E-3    -.1302E-1    0.7249E-3    -.1640E-1    0.7928E-3    -.1302E-1
    2.265       0.8013E-3    -.1286E-1    0.7332E-3    -.1626E-1    0.8013E-3    -.1286E-1
    2.285       0.8100E-3    -.1270E-1    0.7416E-3    -.1611E-1    0.8100E-3    -.1270E-1
    2.305       0.8187E-3    -.1254E-1    0.7501E-3    -.1596E-1    0.8187E-3    -.1254E-1
    2.325       0.8275E-3    -.1237E-1    0.7587E-3    -.1581E-1    0.8275E-3    -.1237E-1
    2.345       0.8364E-3    -.1221E-1    0.7674E-3    -.1566E-1    0.8364E-3    -.1221E-1
    2.365       0.8453E-3    -.1204E-1    0.7762E-3    -.1550E-1    0.8453E-3    -.1204E-1
    2.385       0.8544E-3    -.1187E-1    0.7852E-3    -.1535E-1    0.8544E-3    -.1187E-1
    2.405       0.8635E-3    -.1170E-1    0.7942E-3    -.1519E-1    0.8635E-3    -.1170E-1
    2.425       0.8727E-3    -.1152E-1    0.8034E-3    -.1503E-1    0.8727E-3    -.1152E-1
    2.445       0.8820E-3    -.1135E-1    0.8127E-3    -.1487E-1    0.8820E-3    -.1135E-1
    2.465       0.8914E-3    -.1117E-1    0.8221E-3    -.1470E-1    0.8914E-3    -.1117E-1
    2.485       0.9010E-3    -.1099E-1    0.8317E-3    -.1454E-1    0.9010E-3    -.1099E-1
    2.505       0.9106E-3    -.1081E-1    0.8415E-3    -.1437E-1    0.9106E-3    -.1081E-1
    2.525       0.9203E-3    -.1063E-1    0.8514E-3    -.1420E-1    0.9203E-3    -.1063E-1
    2.545       0.9302E-3    -.1044E-1    0.8616E-3    -.1403E-1    0.9302E-3    -.1044E-1
    2.565       0.9402E-3    -.1025E-1    0.8719E-3    -.1386E-1    0.9402E-3    -.1025E-1
    2.585       0.9504E-3    -.1006E-1    0.8824E-3    -.1368E-1    0.9504E-3    -.1006E-1
    2.605       0.9607E-3    -.9873E-2    0.8931E-3    -.1350E-1    0.9607E-3    -.9873E-2
    2.625       0.9711E-3    -.9680E-2    0.9040E-3    -.1332E-1    0.9711E-3    -.9680E-2
    2.645       0.9818E-3    -.9485E-2    0.9152E-3    -.1314E-1    0.9818E-3    -.9485E-2
    2.665       0.9925E-3    -.9287E-2    0.9267E-3    -.1296E-1    0.9925E-3    -.9287E-2
    2.685       0.1004E-2    -.9088E-2    0.9384E-3    -.1277E-1    0.1004E-2    -.9088E-2
    2.705       0.1015E-2    -.8886E-2    0.9504E-3    -.1258E-1    0.1015E-2    -.8886E-2
    2.725       0.1026E-2    -.8682E-2    0.9628E-3    -.1239E-1    0.1026E-2    -.8682E-2
    2.745       0.1038E-2    -.8475E-2    0.9755E-3    -.1220E-1    0.1038E-2    -.8475E-2
    2.766       0.1050E-2    -.8266E-2    0.9885E-3    -.1200E-1    0.1050E-2    -.8266E-2
    2.786       0.1062E-2    -.8055E-2    0.1002E-2    -.1180E-1    0.1062E-2    -.8055E-2
    2.806       0.1074E-2    -.7842E-2    0.1016E-2    -.1160E-1    0.1074E-2    -.7842E-2
    2.826       0.1087E-2    -.7626E-2    0.1030E-2    -.1140E-1    0.1087E-2    -.7626E-2
    2.846       0.1100E-2    -.7407E-2    0.1045E-2    -.1119E-1    0.1100E-2    -.7407E-2
    2.866       0.1113E-2    -.7186E-2    0.1061E-2    -.1098E-1    0.1113E-2    -.7186E-2
    2.886       0.1127E-2    -.6963E-2    0.1077E-2    -.1077E-1    0.1127E-2    -.6963E-2
    2.906       0.1141E-2    -.6736E-2    0.1093E-2    -.1055E-1    0.1141E-2    -.6736E-2
    2.926       0.1155E-2    -.6507E-2    0.1111E-2    -.1033E-1    0.1155E-2    -.6507E-2
    2.946       0.1171E-2    -.6275E-2    0.1129E-2    -.1011E-1    0.1171E-2    -.6275E-2
    2.966       0.1186E-2    -.6039E-2    0.1149E-2    -.9881E-2    0.1186E-2    -.6039E-2
    2.986       0.1202E-2    -.5801E-2    0.1169E-2    -.9651E-2    0.1202E-2    -.5801E-2
    3.006       0.1219E-2    -.5560E-2    0.1190E-2    -.9417E-2    0.1219E-2    -.5560E-2
    3.026       0.1237E-2    -.5315E-2    0.1213E-2    -.9178E-2    0.1237E-2    -.5315E-2
    3.046       0.1255E-2    -.5067E-2    0.1237E-2    -.8936E-2    0.1255E-2    -.5067E-2
    3.066       0.1274E-2    -.4815E-2    0.1263E-2    -.8688E-2    0.1274E-2    -.4815E-2
    3.086       0.1295E-2    -.4559E-2    0.1290E-2    -.8436E-2    0.1295E-2    -.4559E-2
    3.106       0.1316E-2    -.4300E-2    0.1320E-2    -.8178E-2    0.1316E-2    -.4300E-2
    3.126       0.1338E-2    -.4036E-2    0.1352E-2    -.7915E-2    0.1338E-2    -.4036E-2
    3.146       0.1363E-2    -.3768E-2    0.1387E-2    -.7646E-2    0.1363E-2    -.3768E-2
    3.166       0.1388E-2    -.3496E-2    0.1425E-2    -.7371E-2    0.1388E-2    -.3496E-2
    3.186       0.1416E-2    -.3218E-2    0.1467E-2    -.7088E-2    0.1416E-2    -.3218E-2
    3.206       0.1446E-2    -.2936E-2    0.1513E-2    -.6799E-2    0.1446E-2    -.2936E-2
    3.226       0.1478E-2    -.2648E-2    0.1565E-2    -.6501E-2    0.1478E-2    -.2648E-2
    3.246       0.1514E-2    -.2354E-2    0.1623E-2    -.6195E-2    0.1514E-2    -.2354E-2
    3.267       0.1552E-2    -.2054E-2    0.1689E-2    -.5879E-2    0.1552E-2    -.2054E-2
    3.287       0.1596E-2    -.1747E-2    0.1765E-2    -.5553E-2    0.1596E-2    -.1747E-2
    3.307       0.1644E-2    -.1433E-2    0.1852E-2    -.5216E-2    0.1644E-2    -.1433E-2
    3.327       0.1698E-2    -.1111E-2    0.1954E-2    -.4867E-2    0.1698E-2    -.1111E-2
    3.347       0.1760E-2    -.7802E-3    0.2074E-2    -.4506E-2    0.1761E-2    -.7802E-3
    3.367       0.1832E-2    -.4406E-3    0.2217E-2    -.4131E-2    0.1832E-2    -.4406E-3
    3.387       0.1915E-2    -.9138E-4    0.2391E-2    -.3745E-2    0.1915E-2    -.9138E-4
    3.407       0.2013E-2    0.2680E-3    0.2603E-2    -.3348E-2    0.2013E-2    0.2680E-3
    3.427       0.2130E-2    0.6376E-3    0.2865E-2    -.2945E-2    0.2130E-2    0.6376E-3
    3.447       0.2270E-2    0.1017E-2    0.3192E-2    -.2546E-2    0.2270E-2    0.1017E-2
    3.467       0.2443E-2    0.1404E-2    0.3600E-2    -.2169E-2    0.2443E-2    0.1404E-2
    3.487       0.2655E-2    0.1795E-2    0.4104E-2    -.1845E-2    0.2655E-2    0.1795E-2
    3.507       0.2920E-2    0.2182E-2    0.4713E-2    -.1629E-2    0.2920E-2    0.2182E-2
    3.527       0.3249E-2    0.2548E-2    0.5400E-2    -.1593E-2    0.3249E-2    0.2548E-2
    3.547       0.3656E-2    0.2866E-2    0.6085E-2    -.1817E-2    0.3656E-2    0.2866E-2
    3.567       0.4140E-2    0.3092E-2    0.6612E-2    -.2324E-2    0.4141E-2    0.3092E-2
    3.587       0.4678E-2    0.3166E-2    0.6810E-2    -.3015E-2    0.4679E-2    0.3166E-2
    3.607       0.5195E-2    0.3030E-2    0.6611E-2    -.3675E-2    0.5195E-2    0.3030E-2
    3.627       0.5562E-2    0.2681E-2    0.6113E-2    -.4105E-2    0.5562E-2    0.2681E-2
    3.647       0.5655E-2    0.2217E-2    0.5496E-2    -.4233E-2    0.5655E-2    0.2217E-2
    3.667       0.5445E-2    0.1810E-2    0.4900E-2    -.4101E-2    0.5445E-2    0.1810E-2
    3.687       0.5028E-2    0.1601E-2    0.4395E-2    -.3790E-2    0.5028E-2    0.1601E-2
    3.707       0.4543E-2    0.1623E-2    0.3997E-2    -.3369E-2    0.4543E-2    0.1623E-2
    3.727       0.4087E-2    0.1835E-2    0.3698E-2    -.2887E-2    0.4087E-2    0.1835E-2
    3.747       0.3706E-2    0.2173E-2    0.3481E-2    -.2370E-2    0.3706E-2    0.2173E-2
    3.768       0.3405E-2    0.2586E-2    0.3332E-2    -.1835E-2    0.3405E-2    0.2586E-2
    3.788       0.3176E-2    0.3041E-2    0.3237E-2    -.1288E-2    0.3176E-2    0.3041E-2
    3.808       0.3007E-2    0.3518E-2    0.3189E-2    -.7324E-3    0.3007E-2    0.3518E-2
    3.828       0.2885E-2    0.4006E-2    0.3179E-2    -.1684E-3    0.2885E-2    0.4006E-2
    3.848       0.2801E-2    0.4500E-2    0.3205E-2    0.4055E-3    0.2801E-2    0.4500E-2
    3.868       0.2747E-2    0.4998E-2    0.3264E-2    0.9915E-3    0.2747E-2    0.4998E-2
    3.888       0.2719E-2    0.5499E-2    0.3355E-2    0.1592E-2    0.2719E-2    0.5499E-2
    3.908       0.2711E-2    0.6005E-2    0.3481E-2    0.2211E-2    0.2711E-2    0.6005E-2
    3.928       0.2722E-2    0.6516E-2    0.3645E-2    0.2851E-2    0.2722E-2    0.6516E-2
    3.948       0.2749E-2    0.7035E-2    0.3850E-2    0.3515E-2    0.2749E-2    0.7035E-2
    3.968       0.2792E-2    0.7561E-2    0.4105E-2    0.4208E-2    0.2792E-2    0.7561E-2
    3.988       0.2850E-2    0.8098E-2    0.4420E-2    0.4934E-2    0.2850E-2    0.8098E-2
    4.008       0.2925E-2    0.8648E-2    0.4807E-2    0.5694E-2    0.2925E-2    0.8648E-2
    4.028       0.3016E-2    0.9211E-2    0.5286E-2    0.6492E-2    0.3016E-2    0.9211E-2
    4.048       0.3126E-2    0.9792E-2    0.5879E-2    0.7326E-2    0.3126E-2    0.9792E-2
    4.068       0.3256E-2    0.1039E-1    0.6622E-2    0.8192E-2    0.3256E-2    0.1039E-1
    4.088       0.3410E-2    0.1101E-1    0.7555E-2    0.9075E-2    0.3410E-2    0.1101E-1
    4.108       0.3591E-2    0.1166E-1    0.8737E-2    0.9944E-2    0.3591E-2    0.1166E-1
    4.128       0.3806E-2    0.1233E-1    0.1023E-1    0.1074E-1    0.3806E-2    0.1233E-1
    4.148       0.4060E-2    0.1304E-1    0.1212E-1    0.1135E-1    0.4060E-2    0.1304E-1
      4.1683       0.0044       0.0138       0.0144       0.0116       0.0044       0.0138
      4.1884       0.0047       0.0146       0.0172       0.0112       0.0047       0.0146
      4.2084       0.0052       0.0154       0.0201       0.0097       0.0052       0.0154
      4.2285       0.0057       0.0162       0.0226       0.0071       0.0057       0.0162
    4.248       0.6357E-2    0.1713E-1    0.2401E-1    0.3283E-2    0.6358E-2    0.1713E-1
    4.269       0.7175E-2    0.1807E-1    0.2372E-1    -.8096E-3    0.7175E-2    0.1807E-1
    4.289       0.8198E-2    0.1902E-1    0.2187E-1    -.4254E-2    0.8198E-2    0.1902E-1
      4.3086       0.0095       0.0200       0.0192      -0.0065       0.0095       0.0200
      4.3287       0.0111       0.0208       0.0163      -0.0075       0.0111       0.0208
      4.3487       0.0132       0.0215       0.0137      -0.0076       0.0132       0.0215
      4.3687       0.0157       0.0217       0.0116      -0.0072       0.0157       0.0217
      4.3888       0.0186       0.0212       0.0099      -0.0065       0.0186       0.0212
      4.4088       0.0217       0.0196       0.0085      -0.0056       0.0217       0.0196
      4.4289       0.0243       0.0166       0.0074      -0.0047       0.0243       0.0166
    4.449       0.2563E-1    0.1260E-1    0.6605E-2    -.3760E-2    0.2563E-1    0.1260E-1
    4.469       0.2515E-1    0.8327E-2    0.5943E-2    -.2848E-2    0.2515E-1    0.8326E-2
    4.489       0.2308E-1    0.4823E-2    0.5417E-2    -.1965E-2    0.2308E-1    0.4822E-2
    4.509       0.2016E-1    0.2629E-2    0.4995E-2    -.1113E-2    0.2016E-1    0.2629E-2
    4.529       0.1716E-1    0.1690E-2    0.4656E-2    -.2931E-3    0.1715E-1    0.1690E-2
    4.549       0.1447E-1    0.1660E-2    0.4382E-2    0.4978E-3    0.1447E-1    0.1661E-2
    4.569       0.1226E-1    0.2188E-2    0.4161E-2    0.1263E-2    0.1225E-1    0.2188E-2
    4.589       0.1048E-1    0.3016E-2    0.3983E-2    0.2005E-2    0.1048E-1    0.3016E-2
    4.609       0.9089E-2    0.3987E-2    0.3841E-2    0.2729E-2    0.9089E-2    0.3987E-2
    4.629       0.7995E-2    0.5010E-2    0.3729E-2    0.3437E-2    0.7995E-2    0.5010E-2
    4.649       0.7134E-2    0.6036E-2    0.3642E-2    0.4132E-2    0.7134E-2    0.6037E-2
    4.669       0.6454E-2    0.7043E-2    0.3578E-2    0.4818E-2    0.6454E-2    0.7044E-2
    4.689       0.5913E-2    0.8020E-2    0.3533E-2    0.5497E-2    0.5913E-2    0.8020E-2
    4.709       0.5481E-2    0.8964E-2    0.3506E-2    0.6173E-2    0.5480E-2    0.8964E-2
    4.729       0.5134E-2    0.9876E-2    0.3495E-2    0.6846E-2    0.5133E-2    0.9876E-2
    4.749       0.4855E-2    0.1076E-1    0.3500E-2    0.7521E-2    0.4854E-2    0.1076E-1
    4.770       0.4630E-2    0.1161E-1    0.3519E-2    0.8198E-2    0.4630E-2    0.1161E-1
    4.790       0.4451E-2    0.1245E-1    0.3554E-2    0.8882E-2    0.4451E-2    0.1245E-1
    4.810       0.4309E-2    0.1326E-1    0.3602E-2    0.9573E-2    0.4309E-2    0.1326E-1
    4.830       0.4198E-2    0.1406E-1    0.3666E-2    0.1027E-1    0.4198E-2    0.1406E-1
    4.850       0.4114E-2    0.1485E-1    0.3746E-2    0.1099E-1    0.4114E-2    0.1485E-1
    4.870       0.4053E-2    0.1563E-1    0.3843E-2    0.1172E-1    0.4053E-2    0.1563E-1
    4.890       0.4013E-2    0.1640E-1    0.3958E-2    0.1246E-1    0.4013E-2    0.1640E-1
    4.910       0.3992E-2    0.1717E-1    0.4094E-2    0.1323E-1    0.3992E-2    0.1717E-1
    4.930       0.3988E-2    0.1794E-1    0.4253E-2    0.1403E-1    0.3988E-2    0.1794E-1
    4.950       0.4000E-2    0.1871E-1    0.4437E-2    0.1485E-1    0.4000E-2    0.1871E-1
    4.970       0.4029E-2    0.1949E-1    0.4652E-2    0.1570E-1    0.4029E-2    0.1949E-1
    4.990       0.4072E-2    0.2028E-1    0.4902E-2    0.1659E-1    0.4072E-2    0.2028E-1
    5.010       0.4132E-2    0.2107E-1    0.5192E-2    0.1752E-1    0.4132E-2    0.2107E-1
    5.030       0.4207E-2    0.2188E-1    0.5531E-2    0.1850E-1    0.4207E-2    0.2188E-1
    5.050       0.4299E-2    0.2270E-1    0.5928E-2    0.1953E-1    0.4299E-2    0.2270E-1
    5.070       0.4410E-2    0.2354E-1    0.6396E-2    0.2062E-1    0.4410E-2    0.2354E-1
    5.090       0.4540E-2    0.2440E-1    0.6950E-2    0.2177E-1    0.4540E-2    0.2440E-1
    5.110       0.4692E-2    0.2528E-1    0.7611E-2    0.2300E-1    0.4692E-2    0.2528E-1
    5.130       0.4868E-2    0.2620E-1    0.8405E-2    0.2431E-1    0.4868E-2    0.2620E-1
    5.150       0.5071E-2    0.2714E-1    0.9366E-2    0.2570E-1    0.5071E-2    0.2714E-1
      5.1703       0.0053       0.0281       0.0105       0.0272       0.0053       0.0281
      5.1904       0.0056       0.0291       0.0120       0.0288       0.0056       0.0291
      5.2104       0.0059       0.0302       0.0138       0.0304       0.0059       0.0302
      5.2305       0.0063       0.0313       0.0161       0.0321       0.0063       0.0313
      5.2505       0.0067       0.0325       0.0189       0.0337       0.0067       0.0325
      5.2705       0.0072       0.0337       0.0226       0.0352       0.0072       0.0337
      5.2906       0.0077       0.0351       0.0271       0.0361       0.0077       0.0351
      5.3106       0.0084       0.0365       0.0327       0.0361       0.0084       0.0365
      5.3307       0.0092       0.0379       0.0393       0.0345       0.0092       0.0379
     5.35070      0.01022      0.03953      0.04614      0.03039      0.01022      0.03953
     5.37074      0.01140      0.04122      0.05196      0.02327      0.01140      0.04122
     5.39078      0.01285      0.04303      0.05490      0.01369      0.01285      0.04303
    5.411       0.1464E-1    0.4494E-1    0.5377E-1    0.3557E-2    0.1464E-1    0.4494E-1
    5.431       0.1686E-1    0.4693E-1    0.4905E-1    -.4849E-2    0.1686E-1    0.4693E-1
     5.45090      0.01964      0.04897      0.04246     -0.01032      0.01965      0.04897
     5.47094      0.02317      0.05094      0.03565     -0.01299      0.02317      0.05095
     5.49098      0.02763      0.05267      0.02957     -0.01362      0.02763      0.05267
     5.51102      0.03322      0.05379      0.02453     -0.01302      0.03323      0.05379
     5.53106      0.04009      0.05372      0.02050     -0.01176      0.04009      0.05372
     5.55110      0.04804      0.05161      0.01730     -0.01019      0.04805      0.05161
      5.5711       0.0563       0.0465       0.0148      -0.0085       0.0563       0.0465
      5.5912       0.0631       0.0377       0.0128      -0.0068       0.0632       0.0377
    5.611       0.6640E-1    0.2607E-1    0.1117E-1    -.5235E-2    0.6640E-1    0.2607E-1
    5.631       0.6474E-1    0.1402E-1    0.9875E-2    -.3707E-2    0.6475E-1    0.1401E-1
    5.651       0.5890E-1    0.4207E-2    0.8819E-2    -.2269E-2    0.5891E-1    0.4198E-2
    5.671       0.5099E-1    -.2035E-2    0.7949E-2    -.9208E-3    0.5100E-1    -.2047E-2
    5.691       0.4297E-1    -.4957E-2    0.7227E-2    0.3432E-3    0.4297E-1    -.4971E-2
    5.711       0.3590E-1    -.5516E-2    0.6622E-2    0.1530E-2    0.3590E-1    -.5532E-2
    5.731       0.3012E-1    -.4656E-2    0.6111E-2    0.2646E-2    0.3011E-1    -.4671E-2
    5.752       0.2558E-1    -.3057E-2    0.5675E-2    0.3698E-2    0.2557E-1    -.3071E-2
    5.772       0.2210E-1    -.1154E-2    0.5303E-2    0.4694E-2    0.2208E-1    -.1164E-2
    5.792       0.1946E-1    0.7868E-3    0.4981E-2    0.5639E-2    0.1944E-1    0.7823E-3
    5.812       0.1747E-1    0.2596E-2    0.4702E-2    0.6538E-2    0.1744E-1    0.2600E-2
    5.832       0.1593E-1    0.4172E-2    0.4459E-2    0.7397E-2    0.1590E-1    0.4188E-2
    5.852       0.1463E-1    0.5493E-2    0.4246E-2    0.8220E-2    0.1461E-1    0.5519E-2
    5.872       0.1340E-1    0.6629E-2    0.4058E-2    0.9010E-2    0.1340E-1    0.6658E-2
    5.892       0.1218E-1    0.7711E-2    0.3892E-2    0.9771E-2    0.1219E-1    0.7736E-2
    5.912       0.1099E-1    0.8838E-2    0.3744E-2    0.1051E-1    0.1100E-1    0.8855E-2
    5.932       0.9892E-2    0.1004E-1    0.3613E-2    0.1122E-1    0.9908E-2    0.1004E-1
    5.952       0.8935E-2    0.1128E-1    0.3496E-2    0.1191E-1    0.8949E-2    0.1128E-1
    5.972       0.8121E-2    0.1253E-1    0.3390E-2    0.1258E-1    0.8133E-2    0.1253E-1
    5.992       0.7438E-2    0.1376E-1    0.3296E-2    0.1323E-1    0.7447E-2    0.1376E-1
    6.012       0.6865E-2    0.1495E-1    0.3211E-2    0.1387E-1    0.6873E-2    0.1495E-1
    6.032       0.6384E-2    0.1610E-1    0.3134E-2    0.1449E-1    0.6389E-2    0.1609E-1
    6.052       0.5976E-2    0.1720E-1    0.3064E-2    0.1510E-1    0.5980E-2    0.1719E-1
    6.072       0.5628E-2    0.1825E-1    0.3001E-2    0.1569E-1    0.5631E-2    0.1825E-1
    6.092       0.5328E-2    0.1926E-1    0.2943E-2    0.1628E-1    0.5331E-2    0.1926E-1
    6.112       0.5070E-2    0.2024E-1    0.2891E-2    0.1686E-1    0.5072E-2    0.2024E-1
    6.132       0.4844E-2    0.2117E-1    0.2843E-2    0.1742E-1    0.4846E-2    0.2117E-1
    6.152       0.4647E-2    0.2208E-1    0.2799E-2    0.1798E-1    0.4648E-2    0.2208E-1
    6.172       0.4473E-2    0.2295E-1    0.2760E-2    0.1853E-1    0.4474E-2    0.2295E-1
    6.192       0.4320E-2    0.2380E-1    0.2723E-2    0.1908E-1    0.4321E-2    0.2380E-1
    6.212       0.4183E-2    0.2462E-1    0.2690E-2    0.1961E-1    0.4184E-2    0.2462E-1
    6.232       0.4062E-2    0.2543E-1    0.2659E-2    0.2015E-1    0.4063E-2    0.2542E-1
    6.253       0.3953E-2    0.2621E-1    0.2631E-2    0.2067E-1    0.3954E-2    0.2621E-1
    6.273       0.3856E-2    0.2697E-1    0.2606E-2    0.2119E-1    0.3857E-2    0.2697E-1
    6.293       0.3769E-2    0.2772E-1    0.2582E-2    0.2171E-1    0.3770E-2    0.2772E-1
    6.313       0.3691E-2    0.2845E-1    0.2561E-2    0.2222E-1    0.3691E-2    0.2845E-1
    6.333       0.3621E-2    0.2917E-1    0.2541E-2    0.2273E-1    0.3621E-2    0.2917E-1
    6.353       0.3558E-2    0.2988E-1    0.2523E-2    0.2323E-1    0.3558E-2    0.2988E-1
    6.373       0.3501E-2    0.3058E-1    0.2506E-2    0.2373E-1    0.3501E-2    0.3057E-1
    6.393       0.3450E-2    0.3126E-1    0.2491E-2    0.2423E-1    0.3450E-2    0.3126E-1
    6.413       0.3405E-2    0.3194E-1    0.2477E-2    0.2473E-1    0.3405E-2    0.3194E-1
    6.433       0.3364E-2    0.3261E-1    0.2464E-2    0.2522E-1    0.3364E-2    0.3261E-1
    6.453       0.3328E-2    0.3327E-1    0.2453E-2    0.2571E-1    0.3328E-2    0.3327E-1
    6.473       0.3297E-2    0.3393E-1    0.2442E-2    0.2620E-1    0.3297E-2    0.3393E-1
    6.493       0.3270E-2    0.3458E-1    0.2433E-2    0.2669E-1    0.3270E-2    0.3458E-1
    6.513       0.3248E-2    0.3523E-1    0.2424E-2    0.2717E-1    0.3247E-2    0.3522E-1
    6.533       0.3230E-2    0.3587E-1    0.2416E-2    0.2766E-1    0.3229E-2    0.3586E-1
    6.553       0.3216E-2    0.3650E-1    0.2409E-2    0.2814E-1    0.3215E-2    0.3650E-1
    6.573       0.3207E-2    0.3714E-1    0.2403E-2    0.2862E-1    0.3207E-2    0.3714E-1
    6.593       0.3204E-2    0.3777E-1    0.2397E-2    0.2910E-1    0.3203E-2    0.3777E-1
    6.613       0.3207E-2    0.3840E-1    0.2392E-2    0.2958E-1    0.3206E-2    0.3840E-1
    6.633       0.3217E-2    0.3902E-1    0.2388E-2    0.3006E-1    0.3216E-2    0.3902E-1
    6.653       0.3236E-2    0.3965E-1    0.2384E-2    0.3053E-1    0.3234E-2    0.3965E-1
    6.673       0.3266E-2    0.4027E-1    0.2381E-2    0.3101E-1    0.3264E-2    0.4027E-1
    6.693       0.3309E-2    0.4089E-1    0.2378E-2    0.3149E-1    0.3306E-2    0.4089E-1
    6.713       0.3369E-2    0.4150E-1    0.2376E-2    0.3196E-1    0.3365E-2    0.4150E-1
    6.733       0.3448E-2    0.4209E-1    0.2374E-2    0.3244E-1    0.3443E-2    0.4209E-1
    6.754       0.3548E-2    0.4267E-1    0.2373E-2    0.3291E-1    0.3542E-2    0.4267E-1
    6.774       0.3663E-2    0.4320E-1    0.2372E-2    0.3339E-1    0.3657E-2    0.4320E-1
    6.794       0.3778E-2    0.4369E-1    0.2371E-2    0.3386E-1    0.3772E-2    0.4369E-1
    6.814       0.3864E-2    0.4411E-1    0.2371E-2    0.3434E-1    0.3860E-2    0.4412E-1
    6.834       0.3888E-2    0.4450E-1    0.2371E-2    0.3481E-1    0.3886E-2    0.4451E-1
    6.854       0.3836E-2    0.4490E-1    0.2372E-2    0.3529E-1    0.3838E-2    0.4490E-1
    6.874       0.3728E-2    0.4533E-1    0.2372E-2    0.3576E-1    0.3732E-2    0.4533E-1
    6.894       0.3598E-2    0.4582E-1    0.2374E-2    0.3624E-1    0.3602E-2    0.4582E-1
    6.914       0.3471E-2    0.4635E-1    0.2375E-2    0.3671E-1    0.3475E-2    0.4636E-1
    6.934       0.3362E-2    0.4692E-1    0.2377E-2    0.3719E-1    0.3366E-2    0.4692E-1
    6.954       0.3273E-2    0.4751E-1    0.2379E-2    0.3766E-1    0.3276E-2    0.4751E-1
    6.974       0.3202E-2    0.4810E-1    0.2381E-2    0.3814E-1    0.3204E-2    0.4810E-1
    6.994       0.3146E-2    0.4870E-1    0.2383E-2    0.3862E-1    0.3148E-2    0.4870E-1
    7.014       0.3102E-2    0.4930E-1    0.2386E-2    0.3909E-1    0.3103E-2    0.4930E-1
    7.034       0.3067E-2    0.4990E-1    0.2389E-2    0.3957E-1    0.3068E-2    0.4990E-1
    7.054       0.3040E-2    0.5050E-1    0.2392E-2    0.4005E-1    0.3041E-2    0.5050E-1
    7.074       0.3018E-2    0.5110E-1    0.2395E-2    0.4053E-1    0.3019E-2    0.5110E-1
    7.094       0.3001E-2    0.5169E-1    0.2398E-2    0.4101E-1    0.3001E-2    0.5169E-1
    7.114       0.2987E-2    0.5229E-1    0.2402E-2    0.4149E-1    0.2987E-2    0.5228E-1
    7.134       0.2976E-2    0.5288E-1    0.2406E-2    0.4197E-1    0.2976E-2    0.5288E-1
    7.154       0.2967E-2    0.5347E-1    0.2410E-2    0.4245E-1    0.2968E-2    0.5347E-1
    7.174       0.2961E-2    0.5406E-1    0.2414E-2    0.4294E-1    0.2961E-2    0.5406E-1
    7.194       0.2956E-2    0.5465E-1    0.2418E-2    0.4342E-1    0.2956E-2    0.5465E-1
    7.214       0.2952E-2    0.5524E-1    0.2423E-2    0.4391E-1    0.2953E-2    0.5524E-1
    7.234       0.2950E-2    0.5583E-1    0.2427E-2    0.4439E-1    0.2950E-2    0.5583E-1
    7.255       0.2949E-2    0.5642E-1    0.2432E-2    0.4488E-1    0.2949E-2    0.5642E-1
    7.275       0.2948E-2    0.5701E-1    0.2437E-2    0.4537E-1    0.2948E-2    0.5701E-1
    7.295       0.2949E-2    0.5760E-1    0.2442E-2    0.4585E-1    0.2949E-2    0.5760E-1
    7.315       0.2950E-2    0.5819E-1    0.2447E-2    0.4634E-1    0.2950E-2    0.5819E-1
    7.335       0.2951E-2    0.5878E-1    0.2452E-2    0.4683E-1    0.2951E-2    0.5878E-1
    7.355       0.2954E-2    0.5937E-1    0.2458E-2    0.4733E-1    0.2954E-2    0.5937E-1
    7.375       0.2956E-2    0.5996E-1    0.2463E-2    0.4782E-1    0.2956E-2    0.5996E-1
    7.395       0.2960E-2    0.6055E-1    0.2469E-2    0.4831E-1    0.2960E-2    0.6055E-1
    7.415       0.2963E-2    0.6114E-1    0.2475E-2    0.4881E-1    0.2963E-2    0.6114E-1
    7.435       0.2967E-2    0.6174E-1    0.2481E-2    0.4930E-1    0.2967E-2    0.6174E-1
    7.455       0.2972E-2    0.6233E-1    0.2487E-2    0.4980E-1    0.2972E-2    0.6233E-1
    7.475       0.2977E-2    0.6293E-1    0.2493E-2    0.5030E-1    0.2977E-2    0.6293E-1
    7.495       0.2982E-2    0.6352E-1    0.2499E-2    0.5080E-1    0.2982E-2    0.6352E-1
    7.515       0.2987E-2    0.6412E-1    0.2505E-2    0.5130E-1    0.2987E-2    0.6412E-1
    7.535       0.2993E-2    0.6472E-1    0.2512E-2    0.5181E-1    0.2993E-2    0.6472E-1
    7.555       0.2999E-2    0.6532E-1    0.2518E-2    0.5231E-1    0.2999E-2    0.6532E-1
    7.575       0.3005E-2    0.6592E-1    0.2525E-2    0.5281E-1    0.3005E-2    0.6592E-1
    7.595       0.3012E-2    0.6652E-1    0.2532E-2    0.5332E-1    0.3012E-2    0.6652E-1
    7.615       0.3018E-2    0.6713E-1    0.2538E-2    0.5383E-1    0.3018E-2    0.6713E-1
    7.635       0.3025E-2    0.6773E-1    0.2545E-2    0.5434E-1    0.3025E-2    0.6773E-1
    7.655       0.3032E-2    0.6834E-1    0.2552E-2    0.5485E-1    0.3032E-2    0.6834E-1
    7.675       0.3040E-2    0.6895E-1    0.2559E-2    0.5536E-1    0.3040E-2    0.6895E-1
    7.695       0.3047E-2    0.6956E-1    0.2566E-2    0.5587E-1    0.3047E-2    0.6956E-1
    7.715       0.3055E-2    0.7017E-1    0.2574E-2    0.5639E-1    0.3055E-2    0.7017E-1
    7.735       0.3063E-2    0.7078E-1    0.2581E-2    0.5690E-1    0.3063E-2    0.7078E-1
    7.756       0.3071E-2    0.7140E-1    0.2588E-2    0.5742E-1    0.3071E-2    0.7140E-1
    7.776       0.3079E-2    0.7201E-1    0.2596E-2    0.5794E-1    0.3079E-2    0.7201E-1
    7.796       0.3088E-2    0.7263E-1    0.2603E-2    0.5846E-1    0.3088E-2    0.7263E-1
    7.816       0.3097E-2    0.7325E-1    0.2611E-2    0.5899E-1    0.3097E-2    0.7325E-1
    7.836       0.3105E-2    0.7387E-1    0.2619E-2    0.5951E-1    0.3105E-2    0.7387E-1
    7.856       0.3114E-2    0.7449E-1    0.2627E-2    0.6003E-1    0.3114E-2    0.7449E-1
    7.876       0.3124E-2    0.7512E-1    0.2634E-2    0.6056E-1    0.3124E-2    0.7512E-1
    7.896       0.3133E-2    0.7574E-1    0.2642E-2    0.6109E-1    0.3133E-2    0.7574E-1
    7.916       0.3142E-2    0.7637E-1    0.2651E-2    0.6162E-1    0.3142E-2    0.7637E-1
    7.936       0.3152E-2    0.7700E-1    0.2659E-2    0.6215E-1    0.3152E-2    0.7700E-1
    7.956       0.3162E-2    0.7764E-1    0.2667E-2    0.6269E-1    0.3162E-2    0.7764E-1
    7.976       0.3172E-2    0.7827E-1    0.2675E-2    0.6322E-1    0.3172E-2    0.7827E-1
    7.996       0.3182E-2    0.7891E-1    0.2684E-2    0.6376E-1    0.3182E-2    0.7891E-1
    8.016       0.3192E-2    0.7955E-1    0.2692E-2    0.6430E-1    0.3192E-2    0.7955E-1
    8.036       0.3202E-2    0.8019E-1    0.2700E-2    0.6484E-1    0.3202E-2    0.8019E-1
    8.056       0.3213E-2    0.8083E-1    0.2709E-2    0.6538E-1    0.3213E-2    0.8083E-1
    8.076       0.3223E-2    0.8147E-1    0.2718E-2    0.6592E-1    0.3223E-2    0.8147E-1
    8.096       0.3234E-2    0.8212E-1    0.2727E-2    0.6647E-1    0.3234E-2    0.8212E-1
    8.116       0.3245E-2    0.8277E-1    0.2735E-2    0.6701E-1    0.3245E-2    0.8277E-1
    8.136       0.3256E-2    0.8342E-1    0.2744E-2    0.6756E-1    0.3256E-2    0.8342E-1
    8.156       0.3267E-2    0.8407E-1    0.2753E-2    0.6811E-1    0.3267E-2    0.8407E-1
    8.176       0.3279E-2    0.8473E-1    0.2762E-2    0.6867E-1    0.3279E-2    0.8473E-1
    8.196       0.3290E-2    0.8539E-1    0.2771E-2    0.6922E-1    0.3290E-2    0.8539E-1
    8.216       0.3302E-2    0.8605E-1    0.2781E-2    0.6978E-1    0.3302E-2    0.8605E-1
    8.236       0.3314E-2    0.8671E-1    0.2790E-2    0.7034E-1    0.3314E-2    0.8671E-1
    8.257       0.3326E-2    0.8737E-1    0.2799E-2    0.7090E-1    0.3326E-2    0.8737E-1
    8.277       0.3338E-2    0.8804E-1    0.2809E-2    0.7146E-1    0.3338E-2    0.8804E-1
    8.297       0.3350E-2    0.8871E-1    0.2819E-2    0.7202E-1    0.3350E-2    0.8871E-1
    8.317       0.3362E-2    0.8938E-1    0.2828E-2    0.7259E-1    0.3362E-2    0.8938E-1
    8.337       0.3375E-2    0.9006E-1    0.2838E-2    0.7315E-1    0.3375E-2    0.9006E-1
    8.357       0.3388E-2    0.9074E-1    0.2848E-2    0.7372E-1    0.3388E-2    0.9074E-1
    8.377       0.3401E-2    0.9142E-1    0.2858E-2    0.7430E-1    0.3401E-2    0.9142E-1
    8.397       0.3414E-2    0.9210E-1    0.2868E-2    0.7487E-1    0.3414E-2    0.9210E-1
    8.417       0.3427E-2    0.9278E-1    0.2878E-2    0.7544E-1    0.3427E-2    0.9278E-1
    8.437       0.3440E-2    0.9347E-1    0.2888E-2    0.7602E-1    0.3440E-2    0.9347E-1
    8.457       0.3454E-2    0.9416E-1    0.2898E-2    0.7660E-1    0.3454E-2    0.9416E-1
    8.477       0.3468E-2    0.9486E-1    0.2909E-2    0.7718E-1    0.3468E-2    0.9486E-1
    8.497       0.3482E-2    0.9555E-1    0.2919E-2    0.7777E-1    0.3482E-2    0.9555E-1
    8.517       0.3496E-2    0.9625E-1    0.2930E-2    0.7835E-1    0.3496E-2    0.9625E-1
    8.537       0.3510E-2    0.9695E-1    0.2941E-2    0.7894E-1    0.3510E-2    0.9695E-1
    8.557       0.3525E-2    0.9766E-1    0.2952E-2    0.7953E-1    0.3525E-2    0.9766E-1
    8.577       0.3540E-2    0.9836E-1    0.2963E-2    0.8012E-1    0.3540E-2    0.9836E-1
    8.597       0.3555E-2    0.9907E-1    0.2974E-2    0.8072E-1    0.3555E-2    0.9907E-1
    8.617       0.3570E-2    0.9979E-1    0.2985E-2    0.8132E-1    0.3570E-2    0.9979E-1
    8.637       0.3585E-2    0.1005       0.2996E-2    0.8191E-1    0.3585E-2    0.1005   
    8.657       0.3601E-2    0.1012       0.3008E-2    0.8252E-1    0.3601E-2    0.1012   
    8.677       0.3617E-2    0.1019       0.3019E-2    0.8312E-1    0.3617E-2    0.1019   
    8.697       0.3633E-2    0.1027       0.3031E-2    0.8373E-1    0.3633E-2    0.1027   
    8.717       0.3649E-2    0.1034       0.3043E-2    0.8433E-1    0.3649E-2    0.1034   
    8.737       0.3666E-2    0.1041       0.3055E-2    0.8494E-1    0.3666E-2    0.1041   
    8.758       0.3683E-2    0.1049       0.3067E-2    0.8556E-1    0.3683E-2    0.1049   
    8.778       0.3700E-2    0.1056       0.3079E-2    0.8617E-1    0.3700E-2    0.1056   
    8.798       0.3717E-2    0.1064       0.3092E-2    0.8679E-1    0.3717E-2    0.1064   
    8.818       0.3735E-2    0.1071       0.3104E-2    0.8741E-1    0.3735E-2    0.1071   
    8.838       0.3753E-2    0.1078       0.3117E-2    0.8803E-1    0.3753E-2    0.1078   
    8.858       0.3771E-2    0.1086       0.3130E-2    0.8866E-1    0.3771E-2    0.1086   
    8.878       0.3790E-2    0.1094       0.3143E-2    0.8929E-1    0.3790E-2    0.1094   
    8.898       0.3809E-2    0.1101       0.3157E-2    0.8992E-1    0.3809E-2    0.1101   
    8.918       0.3828E-2    0.1109       0.3170E-2    0.9055E-1    0.3828E-2    0.1109   
    8.938       0.3848E-2    0.1117       0.3184E-2    0.9119E-1    0.3848E-2    0.1117   
    8.958       0.3868E-2    0.1124       0.3198E-2    0.9183E-1    0.3868E-2    0.1124   
    8.978       0.3889E-2    0.1132       0.3212E-2    0.9247E-1    0.3889E-2    0.1132   
    8.998       0.3910E-2    0.1140       0.3227E-2    0.9312E-1    0.3910E-2    0.1140   
    9.018       0.3931E-2    0.1148       0.3242E-2    0.9376E-1    0.3931E-2    0.1148   
    9.038       0.3953E-2    0.1156       0.3257E-2    0.9441E-1    0.3953E-2    0.1156   
    9.058       0.3976E-2    0.1164       0.3272E-2    0.9507E-1    0.3976E-2    0.1164   
    9.078       0.3999E-2    0.1171       0.3288E-2    0.9572E-1    0.3999E-2    0.1171   
    9.098       0.4022E-2    0.1180       0.3304E-2    0.9638E-1    0.4022E-2    0.1180   
    9.118       0.4047E-2    0.1188       0.3320E-2    0.9705E-1    0.4046E-2    0.1188   
    9.138       0.4071E-2    0.1196       0.3336E-2    0.9771E-1    0.4071E-2    0.1196   
    9.158       0.4097E-2    0.1204       0.3353E-2    0.9838E-1    0.4097E-2    0.1204   
    9.178       0.4123E-2    0.1212       0.3371E-2    0.9906E-1    0.4123E-2    0.1212   
    9.198       0.4150E-2    0.1220       0.3389E-2    0.9973E-1    0.4149E-2    0.1220   
    9.218       0.4177E-2    0.1229       0.3407E-2    0.1004       0.4177E-2    0.1229   
    9.238       0.4206E-2    0.1237       0.3426E-2    0.1011       0.4205E-2    0.1237   
    9.259       0.4235E-2    0.1246       0.3445E-2    0.1018       0.4235E-2    0.1246   
    9.279       0.4265E-2    0.1254       0.3465E-2    0.1025       0.4265E-2    0.1254   
    9.299       0.4296E-2    0.1263       0.3485E-2    0.1032       0.4296E-2    0.1263   
    9.319       0.4328E-2    0.1271       0.3506E-2    0.1039       0.4328E-2    0.1271   
    9.339       0.4362E-2    0.1280       0.3528E-2    0.1046       0.4362E-2    0.1280   
    9.359       0.4396E-2    0.1289       0.3550E-2    0.1053       0.4396E-2    0.1289   
    9.379       0.4432E-2    0.1297       0.3573E-2    0.1060       0.4432E-2    0.1297   
    9.399       0.4469E-2    0.1306       0.3597E-2    0.1067       0.4469E-2    0.1306   
    9.419       0.4508E-2    0.1315       0.3622E-2    0.1074       0.4507E-2    0.1315   
    9.439       0.4548E-2    0.1324       0.3648E-2    0.1082       0.4548E-2    0.1324   
    9.459       0.4590E-2    0.1334       0.3675E-2    0.1089       0.4589E-2    0.1334   
    9.479       0.4633E-2    0.1343       0.3703E-2    0.1096       0.4633E-2    0.1343   
    9.499       0.4679E-2    0.1352       0.3732E-2    0.1104       0.4679E-2    0.1352   
    9.519       0.4727E-2    0.1361       0.3763E-2    0.1111       0.4727E-2    0.1361   
    9.539       0.4777E-2    0.1371       0.3795E-2    0.1119       0.4777E-2    0.1371   
    9.559       0.4830E-2    0.1380       0.3829E-2    0.1126       0.4829E-2    0.1380   
    9.579       0.4885E-2    0.1390       0.3864E-2    0.1134       0.4885E-2    0.1390   
    9.599       0.4943E-2    0.1400       0.3901E-2    0.1142       0.4943E-2    0.1400   
    9.619       0.5005E-2    0.1410       0.3941E-2    0.1150       0.5004E-2    0.1410   
    9.639       0.5070E-2    0.1420       0.3983E-2    0.1158       0.5069E-2    0.1420   
    9.659       0.5139E-2    0.1430       0.4027E-2    0.1165       0.5138E-2    0.1430   
    9.679       0.5213E-2    0.1440       0.4075E-2    0.1174       0.5212E-2    0.1440   
    9.699       0.5291E-2    0.1451       0.4125E-2    0.1182       0.5290E-2    0.1451   
    9.719       0.5374E-2    0.1461       0.4179E-2    0.1190       0.5373E-2    0.1461   
    9.739       0.5463E-2    0.1472       0.4238E-2    0.1198       0.5462E-2    0.1472   
    9.760       0.5559E-2    0.1483       0.4300E-2    0.1207       0.5557E-2    0.1483   
    9.780       0.5661E-2    0.1494       0.4368E-2    0.1215       0.5659E-2    0.1494   
    9.800       0.5772E-2    0.1505       0.4442E-2    0.1224       0.5770E-2    0.1505   
    9.820       0.5892E-2    0.1517       0.4522E-2    0.1233       0.5889E-2    0.1517   
    9.840       0.6022E-2    0.1529       0.4610E-2    0.1242       0.6019E-2    0.1529   
    9.860       0.6163E-2    0.1541       0.4706E-2    0.1251       0.6160E-2    0.1541   
    9.880       0.6318E-2    0.1553       0.4813E-2    0.1260       0.6313E-2    0.1553   
    9.900       0.6487E-2    0.1566       0.4930E-2    0.1270       0.6481E-2    0.1566   
    9.920       0.6673E-2    0.1578       0.5062E-2    0.1280       0.6667E-2    0.1578   
    9.940       0.6878E-2    0.1592       0.5209E-2    0.1290       0.6871E-2    0.1592   
    9.960       0.7106E-2    0.1605       0.5374E-2    0.1300       0.7097E-2    0.1605   
    9.980       0.7360E-2    0.1619       0.5561E-2    0.1311       0.7349E-2    0.1619   
    10.00       0.7645E-2    0.1634       0.5775E-2    0.1321       0.7631E-2    0.1634   
# 
# 04/10/2017 at 17:09 YAMBO_RT @ anomaly [start]
# 04/10/2017 at 17:09                    [end]
#  
# Timing   [Min/Max/Average]: 02s/02s/02s
#
# .-Input file : yambo.in
# | optics                       # [R OPT] Optics
# | bse                          # [R BSE] Bethe Salpeter Equation.
# | bsk                          # [R BSK] Bethe Salpeter Equation kernel
# | bss                          # [R BSS] Bethe Salpeter Equation solver
# | em1s                         # [R Xs] Static Inverse Dielectric Matrix
# | BoseTemp= 0.000000     eV    # Bosonic Temperature
# | FFTGvecs=  387         RL    # [FFT] Plane-waves
# | X_Threads= 1                 # [OPENMP/X] Number of threads for response functions
# | DIP_Threads= 1               # [OPENMP/X] Number of threads for dipoles
# | K_Threads= 1                 # [OPENMP/BSK] Number of threads for response functions
# | Chimod= "hartree"            # [X] IP/Hartree/ALDA/LRC/BSfxc
# | BSEmod= "retarded"           # [BSE] resonant/retarded/coupling
# | BSKmod= "SEX"                # [BSE] IP/Hartree/HF/ALDA/SEX/BSfxc
# | BSSmod= "h"                  # [BSS] (h)aydock/(d)iagonalization/(i)nversion/(t)ddft`
# | BSENGexx=  531         RL    # [BSK] Exchange components
# | BSENGBlk=  59          RL    # [BSK] Screened interaction block size
# | #WehCpl                      # [BSK] eh interaction included also in coupling
# | KfnQPdb= "E < 08_ypp_gw_10fs_Gonly/ndb.QP" # [EXTQP BSK BSS] Database
# | KfnRTdb= "f @ 0.1 ps < 04_elel+elph_0K/ndb.RT_carriers" # [EXTRT BSK BSS] Database
# | % BEnRange
# |   0.00000 | 10.00000 | eV    # [BSS] Energy range
# | %
# | % BDmRange
# |   0.10000 |  0.10000 | eV    # [BSS] Damping range
# | %
# | BEnSteps=  500               # [BSS] Energy steps
# | % BLongDir
# | 0.1000E-4 | 0.000    | 0.000    |        # [BSS] [cc] Electric Field
# | %
# | % BSEBands
# |   2 |  7 |                   # [BSK] Bands range
# | %
# | BSHayTrs=  0.02000           # [BSS] Relative [o/o] Haydock treshold. Strict(>0)/Average(<0)
# | % BndsRnXs
# |   1 |  8 |                   # [Xs] Polarization function bands
# | %
# | NGsBlkXs=  59          RL    # [Xs] Response block size
# | GrFnTpXs= "R"                # [Xs] Green`s function (T)ordered,(R)etarded,(r)senant,(a)ntiresonant [T, R, r, Ta, Ra]
# | % DmRngeXs
# |   0.10000 |  0.10000 | eV    # [Xs] Damping range
# | %
# | % LongDrXs
# | 0.1000E-4 | 0.000    | 0.000    |        # [Xs] [cc] Electric Field
# | %
