#                                                           
#  __  __   ________   ___ __ __    _______   ______        
# /_/\/_/\ /_______/\ /__//_//_/\ /_______/\ /_____/\       
# \ \ \ \ \\::: _  \ \\::\| \| \ \\::: _  \ \\:::_ \ \      
#  \:\_\ \ \\::(_)  \ \\:.      \ \\::(_)  \/_\:\ \ \ \     
#   \::::_\/ \:: __  \ \\:.\-/\  \ \\::  _  \ \\:\ \ \ \    
#     \::\ \  \:.\ \  \ \\. \  \  \ \\::(_)  \ \\:\_\ \ \   
#      \__\/   \__\/\__\/ \__\/ \__\/ \_______\/ \_____\/   
#                                                           
#                                                           
#        Version 4.2.0 Revision 14428 Hash 698a636          
#                  MPI+SLK+OpenMP Build                     
#                http://www.yambo-code.org                  
#
# EELS @ Q(1)  [q->0 direction]:0.1000E-4  0.000     0.000   
#
#
# - Energies      are GoWo Plasmon Pole appox.
# - Wavefunctions are Slater exchange(X)+Perdew & Zunger(C)
#
# - The Green`s function is Retarded -
# - Using the Length Gauge -
# - [r,Vnl] *is* included -
#
#   BSK|Identifier              :3156
#      |Dimension               :100
#      |Bands                   :2 - 7
#      |Exchange           [res]: yes
#      |Correlation        [res]: yes
#      |Kernel`s coupling       : no
#      |Exchange           [cpl]: no
#      |Correlation        [cpl]: no
#      |W interaction is bare   : no
#      |ALDA kernel in R-space  : no
#      |RL vectors    [exchange]:531
#      |RL vectors [correlation]:59
#      |E/h energy range    [ev]:-1.000000 - -1.000000
#      |Coupling range     [o/o]: 100.0000 -  100.0000
#    W |Interaction is diagonal : no
#      |Matrix size             :59
#      |Bands                   :1 - 8
#      |e/h energy range    [ev]:-1.000000 - -1.000000
#      |Poles              [o/o]: 100.0000
#      |RL vectors in the sum   :387
#      |[r,Vnl] included        : yes
#      |Field direction         :0.1000E-4  0.000000  0.000000
#      |Coulomb Cutoff          :none
#      |xc-Kernel               :none
#   RIM|RL components      [col]:0
#      |Random points      [col]:0
#  
#   Haydock|Accuracy (requested) [o/o]:  0.02000
#          |Accuracy (reached)   [o/o]:  0.01121
#          |Iteration                 :27
#
#    E/ev[1]      EEL-Im[2]    EEL-Re[3]    EELo-Im[4]   EELo-Re[5]   EEL`-Im[6]   EEL`-Re[7]
#
     0.00000     -0.00000     -0.03064     -0.00000     -0.03236     -0.00000     -0.03064
   0.2004E-1    0.1148E-4    -.3064E-1    0.1077E-4    -.3236E-1    0.1148E-4    -.3064E-1
   0.4008E-1    0.2295E-4    -.3064E-1    0.2153E-4    -.3236E-1    0.2295E-4    -.3064E-1
   0.6012E-1    0.3443E-4    -.3063E-1    0.3230E-4    -.3235E-1    0.3443E-4    -.3063E-1
   0.8016E-1    0.4591E-4    -.3063E-1    0.4307E-4    -.3234E-1    0.4591E-4    -.3063E-1
   0.1002       0.5740E-4    -.3062E-1    0.5384E-4    -.3233E-1    0.5740E-4    -.3062E-1
   0.1202       0.6889E-4    -.3060E-1    0.6462E-4    -.3232E-1    0.6889E-4    -.3060E-1
   0.1403       0.8038E-4    -.3059E-1    0.7540E-4    -.3231E-1    0.8038E-4    -.3059E-1
   0.1603       0.9187E-4    -.3057E-1    0.8618E-4    -.3229E-1    0.9187E-4    -.3057E-1
   0.1804       0.1034E-3    -.3055E-1    0.9697E-4    -.3227E-1    0.1034E-3    -.3055E-1
   0.2004       0.1149E-3    -.3053E-1    0.1078E-3    -.3225E-1    0.1149E-3    -.3053E-1
   0.2204       0.1264E-3    -.3050E-1    0.1186E-3    -.3223E-1    0.1264E-3    -.3050E-1
   0.2405       0.1379E-3    -.3048E-1    0.1294E-3    -.3221E-1    0.1379E-3    -.3048E-1
   0.2605       0.1495E-3    -.3045E-1    0.1402E-3    -.3218E-1    0.1495E-3    -.3045E-1
   0.2806       0.1610E-3    -.3042E-1    0.1510E-3    -.3215E-1    0.1610E-3    -.3042E-1
   0.3006       0.1725E-3    -.3038E-1    0.1619E-3    -.3212E-1    0.1725E-3    -.3038E-1
   0.3206       0.1841E-3    -.3035E-1    0.1727E-3    -.3209E-1    0.1841E-3    -.3035E-1
   0.3407       0.1957E-3    -.3031E-1    0.1836E-3    -.3205E-1    0.1957E-3    -.3031E-1
   0.3607       0.2073E-3    -.3027E-1    0.1944E-3    -.3201E-1    0.2073E-3    -.3027E-1
   0.3808       0.2189E-3    -.3023E-1    0.2053E-3    -.3197E-1    0.2189E-3    -.3023E-1
   0.4008       0.2305E-3    -.3018E-1    0.2162E-3    -.3193E-1    0.2305E-3    -.3018E-1
   0.4208       0.2421E-3    -.3014E-1    0.2271E-3    -.3188E-1    0.2421E-3    -.3014E-1
   0.4409       0.2538E-3    -.3009E-1    0.2380E-3    -.3184E-1    0.2538E-3    -.3009E-1
   0.4609       0.2654E-3    -.3003E-1    0.2490E-3    -.3179E-1    0.2654E-3    -.3003E-1
   0.4810       0.2771E-3    -.2998E-1    0.2599E-3    -.3174E-1    0.2771E-3    -.2998E-1
   0.5010       0.2888E-3    -.2992E-1    0.2709E-3    -.3169E-1    0.2888E-3    -.2992E-1
   0.5210       0.3005E-3    -.2986E-1    0.2819E-3    -.3163E-1    0.3005E-3    -.2986E-1
   0.5411       0.3122E-3    -.2980E-1    0.2929E-3    -.3157E-1    0.3122E-3    -.2980E-1
   0.5611       0.3240E-3    -.2974E-1    0.3040E-3    -.3151E-1    0.3240E-3    -.2974E-1
   0.5812       0.3358E-3    -.2967E-1    0.3150E-3    -.3145E-1    0.3358E-3    -.2967E-1
   0.6012       0.3476E-3    -.2960E-1    0.3261E-3    -.3139E-1    0.3476E-3    -.2960E-1
   0.6212       0.3594E-3    -.2953E-1    0.3372E-3    -.3132E-1    0.3594E-3    -.2953E-1
   0.6413       0.3713E-3    -.2946E-1    0.3483E-3    -.3125E-1    0.3713E-3    -.2946E-1
   0.6613       0.3831E-3    -.2938E-1    0.3594E-3    -.3118E-1    0.3831E-3    -.2938E-1
   0.6814       0.3950E-3    -.2931E-1    0.3706E-3    -.3111E-1    0.3950E-3    -.2931E-1
   0.7014       0.4070E-3    -.2923E-1    0.3818E-3    -.3103E-1    0.4070E-3    -.2923E-1
   0.7214       0.4189E-3    -.2914E-1    0.3930E-3    -.3095E-1    0.4189E-3    -.2914E-1
   0.7415       0.4309E-3    -.2906E-1    0.4043E-3    -.3087E-1    0.4309E-3    -.2906E-1
   0.7615       0.4429E-3    -.2897E-1    0.4156E-3    -.3079E-1    0.4429E-3    -.2897E-1
   0.7816       0.4550E-3    -.2888E-1    0.4269E-3    -.3071E-1    0.4550E-3    -.2888E-1
   0.8016       0.4671E-3    -.2879E-1    0.4383E-3    -.3062E-1    0.4671E-3    -.2879E-1
   0.8216       0.4792E-3    -.2869E-1    0.4496E-3    -.3053E-1    0.4792E-3    -.2869E-1
   0.8417       0.4914E-3    -.2860E-1    0.4611E-3    -.3044E-1    0.4914E-3    -.2860E-1
   0.8617       0.5036E-3    -.2850E-1    0.4725E-3    -.3035E-1    0.5036E-3    -.2850E-1
   0.8818       0.5158E-3    -.2840E-1    0.4840E-3    -.3025E-1    0.5158E-3    -.2840E-1
   0.9018       0.5281E-3    -.2829E-1    0.4956E-3    -.3015E-1    0.5281E-3    -.2829E-1
   0.9218       0.5404E-3    -.2818E-1    0.5071E-3    -.3005E-1    0.5404E-3    -.2818E-1
   0.9419       0.5528E-3    -.2807E-1    0.5188E-3    -.2995E-1    0.5528E-3    -.2807E-1
   0.9619       0.5652E-3    -.2796E-1    0.5304E-3    -.2985E-1    0.5652E-3    -.2796E-1
   0.9820       0.5777E-3    -.2785E-1    0.5421E-3    -.2974E-1    0.5777E-3    -.2785E-1
    1.002       0.5902E-3    -.2773E-1    0.5539E-3    -.2963E-1    0.5902E-3    -.2773E-1
    1.022       0.6027E-3    -.2761E-1    0.5657E-3    -.2952E-1    0.6027E-3    -.2761E-1
    1.042       0.6154E-3    -.2749E-1    0.5776E-3    -.2940E-1    0.6154E-3    -.2749E-1
    1.062       0.6280E-3    -.2737E-1    0.5895E-3    -.2929E-1    0.6280E-3    -.2737E-1
    1.082       0.6408E-3    -.2724E-1    0.6015E-3    -.2917E-1    0.6408E-3    -.2724E-1
    1.102       0.6535E-3    -.2711E-1    0.6135E-3    -.2904E-1    0.6535E-3    -.2711E-1
    1.122       0.6664E-3    -.2698E-1    0.6256E-3    -.2892E-1    0.6664E-3    -.2698E-1
    1.142       0.6793E-3    -.2684E-1    0.6377E-3    -.2879E-1    0.6793E-3    -.2684E-1
    1.162       0.6923E-3    -.2670E-1    0.6500E-3    -.2867E-1    0.6923E-3    -.2670E-1
    1.182       0.7054E-3    -.2656E-1    0.6622E-3    -.2853E-1    0.7054E-3    -.2656E-1
    1.202       0.7185E-3    -.2642E-1    0.6746E-3    -.2840E-1    0.7185E-3    -.2642E-1
    1.222       0.7317E-3    -.2628E-1    0.6870E-3    -.2826E-1    0.7317E-3    -.2628E-1
    1.242       0.7450E-3    -.2613E-1    0.6996E-3    -.2812E-1    0.7450E-3    -.2613E-1
    1.263       0.7583E-3    -.2598E-1    0.7121E-3    -.2798E-1    0.7583E-3    -.2598E-1
    1.283       0.7718E-3    -.2583E-1    0.7248E-3    -.2784E-1    0.7718E-3    -.2583E-1
    1.303       0.7853E-3    -.2567E-1    0.7376E-3    -.2769E-1    0.7853E-3    -.2567E-1
    1.323       0.7989E-3    -.2551E-1    0.7504E-3    -.2754E-1    0.7989E-3    -.2551E-1
    1.343       0.8126E-3    -.2535E-1    0.7634E-3    -.2739E-1    0.8126E-3    -.2535E-1
    1.363       0.8265E-3    -.2519E-1    0.7764E-3    -.2724E-1    0.8265E-3    -.2519E-1
    1.383       0.8404E-3    -.2502E-1    0.7896E-3    -.2708E-1    0.8404E-3    -.2502E-1
    1.403       0.8544E-3    -.2485E-1    0.8028E-3    -.2692E-1    0.8544E-3    -.2485E-1
    1.423       0.8686E-3    -.2468E-1    0.8162E-3    -.2676E-1    0.8686E-3    -.2468E-1
    1.443       0.8828E-3    -.2450E-1    0.8297E-3    -.2660E-1    0.8828E-3    -.2450E-1
    1.463       0.8972E-3    -.2432E-1    0.8433E-3    -.2643E-1    0.8972E-3    -.2432E-1
    1.483       0.9118E-3    -.2414E-1    0.8571E-3    -.2626E-1    0.9118E-3    -.2414E-1
    1.503       0.9264E-3    -.2396E-1    0.8710E-3    -.2609E-1    0.9264E-3    -.2396E-1
    1.523       0.9412E-3    -.2377E-1    0.8850E-3    -.2591E-1    0.9412E-3    -.2377E-1
    1.543       0.9562E-3    -.2358E-1    0.8992E-3    -.2573E-1    0.9562E-3    -.2358E-1
    1.563       0.9713E-3    -.2339E-1    0.9135E-3    -.2555E-1    0.9713E-3    -.2339E-1
    1.583       0.9866E-3    -.2319E-1    0.9280E-3    -.2537E-1    0.9866E-3    -.2319E-1
    1.603       0.1002E-2    -.2299E-1    0.9427E-3    -.2518E-1    0.1002E-2    -.2299E-1
    1.623       0.1018E-2    -.2279E-1    0.9575E-3    -.2499E-1    0.1018E-2    -.2279E-1
    1.643       0.1033E-2    -.2259E-1    0.9726E-3    -.2480E-1    0.1033E-2    -.2259E-1
    1.663       0.1050E-2    -.2238E-1    0.9879E-3    -.2460E-1    0.1050E-2    -.2238E-1
    1.683       0.1066E-2    -.2217E-1    0.1003E-2    -.2440E-1    0.1066E-2    -.2217E-1
    1.703       0.1082E-2    -.2195E-1    0.1019E-2    -.2420E-1    0.1082E-2    -.2195E-1
    1.723       0.1099E-2    -.2173E-1    0.1035E-2    -.2399E-1    0.1099E-2    -.2173E-1
    1.743       0.1116E-2    -.2151E-1    0.1051E-2    -.2378E-1    0.1116E-2    -.2151E-1
    1.764       0.1133E-2    -.2129E-1    0.1068E-2    -.2357E-1    0.1133E-2    -.2129E-1
    1.784       0.1151E-2    -.2106E-1    0.1084E-2    -.2336E-1    0.1151E-2    -.2106E-1
    1.804       0.1168E-2    -.2083E-1    0.1102E-2    -.2314E-1    0.1168E-2    -.2083E-1
    1.824       0.1186E-2    -.2059E-1    0.1119E-2    -.2292E-1    0.1186E-2    -.2059E-1
    1.844       0.1205E-2    -.2035E-1    0.1137E-2    -.2269E-1    0.1205E-2    -.2035E-1
    1.864       0.1224E-2    -.2011E-1    0.1155E-2    -.2246E-1    0.1224E-2    -.2011E-1
    1.884       0.1243E-2    -.1986E-1    0.1173E-2    -.2223E-1    0.1243E-2    -.1986E-1
    1.904       0.1263E-2    -.1961E-1    0.1192E-2    -.2199E-1    0.1263E-2    -.1961E-1
    1.924       0.1283E-2    -.1936E-1    0.1212E-2    -.2175E-1    0.1283E-2    -.1936E-1
    1.944       0.1303E-2    -.1910E-1    0.1232E-2    -.2151E-1    0.1303E-2    -.1910E-1
    1.964       0.1324E-2    -.1884E-1    0.1252E-2    -.2126E-1    0.1324E-2    -.1884E-1
    1.984       0.1346E-2    -.1857E-1    0.1273E-2    -.2101E-1    0.1346E-2    -.1857E-1
    2.004       0.1368E-2    -.1830E-1    0.1295E-2    -.2075E-1    0.1368E-2    -.1830E-1
    2.024       0.1391E-2    -.1803E-1    0.1317E-2    -.2049E-1    0.1391E-2    -.1803E-1
    2.044       0.1415E-2    -.1775E-1    0.1341E-2    -.2023E-1    0.1415E-2    -.1775E-1
    2.064       0.1440E-2    -.1746E-1    0.1365E-2    -.1996E-1    0.1440E-2    -.1746E-1
    2.084       0.1465E-2    -.1717E-1    0.1389E-2    -.1968E-1    0.1465E-2    -.1717E-1
    2.104       0.1491E-2    -.1688E-1    0.1415E-2    -.1940E-1    0.1491E-2    -.1688E-1
    2.124       0.1519E-2    -.1658E-1    0.1442E-2    -.1912E-1    0.1519E-2    -.1658E-1
    2.144       0.1547E-2    -.1627E-1    0.1470E-2    -.1883E-1    0.1547E-2    -.1627E-1
    2.164       0.1577E-2    -.1596E-1    0.1500E-2    -.1854E-1    0.1577E-2    -.1596E-1
    2.184       0.1608E-2    -.1565E-1    0.1530E-2    -.1823E-1    0.1608E-2    -.1565E-1
    2.204       0.1641E-2    -.1532E-1    0.1563E-2    -.1793E-1    0.1641E-2    -.1532E-1
    2.224       0.1675E-2    -.1499E-1    0.1597E-2    -.1761E-1    0.1675E-2    -.1499E-1
    2.244       0.1712E-2    -.1466E-1    0.1633E-2    -.1729E-1    0.1712E-2    -.1466E-1
    2.265       0.1751E-2    -.1432E-1    0.1672E-2    -.1697E-1    0.1751E-2    -.1432E-1
    2.285       0.1792E-2    -.1396E-1    0.1713E-2    -.1663E-1    0.1792E-2    -.1396E-1
    2.305       0.1836E-2    -.1361E-1    0.1758E-2    -.1629E-1    0.1836E-2    -.1361E-1
    2.325       0.1884E-2    -.1324E-1    0.1805E-2    -.1594E-1    0.1884E-2    -.1324E-1
    2.345       0.1936E-2    -.1287E-1    0.1857E-2    -.1558E-1    0.1936E-2    -.1287E-1
    2.365       0.1992E-2    -.1248E-1    0.1913E-2    -.1521E-1    0.1992E-2    -.1248E-1
    2.385       0.2053E-2    -.1209E-1    0.1974E-2    -.1483E-1    0.2053E-2    -.1209E-1
    2.405       0.2121E-2    -.1168E-1    0.2042E-2    -.1444E-1    0.2121E-2    -.1168E-1
    2.425       0.2196E-2    -.1126E-1    0.2117E-2    -.1404E-1    0.2196E-2    -.1126E-1
    2.445       0.2280E-2    -.1083E-1    0.2201E-2    -.1363E-1    0.2280E-2    -.1083E-1
    2.465       0.2376E-2    -.1039E-1    0.2295E-2    -.1320E-1    0.2376E-2    -.1039E-1
    2.485       0.2484E-2    -.9930E-2    0.2403E-2    -.1275E-1    0.2484E-2    -.9930E-2
      2.5050       0.0026      -0.0095       0.0025      -0.0123       0.0026      -0.0095
      2.5250       0.0028      -0.0090       0.0027      -0.0118       0.0028      -0.0090
      2.5451       0.0029      -0.0085       0.0028      -0.0113       0.0029      -0.0085
      2.5651       0.0031      -0.0079       0.0030      -0.0108       0.0031      -0.0079
      2.5852       0.0034      -0.0074       0.0033      -0.0103       0.0034      -0.0074
      2.6052       0.0037      -0.0069       0.0036      -0.0097       0.0037      -0.0069
      2.6253       0.0040      -0.0063       0.0039      -0.0092       0.0040      -0.0063
      2.6453       0.0045      -0.0058       0.0043      -0.0087       0.0045      -0.0058
      2.6653       0.0050      -0.0053       0.0048      -0.0082       0.0050      -0.0053
      2.6854       0.0056      -0.0050       0.0054      -0.0078       0.0056      -0.0050
      2.7054       0.0062      -0.0047       0.0060      -0.0075       0.0062      -0.0047
      2.7255       0.0068      -0.0046       0.0066      -0.0072       0.0068      -0.0046
      2.7455       0.0073      -0.0045       0.0072      -0.0071       0.0073      -0.0046
      2.7655       0.0078      -0.0046       0.0078      -0.0070       0.0078      -0.0046
      2.7856       0.0082      -0.0046       0.0084      -0.0068       0.0082      -0.0046
      2.8056       0.0085      -0.0048       0.0091      -0.0069       0.0085      -0.0047
      2.8257       0.0086      -0.0048       0.0098      -0.0071       0.0087      -0.0048
      2.8457       0.0088      -0.0048       0.0103      -0.0075       0.0088      -0.0048
      2.8657       0.0090      -0.0047       0.0106      -0.0080       0.0091      -0.0047
      2.8858       0.0094      -0.0046       0.0107      -0.0085       0.0094      -0.0047
      2.9058       0.0099      -0.0047       0.0107      -0.0088       0.0098      -0.0048
      2.9259       0.0103      -0.0052       0.0108      -0.0091       0.0102      -0.0052
      2.9459       0.0104      -0.0059       0.0108      -0.0095       0.0103      -0.0059
      2.9659       0.0100      -0.0066       0.0107      -0.0101       0.0100      -0.0066
      2.9860       0.0093      -0.0071       0.0103      -0.0106       0.0093      -0.0070
      3.0060       0.0084      -0.0072       0.0095      -0.0110       0.0084      -0.0072
      3.0261       0.0074      -0.0069       0.0085      -0.0111       0.0075      -0.0069
      3.0461       0.0067      -0.0064       0.0076      -0.0108       0.0067      -0.0064
      3.0661       0.0060      -0.0058       0.0068      -0.0103       0.0060      -0.0058
      3.0862       0.0055      -0.0050       0.0062      -0.0097       0.0055      -0.0050
      3.1062       0.0052      -0.0043       0.0057      -0.0089       0.0052      -0.0043
      3.1263       0.0049      -0.0035       0.0053      -0.0081       0.0049      -0.0035
    3.146       0.4685E-2    -.2675E-2    0.4995E-2    -.7331E-2    0.4688E-2    -.2677E-2
    3.166       0.4547E-2    -.1869E-2    0.4795E-2    -.6516E-2    0.4549E-2    -.1872E-2
    3.186       0.4459E-2    -.1061E-2    0.4661E-2    -.5697E-2    0.4461E-2    -.1063E-2
    3.206       0.4414E-2    -.2497E-3    0.4583E-2    -.4874E-2    0.4415E-2    -.2520E-3
    3.226       0.4405E-2    0.5672E-3    0.4553E-2    -.4047E-2    0.4406E-2    0.5650E-3
    3.246       0.4431E-2    0.1392E-2    0.4566E-2    -.3212E-2    0.4431E-2    0.1390E-2
    3.267       0.4487E-2    0.2229E-2    0.4620E-2    -.2366E-2    0.4488E-2    0.2227E-2
    3.287       0.4575E-2    0.3080E-2    0.4713E-2    -.1505E-2    0.4575E-2    0.3078E-2
    3.307       0.4694E-2    0.3950E-2    0.4847E-2    -.6250E-3    0.4694E-2    0.3948E-2
    3.327       0.4847E-2    0.4842E-2    0.5025E-2    0.2790E-3    0.4847E-2    0.4840E-2
    3.347       0.5037E-2    0.5761E-2    0.5252E-2    0.1212E-2    0.5037E-2    0.5758E-2
    3.367       0.5269E-2    0.6710E-2    0.5534E-2    0.2177E-2    0.5268E-2    0.6708E-2
    3.387       0.5549E-2    0.7695E-2    0.5883E-2    0.3182E-2    0.5548E-2    0.7693E-2
      3.4068       0.0059       0.0087       0.0063       0.0042       0.0059       0.0087
      3.4269       0.0063       0.0098       0.0068       0.0053       0.0063       0.0098
      3.4469       0.0068       0.0109       0.0075       0.0065       0.0068       0.0109
      3.4669       0.0074       0.0121       0.0083       0.0077       0.0074       0.0121
      3.4870       0.0081       0.0133       0.0093       0.0089       0.0081       0.0133
      3.5070       0.0090       0.0146       0.0106       0.0102       0.0090       0.0146
     3.52705      0.01016      0.01593      0.01218      0.01138      0.01016      0.01593
     3.54709      0.01159      0.01727      0.01421      0.01250      0.01158      0.01727
     3.56713      0.01338      0.01858      0.01676      0.01336      0.01337      0.01858
     3.58717      0.01565      0.01975      0.01989      0.01369      0.01563      0.01975
     3.60721      0.01848      0.02059      0.02354      0.01310      0.01846      0.02060
     3.62725      0.02193      0.02080      0.02735      0.01114      0.02191      0.02082
      3.6473       0.0259       0.0199       0.0306       0.0075       0.0259       0.0200
    3.667       0.2984E-1    0.1756E-1    0.3215E-1    0.2585E-2    0.2984E-1    0.1760E-1
    3.687       0.3296E-1    0.1343E-1    0.3150E-1    -.2615E-2    0.3298E-1    0.1349E-1
      3.7074       0.0342       0.0081       0.0289      -0.0068       0.0342       0.0081
    3.727       0.3303E-1    0.2798E-2    0.2531E-1    -.9401E-2    0.3311E-1    0.2817E-2
    3.747       0.3001E-1    -.1239E-2    0.2162E-1    -.1043E-1    0.3010E-1    -.1259E-2
    3.768       0.2618E-1    -.3520E-2    0.1836E-1    -.1035E-1    0.2625E-1    -.3576E-2
      3.7876       0.0224      -0.0043       0.0157      -0.0096       0.0225      -0.0043
      3.8076       0.0192      -0.0039       0.0136      -0.0085       0.0192      -0.0040
    3.828       0.1658E-1    -.2992E-2    0.1193E-1    -.7162E-2    0.1656E-1    -.3084E-2
    3.848       0.1457E-1    -.1733E-2    0.1068E-1    -.5802E-2    0.1451E-1    -.1814E-2
    3.868       0.1306E-1    -.3593E-3    0.9735E-2    -.4448E-2    0.1296E-1    -.4155E-3
    3.888       0.1192E-1    0.1007E-2    0.9035E-2    -.3137E-2    0.1181E-1    0.9917E-3
    3.908       0.1106E-1    0.2295E-2    0.8524E-2    -.1896E-2    0.1095E-1    0.2333E-2
    3.928       0.1036E-1    0.3486E-2    0.8148E-2    -.7451E-3    0.1027E-1    0.3573E-2
    3.948       0.9725E-2    0.4612E-2    0.7849E-2    0.3130E-3    0.9694E-2    0.4724E-2
    3.968       0.9124E-2    0.5733E-2    0.7572E-2    0.1301E-2    0.9146E-2    0.5835E-2
    3.988       0.8569E-2    0.6895E-2    0.7286E-2    0.2267E-2    0.8623E-2    0.6965E-2
    4.008       0.8086E-2    0.8105E-2    0.6999E-2    0.3255E-2    0.8150E-2    0.8141E-2
      4.0281       0.0077       0.0094       0.0067       0.0043       0.0077       0.0094
      4.0481       0.0074       0.0106       0.0065       0.0054       0.0074       0.0106
      4.0681       0.0072       0.0119       0.0064       0.0065       0.0072       0.0119
      4.0882       0.0070       0.0132       0.0063       0.0076       0.0070       0.0131
      4.1082       0.0069       0.0144       0.0062       0.0087       0.0069       0.0144
      4.1283       0.0068       0.0157       0.0062       0.0099       0.0069       0.0157
      4.1483       0.0068       0.0170       0.0063       0.0110       0.0069       0.0170
      4.1683       0.0069       0.0183       0.0064       0.0122       0.0069       0.0183
      4.1884       0.0070       0.0196       0.0065       0.0134       0.0070       0.0196
      4.2084       0.0071       0.0210       0.0067       0.0146       0.0071       0.0209
      4.2285       0.0073       0.0223       0.0069       0.0159       0.0072       0.0223
      4.2485       0.0075       0.0237       0.0072       0.0172       0.0074       0.0237
      4.2685       0.0077       0.0251       0.0075       0.0186       0.0077       0.0251
      4.2886       0.0080       0.0266       0.0079       0.0200       0.0080       0.0266
      4.3086       0.0084       0.0281       0.0084       0.0215       0.0083       0.0281
      4.3287       0.0088       0.0297       0.0090       0.0230       0.0088       0.0297
      4.3487       0.0093       0.0314       0.0097       0.0246       0.0092       0.0314
      4.3687       0.0098       0.0331       0.0105       0.0264       0.0098       0.0331
     4.38878      0.01049      0.03497      0.01153      0.02819      0.01048      0.03498
     4.40882      0.01128      0.03691      0.01275      0.03013      0.01127      0.03691
     4.42886      0.01220      0.03896      0.01426      0.03218      0.01220      0.03897
     4.44890      0.01330      0.04114      0.01612      0.03434      0.01330      0.04115
     4.46894      0.01462      0.04347      0.01843      0.03660      0.01462      0.04348
     4.48898      0.01621      0.04596      0.02135      0.03891      0.01621      0.04597
     4.50902      0.01814      0.04862      0.02503      0.04118      0.01814      0.04862
     4.52906      0.02050      0.05144      0.02969      0.04320      0.02050      0.05145
     4.54910      0.02342      0.05444      0.03557      0.04464      0.02342      0.05445
     4.56914      0.02707      0.05756      0.04282      0.04490      0.02707      0.05757
     4.58918      0.03165      0.06073      0.05132      0.04308      0.03166      0.06074
     4.60922      0.03745      0.06376      0.06035      0.03810      0.03746      0.06377
     4.62926      0.04479      0.06633      0.06819      0.02919      0.04480      0.06633
     4.64930      0.05400      0.06782      0.07245      0.01690      0.05401      0.06783
    4.669       0.6522E-1    0.6726E-1    0.7144E-1    0.3633E-2    0.6524E-1    0.6726E-1
      4.6894       0.0781       0.0632       0.0656      -0.0076       0.0781       0.0632
     4.70942      0.09118      0.05405      0.05702     -0.01502      0.09120      0.05404
     4.72946      0.10154      0.03911      0.04805     -0.01870      0.10155      0.03909
     4.74950      0.10569      0.01998      0.03996     -0.01963      0.10569      0.01996
    4.770       0.1019       0.7472E-3    0.3323E-1    -.1884E-1    0.1019       0.7297E-3
     4.78958      0.09178     -0.01445      0.02782     -0.01714      0.09177     -0.01447
     4.80962      0.07877     -0.02387      0.02354     -0.01500      0.07876     -0.02388
     4.82966      0.06584     -0.02814      0.02016     -0.01270      0.06583     -0.02814
     4.84970      0.05452     -0.02883      0.01748     -0.01041      0.05452     -0.02883
      4.8697       0.0452      -0.0274       0.0153      -0.0082       0.0452      -0.0274
      4.8898       0.0378      -0.0249       0.0136      -0.0061       0.0378      -0.0249
    4.910       0.3195E-1    -.2182E-1    0.1220E-1    -.4070E-2    0.3195E-1    -.2182E-1
    4.930       0.2732E-1    -.1864E-1    0.1105E-1    -.2189E-2    0.2732E-1    -.1864E-1
    4.950       0.2364E-1    -.1550E-1    0.1009E-1    -.4187E-3    0.2363E-1    -.1550E-1
    4.970       0.2069E-1    -.1249E-1    0.9284E-2    0.1249E-2    0.2068E-1    -.1249E-1
    4.990       0.1830E-1    -.9636E-2    0.8606E-2    0.2823E-2    0.1830E-1    -.9634E-2
    5.010       0.1635E-1    -.6958E-2    0.8030E-2    0.4314E-2    0.1635E-1    -.6956E-2
    5.030       0.1475E-1    -.4448E-2    0.7537E-2    0.5732E-2    0.1474E-1    -.4446E-2
    5.050       0.1341E-1    -.2098E-2    0.7112E-2    0.7083E-2    0.1341E-1    -.2096E-2
    5.070       0.1229E-1    0.1072E-3    0.6745E-2    0.8376E-2    0.1229E-1    0.1088E-3
    5.090       0.1135E-1    0.2181E-2    0.6425E-2    0.9615E-2    0.1135E-1    0.2182E-2
    5.110       0.1054E-1    0.4136E-2    0.6146E-2    0.1081E-1    0.1054E-1    0.4137E-2
      5.1303       0.0099       0.0060       0.0059       0.0120       0.0099       0.0060
      5.1503       0.0093       0.0077       0.0057       0.0131       0.0093       0.0077
      5.1703       0.0087       0.0094       0.0055       0.0142       0.0087       0.0094
      5.1904       0.0083       0.0110       0.0053       0.0152       0.0083       0.0110
    5.210       0.7913E-2    0.1254E-1    0.5179E-2    0.1622E-1    0.7913E-2    0.1254E-1
    5.230       0.7572E-2    0.1401E-1    0.5046E-2    0.1722E-1    0.7573E-2    0.1402E-1
    5.251       0.7274E-2    0.1543E-1    0.4928E-2    0.1819E-1    0.7274E-2    0.1543E-1
    5.271       0.7011E-2    0.1681E-1    0.4823E-2    0.1915E-1    0.7011E-2    0.1681E-1
    5.291       0.6779E-2    0.1814E-1    0.4729E-2    0.2009E-1    0.6780E-2    0.1814E-1
    5.311       0.6576E-2    0.1943E-1    0.4646E-2    0.2101E-1    0.6576E-2    0.1943E-1
    5.331       0.6396E-2    0.2069E-1    0.4572E-2    0.2192E-1    0.6397E-2    0.2069E-1
    5.351       0.6240E-2    0.2192E-1    0.4507E-2    0.2281E-1    0.6241E-2    0.2192E-1
    5.371       0.6103E-2    0.2312E-1    0.4449E-2    0.2370E-1    0.6104E-2    0.2312E-1
    5.391       0.5984E-2    0.2430E-1    0.4399E-2    0.2457E-1    0.5986E-2    0.2430E-1
    5.411       0.5884E-2    0.2546E-1    0.4356E-2    0.2544E-1    0.5886E-2    0.2546E-1
    5.431       0.5799E-2    0.2660E-1    0.4319E-2    0.2630E-1    0.5802E-2    0.2660E-1
    5.451       0.5732E-2    0.2773E-1    0.4289E-2    0.2715E-1    0.5735E-2    0.2773E-1
    5.471       0.5680E-2    0.2884E-1    0.4266E-2    0.2799E-1    0.5685E-2    0.2884E-1
    5.491       0.5646E-2    0.2994E-1    0.4250E-2    0.2883E-1    0.5652E-2    0.2994E-1
    5.511       0.5631E-2    0.3103E-1    0.4242E-2    0.2967E-1    0.5639E-2    0.3103E-1
    5.531       0.5636E-2    0.3211E-1    0.4242E-2    0.3050E-1    0.5646E-2    0.3212E-1
    5.551       0.5665E-2    0.3319E-1    0.4252E-2    0.3132E-1    0.5678E-2    0.3319E-1
    5.571       0.5722E-2    0.3426E-1    0.4273E-2    0.3215E-1    0.5737E-2    0.3425E-1
    5.591       0.5812E-2    0.3532E-1    0.4309E-2    0.3297E-1    0.5830E-2    0.3530E-1
    5.611       0.5941E-2    0.3635E-1    0.4360E-2    0.3378E-1    0.5957E-2    0.3633E-1
    5.631       0.6115E-2    0.3737E-1    0.4428E-2    0.3457E-1    0.6120E-2    0.3732E-1
    5.651       0.6332E-2    0.3833E-1    0.4514E-2    0.3535E-1    0.6313E-2    0.3828E-1
    5.671       0.6584E-2    0.3923E-1    0.4611E-2    0.3609E-1    0.6526E-2    0.3918E-1
    5.691       0.6849E-2    0.4006E-1    0.4705E-2    0.3680E-1    0.6758E-2    0.4005E-1
    5.711       0.7103E-2    0.4081E-1    0.4780E-2    0.3747E-1    0.7013E-2    0.4086E-1
    5.731       0.7334E-2    0.4148E-1    0.4825E-2    0.3812E-1    0.7292E-2    0.4158E-1
    5.752       0.7529E-2    0.4208E-1    0.4839E-2    0.3876E-1    0.7557E-2    0.4218E-1
    5.772       0.7653E-2    0.4259E-1    0.4822E-2    0.3940E-1    0.7730E-2    0.4265E-1
    5.792       0.7644E-2    0.4304E-1    0.4770E-2    0.4005E-1    0.7724E-2    0.4304E-1
    5.812       0.7469E-2    0.4351E-1    0.4686E-2    0.4072E-1    0.7520E-2    0.4348E-1
    5.832       0.7163E-2    0.4409E-1    0.4584E-2    0.4143E-1    0.7183E-2    0.4405E-1
    5.852       0.6808E-2    0.4481E-1    0.4483E-2    0.4218E-1    0.6808E-2    0.4478E-1
    5.872       0.6469E-2    0.4566E-1    0.4394E-2    0.4295E-1    0.6461E-2    0.4564E-1
    5.892       0.6182E-2    0.4659E-1    0.4323E-2    0.4375E-1    0.6172E-2    0.4658E-1
    5.912       0.5955E-2    0.4758E-1    0.4269E-2    0.4455E-1    0.5946E-2    0.4757E-1
    5.932       0.5784E-2    0.4860E-1    0.4231E-2    0.4536E-1    0.5776E-2    0.4859E-1
    5.952       0.5659E-2    0.4963E-1    0.4206E-2    0.4618E-1    0.5653E-2    0.4963E-1
    5.972       0.5574E-2    0.5067E-1    0.4193E-2    0.4700E-1    0.5570E-2    0.5067E-1
    5.992       0.5522E-2    0.5172E-1    0.4189E-2    0.4782E-1    0.5519E-2    0.5172E-1
    6.012       0.5498E-2    0.5277E-1    0.4193E-2    0.4864E-1    0.5495E-2    0.5277E-1
    6.032       0.5499E-2    0.5382E-1    0.4206E-2    0.4947E-1    0.5497E-2    0.5382E-1
    6.052       0.5524E-2    0.5488E-1    0.4226E-2    0.5030E-1    0.5522E-2    0.5488E-1
    6.072       0.5572E-2    0.5595E-1    0.4255E-2    0.5113E-1    0.5571E-2    0.5595E-1
    6.092       0.5644E-2    0.5702E-1    0.4293E-2    0.5197E-1    0.5644E-2    0.5702E-1
    6.112       0.5744E-2    0.5811E-1    0.4341E-2    0.5282E-1    0.5743E-2    0.5811E-1
    6.132       0.5873E-2    0.5921E-1    0.4400E-2    0.5367E-1    0.5872E-2    0.5921E-1
    6.152       0.6038E-2    0.6033E-1    0.4474E-2    0.5452E-1    0.6038E-2    0.6033E-1
    6.172       0.6246E-2    0.6146E-1    0.4566E-2    0.5539E-1    0.6246E-2    0.6146E-1
    6.192       0.6508E-2    0.6261E-1    0.4679E-2    0.5626E-1    0.6508E-2    0.6261E-1
    6.212       0.6838E-2    0.6378E-1    0.4821E-2    0.5714E-1    0.6837E-2    0.6378E-1
    6.232       0.7253E-2    0.6497E-1    0.4999E-2    0.5802E-1    0.7253E-2    0.6497E-1
    6.253       0.7780E-2    0.6615E-1    0.5224E-2    0.5889E-1    0.7780E-2    0.6615E-1
    6.273       0.8450E-2    0.6732E-1    0.5508E-2    0.5976E-1    0.8450E-2    0.6732E-1
    6.293       0.9300E-2    0.6844E-1    0.5863E-2    0.6058E-1    0.9301E-2    0.6844E-1
    6.313       0.1037E-1    0.6943E-1    0.6296E-2    0.6133E-1    0.1037E-1    0.6943E-1
      6.3327       0.0117       0.0702       0.0068       0.0619       0.0117       0.0702
      6.3527       0.0132       0.0705       0.0073       0.0624       0.0132       0.0705
      6.3727       0.0147       0.0703       0.0077       0.0626       0.0147       0.0703
      6.3928       0.0159       0.0694       0.0079       0.0626       0.0159       0.0694
      6.4128       0.0164       0.0680       0.0078       0.0627       0.0164       0.0680
      6.4329       0.0159       0.0666       0.0074       0.0628       0.0159       0.0666
      6.4529       0.0148       0.0656       0.0069       0.0633       0.0148       0.0656
    6.473       0.1325E-1    0.6536E-1    0.6448E-2    0.6386E-1    0.1325E-1    0.6536E-1
    6.493       0.1176E-1    0.6570E-1    0.6021E-2    0.6461E-1    0.1176E-1    0.6570E-1
    6.513       0.1045E-1    0.6645E-1    0.5671E-2    0.6544E-1    0.1045E-1    0.6645E-1
    6.533       0.9386E-2    0.6744E-1    0.5395E-2    0.6632E-1    0.9386E-2    0.6744E-1
    6.553       0.8535E-2    0.6857E-1    0.5179E-2    0.6723E-1    0.8535E-2    0.6857E-1
    6.573       0.7865E-2    0.6975E-1    0.5011E-2    0.6814E-1    0.7865E-2    0.6975E-1
    6.593       0.7338E-2    0.7096E-1    0.4881E-2    0.6905E-1    0.7338E-2    0.7096E-1
    6.613       0.6921E-2    0.7216E-1    0.4779E-2    0.6997E-1    0.6921E-2    0.7216E-1
    6.633       0.6590E-2    0.7335E-1    0.4699E-2    0.7087E-1    0.6590E-2    0.7335E-1
    6.653       0.6324E-2    0.7452E-1    0.4636E-2    0.7178E-1    0.6324E-2    0.7452E-1
    6.673       0.6109E-2    0.7567E-1    0.4587E-2    0.7268E-1    0.6109E-2    0.7567E-1
    6.693       0.5934E-2    0.7681E-1    0.4549E-2    0.7358E-1    0.5934E-2    0.7681E-1
    6.713       0.5791E-2    0.7793E-1    0.4519E-2    0.7447E-1    0.5791E-2    0.7793E-1
    6.733       0.5673E-2    0.7903E-1    0.4496E-2    0.7536E-1    0.5673E-2    0.7903E-1
    6.754       0.5576E-2    0.8012E-1    0.4479E-2    0.7625E-1    0.5576E-2    0.8012E-1
    6.774       0.5495E-2    0.8120E-1    0.4467E-2    0.7714E-1    0.5495E-2    0.8120E-1
    6.794       0.5428E-2    0.8228E-1    0.4458E-2    0.7803E-1    0.5428E-2    0.8228E-1
    6.814       0.5372E-2    0.8334E-1    0.4452E-2    0.7891E-1    0.5372E-2    0.8334E-1
    6.834       0.5326E-2    0.8440E-1    0.4450E-2    0.7980E-1    0.5326E-2    0.8440E-1
    6.854       0.5287E-2    0.8545E-1    0.4450E-2    0.8069E-1    0.5287E-2    0.8545E-1
    6.874       0.5256E-2    0.8649E-1    0.4451E-2    0.8158E-1    0.5256E-2    0.8649E-1
    6.894       0.5230E-2    0.8753E-1    0.4455E-2    0.8247E-1    0.5230E-2    0.8753E-1
    6.914       0.5209E-2    0.8857E-1    0.4460E-2    0.8336E-1    0.5209E-2    0.8857E-1
    6.934       0.5193E-2    0.8961E-1    0.4466E-2    0.8425E-1    0.5193E-2    0.8961E-1
    6.954       0.5180E-2    0.9064E-1    0.4474E-2    0.8514E-1    0.5180E-2    0.9064E-1
    6.974       0.5171E-2    0.9167E-1    0.4482E-2    0.8604E-1    0.5171E-2    0.9167E-1
    6.994       0.5164E-2    0.9270E-1    0.4492E-2    0.8694E-1    0.5164E-2    0.9270E-1
    7.014       0.5160E-2    0.9373E-1    0.4502E-2    0.8784E-1    0.5160E-2    0.9373E-1
    7.034       0.5159E-2    0.9476E-1    0.4513E-2    0.8874E-1    0.5159E-2    0.9476E-1
    7.054       0.5159E-2    0.9579E-1    0.4525E-2    0.8964E-1    0.5159E-2    0.9579E-1
    7.074       0.5161E-2    0.9682E-1    0.4538E-2    0.9055E-1    0.5161E-2    0.9682E-1
    7.094       0.5165E-2    0.9785E-1    0.4551E-2    0.9146E-1    0.5165E-2    0.9785E-1
    7.114       0.5171E-2    0.9889E-1    0.4564E-2    0.9237E-1    0.5171E-2    0.9889E-1
    7.134       0.5177E-2    0.9992E-1    0.4578E-2    0.9329E-1    0.5177E-2    0.9992E-1
    7.154       0.5185E-2    0.1010       0.4593E-2    0.9421E-1    0.5185E-2    0.1010   
    7.174       0.5195E-2    0.1020       0.4608E-2    0.9513E-1    0.5195E-2    0.1020   
    7.194       0.5205E-2    0.1030       0.4623E-2    0.9605E-1    0.5205E-2    0.1030   
    7.214       0.5216E-2    0.1041       0.4639E-2    0.9698E-1    0.5216E-2    0.1041   
    7.234       0.5228E-2    0.1051       0.4656E-2    0.9791E-1    0.5228E-2    0.1051   
    7.255       0.5242E-2    0.1062       0.4672E-2    0.9885E-1    0.5242E-2    0.1062   
    7.275       0.5255E-2    0.1072       0.4689E-2    0.9978E-1    0.5255E-2    0.1072   
    7.295       0.5270E-2    0.1083       0.4706E-2    0.1007       0.5270E-2    0.1083   
    7.315       0.5286E-2    0.1093       0.4724E-2    0.1017       0.5286E-2    0.1093   
    7.335       0.5302E-2    0.1104       0.4742E-2    0.1026       0.5302E-2    0.1104   
    7.355       0.5318E-2    0.1115       0.4760E-2    0.1036       0.5318E-2    0.1115   
    7.375       0.5336E-2    0.1125       0.4778E-2    0.1045       0.5336E-2    0.1125   
    7.395       0.5354E-2    0.1136       0.4797E-2    0.1055       0.5354E-2    0.1136   
    7.415       0.5372E-2    0.1147       0.4816E-2    0.1064       0.5372E-2    0.1147   
    7.435       0.5391E-2    0.1157       0.4835E-2    0.1074       0.5391E-2    0.1157   
    7.455       0.5411E-2    0.1168       0.4855E-2    0.1084       0.5411E-2    0.1168   
    7.475       0.5431E-2    0.1179       0.4874E-2    0.1094       0.5431E-2    0.1179   
    7.495       0.5451E-2    0.1190       0.4894E-2    0.1103       0.5451E-2    0.1190   
    7.515       0.5472E-2    0.1201       0.4915E-2    0.1113       0.5472E-2    0.1201   
    7.535       0.5494E-2    0.1212       0.4935E-2    0.1123       0.5494E-2    0.1212   
    7.555       0.5516E-2    0.1223       0.4956E-2    0.1133       0.5516E-2    0.1223   
    7.575       0.5539E-2    0.1234       0.4977E-2    0.1143       0.5539E-2    0.1234   
    7.595       0.5562E-2    0.1245       0.4998E-2    0.1153       0.5562E-2    0.1245   
    7.615       0.5585E-2    0.1256       0.5020E-2    0.1163       0.5585E-2    0.1256   
    7.635       0.5609E-2    0.1267       0.5042E-2    0.1173       0.5609E-2    0.1267   
    7.655       0.5633E-2    0.1279       0.5064E-2    0.1183       0.5633E-2    0.1279   
    7.675       0.5658E-2    0.1290       0.5086E-2    0.1193       0.5658E-2    0.1290   
    7.695       0.5683E-2    0.1301       0.5108E-2    0.1203       0.5683E-2    0.1301   
    7.715       0.5709E-2    0.1313       0.5131E-2    0.1214       0.5709E-2    0.1313   
    7.735       0.5735E-2    0.1324       0.5154E-2    0.1224       0.5735E-2    0.1324   
    7.756       0.5762E-2    0.1336       0.5178E-2    0.1234       0.5762E-2    0.1336   
    7.776       0.5789E-2    0.1347       0.5201E-2    0.1245       0.5789E-2    0.1347   
    7.796       0.5816E-2    0.1359       0.5225E-2    0.1255       0.5816E-2    0.1359   
    7.816       0.5844E-2    0.1371       0.5249E-2    0.1266       0.5844E-2    0.1371   
    7.836       0.5872E-2    0.1382       0.5274E-2    0.1276       0.5872E-2    0.1382   
    7.856       0.5901E-2    0.1394       0.5298E-2    0.1287       0.5901E-2    0.1394   
    7.876       0.5931E-2    0.1406       0.5323E-2    0.1297       0.5931E-2    0.1406   
    7.896       0.5960E-2    0.1418       0.5349E-2    0.1308       0.5960E-2    0.1418   
    7.916       0.5991E-2    0.1430       0.5374E-2    0.1319       0.5991E-2    0.1430   
    7.936       0.6022E-2    0.1442       0.5400E-2    0.1330       0.6022E-2    0.1442   
    7.956       0.6053E-2    0.1454       0.5427E-2    0.1341       0.6053E-2    0.1454   
    7.976       0.6085E-2    0.1466       0.5453E-2    0.1351       0.6085E-2    0.1466   
    7.996       0.6117E-2    0.1478       0.5480E-2    0.1362       0.6117E-2    0.1478   
    8.016       0.6150E-2    0.1491       0.5507E-2    0.1373       0.6150E-2    0.1491   
    8.036       0.6184E-2    0.1503       0.5535E-2    0.1384       0.6184E-2    0.1503   
    8.056       0.6218E-2    0.1515       0.5563E-2    0.1396       0.6218E-2    0.1515   
    8.076       0.6253E-2    0.1528       0.5591E-2    0.1407       0.6253E-2    0.1528   
    8.096       0.6288E-2    0.1540       0.5620E-2    0.1418       0.6288E-2    0.1540   
    8.116       0.6324E-2    0.1553       0.5649E-2    0.1429       0.6324E-2    0.1553   
    8.136       0.6361E-2    0.1566       0.5679E-2    0.1441       0.6361E-2    0.1566   
    8.156       0.6398E-2    0.1579       0.5709E-2    0.1452       0.6398E-2    0.1579   
    8.176       0.6436E-2    0.1591       0.5739E-2    0.1463       0.6436E-2    0.1591   
    8.196       0.6475E-2    0.1604       0.5770E-2    0.1475       0.6475E-2    0.1604   
    8.216       0.6515E-2    0.1617       0.5801E-2    0.1487       0.6515E-2    0.1617   
    8.236       0.6555E-2    0.1630       0.5833E-2    0.1498       0.6555E-2    0.1630   
    8.257       0.6596E-2    0.1644       0.5866E-2    0.1510       0.6596E-2    0.1644   
    8.277       0.6638E-2    0.1657       0.5899E-2    0.1522       0.6638E-2    0.1657   
    8.297       0.6681E-2    0.1670       0.5932E-2    0.1534       0.6681E-2    0.1670   
    8.317       0.6725E-2    0.1684       0.5967E-2    0.1545       0.6725E-2    0.1684   
    8.337       0.6770E-2    0.1697       0.6001E-2    0.1557       0.6770E-2    0.1697   
    8.357       0.6816E-2    0.1711       0.6037E-2    0.1569       0.6816E-2    0.1711   
    8.377       0.6863E-2    0.1724       0.6073E-2    0.1582       0.6863E-2    0.1724   
    8.397       0.6911E-2    0.1738       0.6110E-2    0.1594       0.6911E-2    0.1738   
    8.417       0.6961E-2    0.1752       0.6148E-2    0.1606       0.6961E-2    0.1752   
    8.437       0.7011E-2    0.1766       0.6186E-2    0.1618       0.7011E-2    0.1766   
    8.457       0.7063E-2    0.1780       0.6225E-2    0.1631       0.7063E-2    0.1780   
    8.477       0.7117E-2    0.1794       0.6266E-2    0.1643       0.7117E-2    0.1794   
    8.497       0.7171E-2    0.1809       0.6307E-2    0.1656       0.7171E-2    0.1809   
    8.517       0.7228E-2    0.1823       0.6349E-2    0.1669       0.7228E-2    0.1823   
    8.537       0.7286E-2    0.1837       0.6392E-2    0.1681       0.7286E-2    0.1837   
    8.557       0.7346E-2    0.1852       0.6437E-2    0.1694       0.7346E-2    0.1852   
    8.577       0.7407E-2    0.1867       0.6482E-2    0.1707       0.7407E-2    0.1867   
    8.597       0.7471E-2    0.1882       0.6529E-2    0.1720       0.7471E-2    0.1882   
    8.617       0.7537E-2    0.1897       0.6577E-2    0.1733       0.7537E-2    0.1897   
    8.637       0.7604E-2    0.1912       0.6627E-2    0.1746       0.7604E-2    0.1912   
    8.657       0.7675E-2    0.1927       0.6679E-2    0.1760       0.7675E-2    0.1927   
    8.677       0.7748E-2    0.1943       0.6732E-2    0.1773       0.7748E-2    0.1943   
    8.697       0.7823E-2    0.1958       0.6786E-2    0.1787       0.7823E-2    0.1958   
    8.717       0.7902E-2    0.1974       0.6843E-2    0.1800       0.7902E-2    0.1974   
    8.737       0.7983E-2    0.1990       0.6902E-2    0.1814       0.7983E-2    0.1990   
    8.758       0.8068E-2    0.2006       0.6963E-2    0.1828       0.8068E-2    0.2006   
    8.778       0.8157E-2    0.2022       0.7027E-2    0.1842       0.8157E-2    0.2022   
    8.798       0.8250E-2    0.2038       0.7094E-2    0.1856       0.8250E-2    0.2038   
    8.818       0.8347E-2    0.2055       0.7163E-2    0.1870       0.8347E-2    0.2055   
    8.838       0.8448E-2    0.2072       0.7235E-2    0.1885       0.8448E-2    0.2072   
    8.858       0.8554E-2    0.2089       0.7311E-2    0.1899       0.8554E-2    0.2089   
    8.878       0.8666E-2    0.2106       0.7391E-2    0.1914       0.8666E-2    0.2106   
    8.898       0.8784E-2    0.2123       0.7475E-2    0.1929       0.8784E-2    0.2123   
    8.918       0.8908E-2    0.2141       0.7563E-2    0.1944       0.8908E-2    0.2141   
    8.938       0.9040E-2    0.2159       0.7657E-2    0.1959       0.9040E-2    0.2159   
    8.958       0.9179E-2    0.2177       0.7756E-2    0.1974       0.9179E-2    0.2177   
    8.978       0.9327E-2    0.2195       0.7861E-2    0.1990       0.9327E-2    0.2195   
    8.998       0.9484E-2    0.2214       0.7973E-2    0.2005       0.9484E-2    0.2214   
    9.018       0.9651E-2    0.2233       0.8093E-2    0.2021       0.9651E-2    0.2233   
    9.038       0.9830E-2    0.2252       0.8222E-2    0.2037       0.9830E-2    0.2252   
    9.058       0.1002E-1    0.2272       0.8360E-2    0.2054       0.1002E-1    0.2272   
    9.078       0.1023E-1    0.2292       0.8509E-2    0.2071       0.1023E-1    0.2292   
    9.098       0.1045E-1    0.2312       0.8670E-2    0.2088       0.1045E-1    0.2312   
    9.118       0.1069E-1    0.2333       0.8845E-2    0.2105       0.1069E-1    0.2333   
    9.138       0.1095E-1    0.2354       0.9036E-2    0.2122       0.1095E-1    0.2354   
      9.1583       0.0112       0.2376       0.0092       0.2140       0.0112       0.2376
      9.1784       0.0115       0.2398       0.0095       0.2159       0.0115       0.2398
      9.1984       0.0119       0.2421       0.0097       0.2178       0.0119       0.2421
     9.21844      0.01225      0.24449      0.01001      0.21969      0.01225      0.24449
     9.23848      0.01267      0.24691      0.01033      0.22166      0.01267      0.24691
     9.25852      0.01312      0.24941      0.01068      0.22369      0.01312      0.24941
     9.27856      0.01363      0.25199      0.01108      0.22578      0.01363      0.25199
     9.29860      0.01420      0.25466      0.01154      0.22794      0.01420      0.25466
     9.31864      0.01484      0.25743      0.01206      0.23017      0.01484      0.25743
     9.33868      0.01557      0.26031      0.01266      0.23249      0.01557      0.26031
     9.35872      0.01640      0.26331      0.01336      0.23489      0.01640      0.26331
     9.37876      0.01734      0.26645      0.01417      0.23740      0.01734      0.26645
     9.39880      0.01844      0.26974      0.01514      0.24001      0.01844      0.26974
     9.41884      0.01971      0.27319      0.01629      0.24275      0.01971      0.27319
     9.43888      0.02120      0.27683      0.01767      0.24562      0.02120      0.27683
     9.45892      0.02296      0.28067      0.01935      0.24861      0.02296      0.28067
     9.47896      0.02506      0.28473      0.02141      0.25174      0.02506      0.28473
     9.49900      0.02759      0.28903      0.02397      0.25497      0.02759      0.28903
     9.51904      0.03065      0.29357      0.02718      0.25825      0.03065      0.29357
     9.53908      0.03442      0.29836      0.03122      0.26147      0.03442      0.29836
     9.55912      0.03909      0.30334      0.03633      0.26441      0.03909      0.30334
     9.57916      0.04494      0.30844      0.04274      0.26667      0.04494      0.30844
     9.59920      0.05231      0.31346      0.05059      0.26759      0.05231      0.31346
     9.61924      0.06162      0.31800      0.05971      0.26618      0.06162      0.31801
     9.63928      0.07333      0.32139      0.06919      0.26130      0.07333      0.32140
     9.65932      0.08772      0.32245      0.07710      0.25228      0.08773      0.32246
     9.67936      0.10457      0.31941      0.08090      0.23996      0.10458      0.31942
     9.69940      0.12238      0.31014      0.07908      0.22707      0.12241      0.31014
     9.71944      0.13781      0.29321      0.07240      0.21670      0.13783      0.29319
     9.73948      0.14620      0.26977      0.06327      0.21043      0.14621      0.26973
     9.75952      0.14436      0.24447      0.05395      0.20798      0.14432      0.24443
     9.77956      0.13313      0.22309      0.04568      0.20828      0.13306      0.22309
     9.79960      0.11660      0.20900      0.03884      0.21024      0.11655      0.20904
     9.81964      0.09907      0.20221      0.03338      0.21309      0.09906      0.20227
     9.83968      0.08319      0.20090      0.02907      0.21635      0.08320      0.20095
     9.85972      0.06990      0.20304      0.02567      0.21975      0.06993      0.20306
     9.87976      0.05923      0.20708      0.02297      0.22314      0.05925      0.20709
     9.89980      0.05079      0.21203      0.02083      0.22646      0.05081      0.21203
     9.91984      0.04415      0.21733      0.01910      0.22967      0.04417      0.21733
     9.93988      0.03891      0.22268      0.01771      0.23276      0.03893      0.22267
     9.95992      0.03476      0.22790      0.01656      0.23574      0.03477      0.22789
     9.97996      0.03145      0.23294      0.01562      0.23862      0.03145      0.23293
    10.00000      0.02879      0.23777      0.01484      0.24139      0.02879      0.23776
# 
# 04/10/2017 at 17:09 YAMBO_RT @ anomaly [start]
# 04/10/2017 at 17:09                    [end]
#  
# Timing   [Min/Max/Average]: 03s/03s/03s
#
# .-Input file : yambo.in
# | optics                       # [R OPT] Optics
# | bse                          # [R BSE] Bethe Salpeter Equation.
# | bsk                          # [R BSK] Bethe Salpeter Equation kernel
# | bss                          # [R BSS] Bethe Salpeter Equation solver
# | em1s                         # [R Xs] Static Inverse Dielectric Matrix
# | BoseTemp= 0.000000     eV    # Bosonic Temperature
# | FFTGvecs=  387         RL    # [FFT] Plane-waves
# | X_Threads= 1                 # [OPENMP/X] Number of threads for response functions
# | DIP_Threads= 1               # [OPENMP/X] Number of threads for dipoles
# | K_Threads= 1                 # [OPENMP/BSK] Number of threads for response functions
# | Chimod= "hartree"            # [X] IP/Hartree/ALDA/LRC/BSfxc
# | BSEmod= "retarded"           # [BSE] resonant/retarded/coupling
# | BSKmod= "SEX"                # [BSE] IP/Hartree/HF/ALDA/SEX/BSfxc
# | BSSmod= "h"                  # [BSS] (h)aydock/(d)iagonalization/(i)nversion/(t)ddft`
# | BSENGexx=  531         RL    # [BSK] Exchange components
# | BSENGBlk=  59          RL    # [BSK] Screened interaction block size
# | #WehCpl                      # [BSK] eh interaction included also in coupling
# | KfnQPdb= "E < 08_ypp_gw_10fs/ndb.QP" # [EXTQP BSK BSS] Database
# | KfnRTdb= "f @ 0.1 ps < 04_elel+elph_0K/ndb.RT_carriers" # [EXTRT BSK BSS] Database
# | RfnRTdb= "f @ 0.1 ps < 04_elel+elph_0K/ndb.RT_carriers" # [EXTRT R] Database
# | % BEnRange
# |   0.00000 | 10.00000 | eV    # [BSS] Energy range
# | %
# | % BDmRange
# |   0.10000 |  0.10000 | eV    # [BSS] Damping range
# | %
# | BEnSteps=  500               # [BSS] Energy steps
# | % BLongDir
# | 0.1000E-4 | 0.000    | 0.000    |        # [BSS] [cc] Electric Field
# | %
# | % BSEBands
# |   2 |  7 |                   # [BSK] Bands range
# | %
# | BSHayTrs=  0.02000           # [BSS] Relative [o/o] Haydock treshold. Strict(>0)/Average(<0)
# | XfnRTdb= "f @ 0.1 ps < 04_elel+elph_0K/ndb.RT_carriers" # [EXTRT Xd] Database
# | % BndsRnXs
# |   1 |  8 |                   # [Xs] Polarization function bands
# | %
# | NGsBlkXs=  59          RL    # [Xs] Response block size
# | GrFnTpXs= "R"                # [Xs] Green`s function (T)ordered,(R)etarded,(r)senant,(a)ntiresonant [T, R, r, Ta, Ra]
# | % DmRngeXs
# |   0.10000 |  0.10000 | eV    # [Xs] Damping range
# | %
# | % LongDrXs
# | 0.1000E-4 | 0.000    | 0.000    |        # [Xs] [cc] Electric Field
# | %
