#                                                           
#  __  __   ________   ___ __ __    _______   ______        
# /_/\/_/\ /_______/\ /__//_//_/\ /_______/\ /_____/\       
# \ \ \ \ \\::: _  \ \\::\| \| \ \\::: _  \ \\:::_ \ \      
#  \:\_\ \ \\::(_)  \ \\:.      \ \\::(_)  \/_\:\ \ \ \     
#   \::::_\/ \:: __  \ \\:.\-/\  \ \\::  _  \ \\:\ \ \ \    
#     \::\ \  \:.\ \  \ \\. \  \  \ \\::(_)  \ \\:\_\ \ \   
#      \__\/   \__\/\__\/ \__\/ \__\/ \_______\/ \_____\/   
#                                                           
#                                                           
#        Version 4.2.0 Revision 14428 Hash 698a636          
#                  MPI+SLK+OpenMP Build                     
#                http://www.yambo-code.org                  
#
# EELS @ Q(1)  [q->0 direction]:0.1000E-4  0.000     0.000   
#
#
# - Energies      are COHSEX
# - Wavefunctions are Slater exchange(X)+Perdew & Zunger(C)
#
# - The Green`s function is Retarded -
# - Using the Length Gauge -
# - [r,Vnl] *is* included -
#
#   BSK|Identifier              :44
#      |Dimension               :72
#      |Bands                   :2 - 7
#      |Exchange           [res]: yes
#      |Correlation        [res]: yes
#      |Kernel`s coupling       : no
#      |Exchange           [cpl]: no
#      |Correlation        [cpl]: no
#      |W interaction is bare   : no
#      |ALDA kernel in R-space  : no
#      |RL vectors    [exchange]:531
#      |RL vectors [correlation]:59
#      |E/h energy range    [ev]:-1.000000 - -1.000000
#      |Coupling range     [o/o]: 100.0000 -  100.0000
#    W |Interaction is diagonal : no
#      |Matrix size             :59
#      |Bands                   :1 - 8
#      |e/h energy range    [ev]:-1.000000 - -1.000000
#      |Poles              [o/o]: 100.0000
#      |RL vectors in the sum   :387
#      |[r,Vnl] included        : yes
#      |Field direction         :0.1000E-4  0.000000  0.000000
#      |Coulomb Cutoff          :none
#      |xc-Kernel               :none
#   RIM|RL components      [col]:0
#      |Random points      [col]:0
#  
#   Haydock|Accuracy (requested) [o/o]:  0.02000
#          |Accuracy (reached)   [o/o]:  0.01585
#          |Iteration                 :23
#
#    E/ev[1]      EEL-Im[2]    EEL-Re[3]    EELo-Im[4]   EELo-Re[5]   EEL`-Im[6]   EEL`-Re[7]
#
     0.00000     -0.00000     -0.02341     -0.00000     -0.02745     -0.00000     -0.02341
   0.2004E-1    0.5934E-5    -.2341E-1    0.5032E-5    -.2745E-1    0.5934E-5    -.2341E-1
   0.4008E-1    0.1187E-4    -.2341E-1    0.1006E-4    -.2745E-1    0.1187E-4    -.2341E-1
   0.6012E-1    0.1780E-4    -.2341E-1    0.1510E-4    -.2744E-1    0.1780E-4    -.2341E-1
   0.8016E-1    0.2374E-4    -.2340E-1    0.2013E-4    -.2744E-1    0.2374E-4    -.2340E-1
   0.1002       0.2967E-4    -.2340E-1    0.2516E-4    -.2743E-1    0.2967E-4    -.2340E-1
   0.1202       0.3561E-4    -.2339E-1    0.3019E-4    -.2743E-1    0.3561E-4    -.2339E-1
   0.1403       0.4154E-4    -.2338E-1    0.3523E-4    -.2742E-1    0.4154E-4    -.2338E-1
   0.1603       0.4748E-4    -.2338E-1    0.4026E-4    -.2741E-1    0.4748E-4    -.2338E-1
   0.1804       0.5342E-4    -.2337E-1    0.4530E-4    -.2741E-1    0.5342E-4    -.2337E-1
   0.2004       0.5936E-4    -.2335E-1    0.5033E-4    -.2740E-1    0.5936E-4    -.2335E-1
   0.2204       0.6530E-4    -.2334E-1    0.5537E-4    -.2739E-1    0.6530E-4    -.2334E-1
   0.2405       0.7124E-4    -.2333E-1    0.6041E-4    -.2737E-1    0.7124E-4    -.2333E-1
   0.2605       0.7718E-4    -.2331E-1    0.6545E-4    -.2736E-1    0.7718E-4    -.2331E-1
   0.2806       0.8312E-4    -.2330E-1    0.7049E-4    -.2735E-1    0.8312E-4    -.2330E-1
   0.3006       0.8907E-4    -.2328E-1    0.7553E-4    -.2733E-1    0.8907E-4    -.2328E-1
   0.3206       0.9501E-4    -.2326E-1    0.8057E-4    -.2732E-1    0.9501E-4    -.2326E-1
   0.3407       0.1010E-3    -.2324E-1    0.8562E-4    -.2730E-1    0.1010E-3    -.2324E-1
   0.3607       0.1069E-3    -.2322E-1    0.9066E-4    -.2728E-1    0.1069E-3    -.2322E-1
   0.3808       0.1129E-3    -.2320E-1    0.9571E-4    -.2727E-1    0.1129E-3    -.2320E-1
   0.4008       0.1188E-3    -.2318E-1    0.1008E-3    -.2725E-1    0.1188E-3    -.2318E-1
   0.4208       0.1248E-3    -.2315E-1    0.1058E-3    -.2722E-1    0.1248E-3    -.2315E-1
   0.4409       0.1307E-3    -.2313E-1    0.1109E-3    -.2720E-1    0.1307E-3    -.2313E-1
   0.4609       0.1367E-3    -.2310E-1    0.1159E-3    -.2718E-1    0.1367E-3    -.2310E-1
   0.4810       0.1426E-3    -.2307E-1    0.1210E-3    -.2716E-1    0.1426E-3    -.2307E-1
   0.5010       0.1486E-3    -.2304E-1    0.1260E-3    -.2713E-1    0.1486E-3    -.2304E-1
   0.5210       0.1546E-3    -.2301E-1    0.1311E-3    -.2711E-1    0.1546E-3    -.2301E-1
   0.5411       0.1605E-3    -.2298E-1    0.1362E-3    -.2708E-1    0.1605E-3    -.2298E-1
   0.5611       0.1665E-3    -.2295E-1    0.1412E-3    -.2705E-1    0.1665E-3    -.2295E-1
   0.5812       0.1725E-3    -.2291E-1    0.1463E-3    -.2702E-1    0.1725E-3    -.2291E-1
   0.6012       0.1785E-3    -.2288E-1    0.1514E-3    -.2699E-1    0.1785E-3    -.2288E-1
   0.6212       0.1845E-3    -.2284E-1    0.1564E-3    -.2696E-1    0.1845E-3    -.2284E-1
   0.6413       0.1904E-3    -.2280E-1    0.1615E-3    -.2693E-1    0.1904E-3    -.2280E-1
   0.6613       0.1964E-3    -.2277E-1    0.1666E-3    -.2690E-1    0.1964E-3    -.2277E-1
   0.6814       0.2024E-3    -.2273E-1    0.1717E-3    -.2686E-1    0.2024E-3    -.2273E-1
   0.7014       0.2084E-3    -.2268E-1    0.1768E-3    -.2683E-1    0.2084E-3    -.2268E-1
   0.7214       0.2144E-3    -.2264E-1    0.1819E-3    -.2679E-1    0.2144E-3    -.2264E-1
   0.7415       0.2204E-3    -.2260E-1    0.1870E-3    -.2676E-1    0.2204E-3    -.2260E-1
   0.7615       0.2264E-3    -.2255E-1    0.1921E-3    -.2672E-1    0.2264E-3    -.2255E-1
   0.7816       0.2324E-3    -.2251E-1    0.1972E-3    -.2668E-1    0.2324E-3    -.2251E-1
   0.8016       0.2384E-3    -.2246E-1    0.2023E-3    -.2664E-1    0.2384E-3    -.2246E-1
   0.8216       0.2445E-3    -.2241E-1    0.2074E-3    -.2660E-1    0.2445E-3    -.2241E-1
   0.8417       0.2505E-3    -.2236E-1    0.2125E-3    -.2656E-1    0.2505E-3    -.2236E-1
   0.8617       0.2565E-3    -.2231E-1    0.2176E-3    -.2651E-1    0.2565E-3    -.2231E-1
   0.8818       0.2625E-3    -.2226E-1    0.2227E-3    -.2647E-1    0.2625E-3    -.2226E-1
   0.9018       0.2686E-3    -.2221E-1    0.2278E-3    -.2642E-1    0.2686E-3    -.2221E-1
   0.9218       0.2746E-3    -.2215E-1    0.2330E-3    -.2638E-1    0.2746E-3    -.2215E-1
   0.9419       0.2807E-3    -.2210E-1    0.2381E-3    -.2633E-1    0.2807E-3    -.2210E-1
   0.9619       0.2867E-3    -.2204E-1    0.2432E-3    -.2628E-1    0.2867E-3    -.2204E-1
   0.9820       0.2928E-3    -.2198E-1    0.2484E-3    -.2623E-1    0.2928E-3    -.2198E-1
    1.002       0.2988E-3    -.2192E-1    0.2535E-3    -.2618E-1    0.2988E-3    -.2192E-1
    1.022       0.3049E-3    -.2186E-1    0.2587E-3    -.2613E-1    0.3049E-3    -.2186E-1
    1.042       0.3110E-3    -.2180E-1    0.2639E-3    -.2608E-1    0.3110E-3    -.2180E-1
    1.062       0.3171E-3    -.2174E-1    0.2690E-3    -.2603E-1    0.3171E-3    -.2174E-1
    1.082       0.3231E-3    -.2167E-1    0.2742E-3    -.2597E-1    0.3231E-3    -.2167E-1
    1.102       0.3292E-3    -.2161E-1    0.2794E-3    -.2592E-1    0.3292E-3    -.2161E-1
    1.122       0.3353E-3    -.2154E-1    0.2846E-3    -.2586E-1    0.3353E-3    -.2154E-1
    1.142       0.3414E-3    -.2147E-1    0.2897E-3    -.2580E-1    0.3414E-3    -.2147E-1
    1.162       0.3475E-3    -.2140E-1    0.2949E-3    -.2574E-1    0.3475E-3    -.2140E-1
    1.182       0.3537E-3    -.2133E-1    0.3001E-3    -.2568E-1    0.3537E-3    -.2133E-1
    1.202       0.3598E-3    -.2126E-1    0.3053E-3    -.2562E-1    0.3598E-3    -.2126E-1
    1.222       0.3659E-3    -.2119E-1    0.3106E-3    -.2556E-1    0.3659E-3    -.2119E-1
    1.242       0.3720E-3    -.2112E-1    0.3158E-3    -.2550E-1    0.3720E-3    -.2112E-1
    1.263       0.3782E-3    -.2104E-1    0.3210E-3    -.2543E-1    0.3782E-3    -.2104E-1
    1.283       0.3843E-3    -.2096E-1    0.3262E-3    -.2537E-1    0.3843E-3    -.2096E-1
    1.303       0.3905E-3    -.2089E-1    0.3315E-3    -.2530E-1    0.3905E-3    -.2089E-1
    1.323       0.3967E-3    -.2081E-1    0.3367E-3    -.2524E-1    0.3967E-3    -.2081E-1
    1.343       0.4028E-3    -.2073E-1    0.3420E-3    -.2517E-1    0.4028E-3    -.2073E-1
    1.363       0.4090E-3    -.2065E-1    0.3472E-3    -.2510E-1    0.4090E-3    -.2065E-1
    1.383       0.4152E-3    -.2056E-1    0.3525E-3    -.2503E-1    0.4152E-3    -.2056E-1
    1.403       0.4214E-3    -.2048E-1    0.3578E-3    -.2496E-1    0.4214E-3    -.2048E-1
    1.423       0.4276E-3    -.2040E-1    0.3631E-3    -.2489E-1    0.4276E-3    -.2040E-1
    1.443       0.4339E-3    -.2031E-1    0.3684E-3    -.2481E-1    0.4339E-3    -.2031E-1
    1.463       0.4401E-3    -.2022E-1    0.3737E-3    -.2474E-1    0.4401E-3    -.2022E-1
    1.483       0.4463E-3    -.2013E-1    0.3790E-3    -.2466E-1    0.4463E-3    -.2013E-1
    1.503       0.4526E-3    -.2004E-1    0.3843E-3    -.2459E-1    0.4526E-3    -.2004E-1
    1.523       0.4588E-3    -.1995E-1    0.3897E-3    -.2451E-1    0.4588E-3    -.1995E-1
    1.543       0.4651E-3    -.1986E-1    0.3950E-3    -.2443E-1    0.4651E-3    -.1986E-1
    1.563       0.4714E-3    -.1976E-1    0.4004E-3    -.2435E-1    0.4714E-3    -.1976E-1
    1.583       0.4776E-3    -.1967E-1    0.4057E-3    -.2427E-1    0.4776E-3    -.1967E-1
    1.603       0.4839E-3    -.1957E-1    0.4111E-3    -.2419E-1    0.4839E-3    -.1957E-1
    1.623       0.4902E-3    -.1948E-1    0.4165E-3    -.2411E-1    0.4902E-3    -.1948E-1
    1.643       0.4966E-3    -.1938E-1    0.4219E-3    -.2402E-1    0.4966E-3    -.1938E-1
    1.663       0.5029E-3    -.1928E-1    0.4273E-3    -.2394E-1    0.5029E-3    -.1928E-1
    1.683       0.5092E-3    -.1918E-1    0.4327E-3    -.2385E-1    0.5092E-3    -.1918E-1
    1.703       0.5156E-3    -.1907E-1    0.4381E-3    -.2376E-1    0.5156E-3    -.1907E-1
    1.723       0.5219E-3    -.1897E-1    0.4436E-3    -.2367E-1    0.5219E-3    -.1897E-1
    1.743       0.5283E-3    -.1886E-1    0.4490E-3    -.2358E-1    0.5283E-3    -.1886E-1
    1.764       0.5347E-3    -.1876E-1    0.4545E-3    -.2349E-1    0.5347E-3    -.1876E-1
    1.784       0.5411E-3    -.1865E-1    0.4600E-3    -.2340E-1    0.5411E-3    -.1865E-1
    1.804       0.5475E-3    -.1854E-1    0.4654E-3    -.2331E-1    0.5475E-3    -.1854E-1
    1.824       0.5539E-3    -.1843E-1    0.4709E-3    -.2322E-1    0.5539E-3    -.1843E-1
    1.844       0.5604E-3    -.1832E-1    0.4765E-3    -.2312E-1    0.5604E-3    -.1832E-1
    1.864       0.5668E-3    -.1821E-1    0.4820E-3    -.2303E-1    0.5668E-3    -.1821E-1
    1.884       0.5733E-3    -.1809E-1    0.4875E-3    -.2293E-1    0.5733E-3    -.1809E-1
    1.904       0.5798E-3    -.1798E-1    0.4931E-3    -.2283E-1    0.5798E-3    -.1798E-1
    1.924       0.5863E-3    -.1786E-1    0.4987E-3    -.2273E-1    0.5863E-3    -.1786E-1
    1.944       0.5928E-3    -.1774E-1    0.5043E-3    -.2263E-1    0.5928E-3    -.1774E-1
    1.964       0.5993E-3    -.1762E-1    0.5099E-3    -.2253E-1    0.5993E-3    -.1762E-1
    1.984       0.6058E-3    -.1750E-1    0.5155E-3    -.2243E-1    0.6058E-3    -.1750E-1
    2.004       0.6124E-3    -.1738E-1    0.5211E-3    -.2232E-1    0.6124E-3    -.1738E-1
    2.024       0.6190E-3    -.1725E-1    0.5268E-3    -.2222E-1    0.6190E-3    -.1725E-1
    2.044       0.6256E-3    -.1713E-1    0.5324E-3    -.2211E-1    0.6256E-3    -.1713E-1
    2.064       0.6322E-3    -.1700E-1    0.5381E-3    -.2200E-1    0.6322E-3    -.1700E-1
    2.084       0.6388E-3    -.1688E-1    0.5438E-3    -.2190E-1    0.6388E-3    -.1688E-1
    2.104       0.6454E-3    -.1675E-1    0.5496E-3    -.2179E-1    0.6454E-3    -.1675E-1
    2.124       0.6521E-3    -.1662E-1    0.5553E-3    -.2168E-1    0.6521E-3    -.1662E-1
    2.144       0.6588E-3    -.1649E-1    0.5611E-3    -.2156E-1    0.6588E-3    -.1649E-1
    2.164       0.6655E-3    -.1635E-1    0.5669E-3    -.2145E-1    0.6655E-3    -.1635E-1
    2.184       0.6722E-3    -.1622E-1    0.5727E-3    -.2134E-1    0.6722E-3    -.1622E-1
    2.204       0.6789E-3    -.1609E-1    0.5785E-3    -.2122E-1    0.6789E-3    -.1609E-1
    2.224       0.6857E-3    -.1595E-1    0.5843E-3    -.2110E-1    0.6857E-3    -.1595E-1
    2.244       0.6925E-3    -.1581E-1    0.5902E-3    -.2099E-1    0.6925E-3    -.1581E-1
    2.265       0.6993E-3    -.1567E-1    0.5961E-3    -.2087E-1    0.6993E-3    -.1567E-1
    2.285       0.7061E-3    -.1553E-1    0.6020E-3    -.2075E-1    0.7061E-3    -.1553E-1
    2.305       0.7129E-3    -.1539E-1    0.6080E-3    -.2063E-1    0.7129E-3    -.1539E-1
    2.325       0.7198E-3    -.1524E-1    0.6139E-3    -.2050E-1    0.7198E-3    -.1524E-1
    2.345       0.7267E-3    -.1510E-1    0.6199E-3    -.2038E-1    0.7267E-3    -.1510E-1
    2.365       0.7336E-3    -.1495E-1    0.6260E-3    -.2026E-1    0.7336E-3    -.1495E-1
    2.385       0.7405E-3    -.1481E-1    0.6320E-3    -.2013E-1    0.7405E-3    -.1481E-1
    2.405       0.7475E-3    -.1466E-1    0.6381E-3    -.2000E-1    0.7475E-3    -.1466E-1
    2.425       0.7545E-3    -.1451E-1    0.6442E-3    -.1987E-1    0.7545E-3    -.1451E-1
    2.445       0.7615E-3    -.1435E-1    0.6503E-3    -.1974E-1    0.7615E-3    -.1435E-1
    2.465       0.7685E-3    -.1420E-1    0.6565E-3    -.1961E-1    0.7685E-3    -.1420E-1
    2.485       0.7756E-3    -.1405E-1    0.6627E-3    -.1948E-1    0.7756E-3    -.1405E-1
    2.505       0.7827E-3    -.1389E-1    0.6689E-3    -.1935E-1    0.7827E-3    -.1389E-1
    2.525       0.7898E-3    -.1373E-1    0.6752E-3    -.1921E-1    0.7898E-3    -.1373E-1
    2.545       0.7970E-3    -.1357E-1    0.6815E-3    -.1908E-1    0.7970E-3    -.1357E-1
    2.565       0.8042E-3    -.1341E-1    0.6878E-3    -.1894E-1    0.8042E-3    -.1341E-1
    2.585       0.8114E-3    -.1325E-1    0.6942E-3    -.1880E-1    0.8114E-3    -.1325E-1
    2.605       0.8187E-3    -.1309E-1    0.7006E-3    -.1866E-1    0.8187E-3    -.1309E-1
    2.625       0.8259E-3    -.1292E-1    0.7071E-3    -.1852E-1    0.8259E-3    -.1292E-1
    2.645       0.8333E-3    -.1276E-1    0.7136E-3    -.1838E-1    0.8333E-3    -.1276E-1
    2.665       0.8406E-3    -.1259E-1    0.7201E-3    -.1824E-1    0.8406E-3    -.1259E-1
    2.685       0.8480E-3    -.1242E-1    0.7267E-3    -.1809E-1    0.8480E-3    -.1242E-1
    2.705       0.8555E-3    -.1225E-1    0.7333E-3    -.1794E-1    0.8555E-3    -.1225E-1
    2.725       0.8629E-3    -.1208E-1    0.7400E-3    -.1780E-1    0.8629E-3    -.1208E-1
    2.745       0.8705E-3    -.1190E-1    0.7467E-3    -.1765E-1    0.8705E-3    -.1190E-1
    2.766       0.8780E-3    -.1173E-1    0.7535E-3    -.1750E-1    0.8780E-3    -.1173E-1
    2.786       0.8856E-3    -.1155E-1    0.7603E-3    -.1735E-1    0.8856E-3    -.1155E-1
    2.806       0.8933E-3    -.1137E-1    0.7672E-3    -.1719E-1    0.8933E-3    -.1137E-1
    2.826       0.9010E-3    -.1119E-1    0.7742E-3    -.1704E-1    0.9010E-3    -.1119E-1
    2.846       0.9087E-3    -.1101E-1    0.7812E-3    -.1688E-1    0.9087E-3    -.1101E-1
    2.866       0.9165E-3    -.1083E-1    0.7882E-3    -.1673E-1    0.9165E-3    -.1083E-1
    2.886       0.9244E-3    -.1065E-1    0.7954E-3    -.1657E-1    0.9244E-3    -.1065E-1
    2.906       0.9323E-3    -.1046E-1    0.8026E-3    -.1641E-1    0.9323E-3    -.1046E-1
    2.926       0.9402E-3    -.1027E-1    0.8099E-3    -.1625E-1    0.9402E-3    -.1027E-1
    2.946       0.9483E-3    -.1008E-1    0.8172E-3    -.1608E-1    0.9483E-3    -.1008E-1
    2.966       0.9564E-3    -.9893E-2    0.8246E-3    -.1592E-1    0.9564E-3    -.9893E-2
    2.986       0.9645E-3    -.9700E-2    0.8321E-3    -.1575E-1    0.9645E-3    -.9700E-2
    3.006       0.9727E-3    -.9506E-2    0.8397E-3    -.1559E-1    0.9727E-3    -.9506E-2
    3.026       0.9810E-3    -.9311E-2    0.8474E-3    -.1542E-1    0.9810E-3    -.9311E-2
    3.046       0.9894E-3    -.9113E-2    0.8552E-3    -.1525E-1    0.9894E-3    -.9113E-2
    3.066       0.9978E-3    -.8914E-2    0.8631E-3    -.1507E-1    0.9978E-3    -.8914E-2
    3.086       0.1006E-2    -.8714E-2    0.8711E-3    -.1490E-1    0.1006E-2    -.8714E-2
    3.106       0.1015E-2    -.8511E-2    0.8792E-3    -.1473E-1    0.1015E-2    -.8511E-2
    3.126       0.1024E-2    -.8307E-2    0.8874E-3    -.1455E-1    0.1024E-2    -.8307E-2
    3.146       0.1032E-2    -.8101E-2    0.8957E-3    -.1437E-1    0.1032E-2    -.8101E-2
    3.166       0.1041E-2    -.7894E-2    0.9042E-3    -.1419E-1    0.1041E-2    -.7894E-2
    3.186       0.1050E-2    -.7684E-2    0.9128E-3    -.1401E-1    0.1050E-2    -.7684E-2
    3.206       0.1059E-2    -.7473E-2    0.9215E-3    -.1382E-1    0.1059E-2    -.7473E-2
    3.226       0.1069E-2    -.7260E-2    0.9304E-3    -.1364E-1    0.1069E-2    -.7260E-2
    3.246       0.1078E-2    -.7045E-2    0.9395E-3    -.1345E-1    0.1078E-2    -.7045E-2
    3.267       0.1088E-2    -.6829E-2    0.9487E-3    -.1326E-1    0.1088E-2    -.6829E-2
    3.287       0.1097E-2    -.6610E-2    0.9581E-3    -.1307E-1    0.1097E-2    -.6610E-2
    3.307       0.1107E-2    -.6389E-2    0.9677E-3    -.1288E-1    0.1107E-2    -.6389E-2
    3.327       0.1117E-2    -.6167E-2    0.9776E-3    -.1269E-1    0.1117E-2    -.6167E-2
    3.347       0.1128E-2    -.5942E-2    0.9876E-3    -.1249E-1    0.1128E-2    -.5942E-2
    3.367       0.1138E-2    -.5716E-2    0.9979E-3    -.1229E-1    0.1138E-2    -.5716E-2
    3.387       0.1149E-2    -.5487E-2    0.1009E-2    -.1209E-1    0.1149E-2    -.5487E-2
    3.407       0.1160E-2    -.5256E-2    0.1019E-2    -.1189E-1    0.1160E-2    -.5256E-2
    3.427       0.1171E-2    -.5023E-2    0.1031E-2    -.1168E-1    0.1171E-2    -.5023E-2
    3.447       0.1183E-2    -.4788E-2    0.1042E-2    -.1148E-1    0.1183E-2    -.4788E-2
    3.467       0.1195E-2    -.4551E-2    0.1054E-2    -.1127E-1    0.1195E-2    -.4551E-2
    3.487       0.1208E-2    -.4311E-2    0.1066E-2    -.1105E-1    0.1208E-2    -.4311E-2
    3.507       0.1221E-2    -.4069E-2    0.1079E-2    -.1084E-1    0.1221E-2    -.4069E-2
    3.527       0.1236E-2    -.3824E-2    0.1092E-2    -.1062E-1    0.1236E-2    -.3824E-2
    3.547       0.1251E-2    -.3577E-2    0.1106E-2    -.1040E-1    0.1251E-2    -.3577E-2
    3.567       0.1267E-2    -.3327E-2    0.1120E-2    -.1018E-1    0.1267E-2    -.3327E-2
    3.587       0.1284E-2    -.3075E-2    0.1136E-2    -.9958E-2    0.1284E-2    -.3075E-2
    3.607       0.1303E-2    -.2820E-2    0.1151E-2    -.9730E-2    0.1303E-2    -.2820E-2
    3.627       0.1325E-2    -.2563E-2    0.1168E-2    -.9499E-2    0.1325E-2    -.2563E-2
    3.647       0.1349E-2    -.2304E-2    0.1186E-2    -.9265E-2    0.1349E-2    -.2304E-2
    3.667       0.1377E-2    -.2043E-2    0.1205E-2    -.9028E-2    0.1377E-2    -.2043E-2
    3.687       0.1409E-2    -.1782E-2    0.1225E-2    -.8787E-2    0.1409E-2    -.1782E-2
    3.707       0.1446E-2    -.1523E-2    0.1247E-2    -.8542E-2    0.1446E-2    -.1523E-2
    3.727       0.1486E-2    -.1268E-2    0.1271E-2    -.8294E-2    0.1486E-2    -.1268E-2
    3.747       0.1527E-2    -.1021E-2    0.1297E-2    -.8041E-2    0.1527E-2    -.1021E-2
    3.768       0.1563E-2    -.7826E-3    0.1325E-2    -.7784E-2    0.1563E-2    -.7829E-3
    3.788       0.1587E-2    -.5487E-3    0.1357E-2    -.7522E-2    0.1587E-2    -.5494E-3
    3.808       0.1598E-2    -.3118E-3    0.1393E-2    -.7255E-2    0.1597E-2    -.3126E-3
    3.828       0.1598E-2    -.6506E-4    0.1434E-2    -.6983E-2    0.1597E-2    -.6532E-4
    3.848       0.1595E-2    0.1936E-3    0.1481E-2    -.6706E-2    0.1593E-2    0.1947E-3
    3.868       0.1591E-2    0.4627E-3    0.1536E-2    -.6424E-2    0.1590E-2    0.4654E-3
    3.888       0.1589E-2    0.7403E-3    0.1601E-2    -.6138E-2    0.1590E-2    0.7438E-3
    3.908       0.1589E-2    0.1026E-2    0.1679E-2    -.5849E-2    0.1592E-2    0.1028E-2
    3.928       0.1591E-2    0.1319E-2    0.1773E-2    -.5560E-2    0.1596E-2    0.1319E-2
    3.948       0.1598E-2    0.1619E-2    0.1885E-2    -.5277E-2    0.1602E-2    0.1617E-2
    3.968       0.1609E-2    0.1925E-2    0.2017E-2    -.5009E-2    0.1612E-2    0.1920E-2
    3.988       0.1625E-2    0.2235E-2    0.2165E-2    -.4767E-2    0.1626E-2    0.2230E-2
    4.008       0.1645E-2    0.2551E-2    0.2314E-2    -.4563E-2    0.1644E-2    0.2545E-2
    4.028       0.1672E-2    0.2870E-2    0.2440E-2    -.4398E-2    0.1668E-2    0.2864E-2
    4.048       0.1703E-2    0.3193E-2    0.2519E-2    -.4254E-2    0.1697E-2    0.3188E-2
    4.068       0.1742E-2    0.3520E-2    0.2547E-2    -.4096E-2    0.1733E-2    0.3516E-2
    4.088       0.1788E-2    0.3847E-2    0.2545E-2    -.3898E-2    0.1776E-2    0.3847E-2
    4.108       0.1842E-2    0.4175E-2    0.2545E-2    -.3656E-2    0.1827E-2    0.4181E-2
    4.128       0.1903E-2    0.4500E-2    0.2569E-2    -.3387E-2    0.1889E-2    0.4514E-2
    4.148       0.1969E-2    0.4820E-2    0.2622E-2    -.3113E-2    0.1961E-2    0.4845E-2
    4.168       0.2036E-2    0.5133E-2    0.2695E-2    -.2856E-2    0.2042E-2    0.5167E-2
    4.188       0.2099E-2    0.5443E-2    0.2766E-2    -.2625E-2    0.2128E-2    0.5476E-2
    4.208       0.2160E-2    0.5758E-2    0.2811E-2    -.2410E-2    0.2211E-2    0.5772E-2
    4.228       0.2225E-2    0.6081E-2    0.2824E-2    -.2187E-2    0.2282E-2    0.6061E-2
    4.248       0.2303E-2    0.6407E-2    0.2814E-2    -.1937E-2    0.2342E-2    0.6353E-2
    4.269       0.2399E-2    0.6725E-2    0.2799E-2    -.1658E-2    0.2403E-2    0.6654E-2
    4.289       0.2510E-2    0.7020E-2    0.2785E-2    -.1356E-2    0.2472E-2    0.6956E-2
    4.309       0.2618E-2    0.7278E-2    0.2769E-2    -.1031E-2    0.2551E-2    0.7246E-2
    4.329       0.2697E-2    0.7500E-2    0.2752E-2    -.6775E-3    0.2625E-2    0.7511E-2
    4.349       0.2721E-2    0.7707E-2    0.2743E-2    -.2888E-3    0.2672E-2    0.7752E-2
    4.369       0.2689E-2    0.7935E-2    0.2752E-2    0.1349E-3    0.2673E-2    0.7991E-2
    4.389       0.2621E-2    0.8211E-2    0.2787E-2    0.5895E-3    0.2632E-2    0.8257E-2
    4.409       0.2545E-2    0.8538E-2    0.2852E-2    0.1070E-2    0.2569E-2    0.8568E-2
    4.429       0.2480E-2    0.8909E-2    0.2950E-2    0.1575E-2    0.2506E-2    0.8923E-2
    4.449       0.2433E-2    0.9309E-2    0.3082E-2    0.2101E-2    0.2457E-2    0.9313E-2
    4.469       0.2407E-2    0.9729E-2    0.3254E-2    0.2651E-2    0.2426E-2    0.9727E-2
    4.489       0.2398E-2    0.1016E-1    0.3472E-2    0.3225E-2    0.2413E-2    0.1016E-1
    4.509       0.2405E-2    0.1061E-1    0.3743E-2    0.3825E-2    0.2417E-2    0.1060E-1
    4.529       0.2426E-2    0.1107E-1    0.4081E-2    0.4450E-2    0.2435E-2    0.1106E-1
    4.549       0.2459E-2    0.1153E-1    0.4504E-2    0.5101E-2    0.2465E-2    0.1152E-1
    4.569       0.2503E-2    0.1201E-1    0.5034E-2    0.5770E-2    0.2508E-2    0.1200E-1
    4.589       0.2559E-2    0.1249E-1    0.5702E-2    0.6447E-2    0.2562E-2    0.1248E-1
    4.609       0.2626E-2    0.1299E-1    0.6548E-2    0.7104E-2    0.2628E-2    0.1298E-1
    4.629       0.2705E-2    0.1350E-1    0.7619E-2    0.7694E-2    0.2705E-2    0.1349E-1
    4.649       0.2797E-2    0.1403E-1    0.8958E-2    0.8127E-2    0.2797E-2    0.1402E-1
    4.669       0.2905E-2    0.1457E-1    0.1059E-1    0.8259E-2    0.2903E-2    0.1456E-1
    4.689       0.3029E-2    0.1513E-1    0.1245E-1    0.7883E-2    0.3026E-2    0.1512E-1
    4.709       0.3175E-2    0.1571E-1    0.1431E-1    0.6776E-2    0.3170E-2    0.1570E-1
    4.729       0.3344E-2    0.1631E-1    0.1577E-1    0.4852E-2    0.3338E-2    0.1630E-1
    4.749       0.3543E-2    0.1694E-1    0.1632E-1    0.2365E-2    0.3535E-2    0.1693E-1
    4.770       0.3779E-2    0.1759E-1    0.1575E-1    -.9160E-4    0.3768E-2    0.1758E-1
    4.790       0.4060E-2    0.1828E-1    0.1430E-1    -.1944E-2    0.4045E-2    0.1827E-1
    4.810       0.4398E-2    0.1899E-1    0.1248E-1    -.2968E-2    0.4379E-2    0.1898E-1
    4.830       0.4809E-2    0.1974E-1    0.1071E-1    -.3268E-2    0.4783E-2    0.1973E-1
    4.850       0.5312E-2    0.2051E-1    0.9177E-2    -.3072E-2    0.5279E-2    0.2051E-1
    4.870       0.5934E-2    0.2131E-1    0.7945E-2    -.2584E-2    0.5892E-2    0.2132E-1
    4.890       0.6707E-2    0.2210E-1    0.6992E-2    -.1949E-2    0.6656E-2    0.2213E-1
    4.910       0.7669E-2    0.2287E-1    0.6273E-2    -.1259E-2    0.7615E-2    0.2293E-1
    4.930       0.8858E-2    0.2356E-1    0.5739E-2    -.5698E-3    0.8818E-2    0.2366E-1
    4.950       0.1030E-1    0.2408E-1    0.5343E-2    0.8164E-4    0.1031E-1    0.2423E-1
    4.970       0.1199E-1    0.2431E-1    0.5035E-2    0.6767E-3    0.1211E-1    0.2449E-1
    4.990       0.1387E-1    0.2414E-1    0.4763E-2    0.1220E-2    0.1414E-1    0.2424E-1
    5.010       0.1586E-1    0.2340E-1    0.4497E-2    0.1738E-2    0.1621E-1    0.2330E-1
    5.030       0.1775E-1    0.2195E-1    0.4231E-2    0.2264E-2    0.1797E-1    0.2160E-1
    5.050       0.1914E-1    0.1970E-1    0.3979E-2    0.2815E-2    0.1906E-1    0.1928E-1
    5.070       0.1956E-1    0.1690E-1    0.3758E-2    0.3391E-2    0.1923E-1    0.1666E-1
    5.090       0.1876E-1    0.1417E-1    0.3574E-2    0.3982E-2    0.1842E-1    0.1420E-1
    5.110       0.1699E-1    0.1212E-1    0.3426E-2    0.4580E-2    0.1680E-1    0.1229E-1
    5.130       0.1482E-1    0.1101E-1    0.3311E-2    0.5180E-2    0.1477E-1    0.1120E-1
    5.150       0.1269E-1    0.1073E-1    0.3224E-2    0.5777E-2    0.1272E-1    0.1086E-1
    5.170       0.1084E-1    0.1102E-1    0.3160E-2    0.6372E-2    0.1090E-1    0.1110E-1
    5.190       0.9330E-2    0.1165E-1    0.3115E-2    0.6965E-2    0.9390E-2    0.1169E-1
    5.210       0.8132E-2    0.1246E-1    0.3087E-2    0.7557E-2    0.8183E-2    0.1247E-1
    5.230       0.7192E-2    0.1335E-1    0.3074E-2    0.8149E-2    0.7233E-2    0.1334E-1
    5.251       0.6457E-2    0.1426E-1    0.3073E-2    0.8742E-2    0.6487E-2    0.1425E-1
    5.271       0.5879E-2    0.1517E-1    0.3085E-2    0.9339E-2    0.5901E-2    0.1516E-1
    5.291       0.5425E-2    0.1606E-1    0.3107E-2    0.9940E-2    0.5440E-2    0.1605E-1
    5.311       0.5066E-2    0.1694E-1    0.3141E-2    0.1055E-1    0.5075E-2    0.1692E-1
    5.331       0.4781E-2    0.1779E-1    0.3185E-2    0.1116E-1    0.4786E-2    0.1777E-1
    5.351       0.4555E-2    0.1862E-1    0.3239E-2    0.1179E-1    0.4557E-2    0.1860E-1
    5.371       0.4377E-2    0.1943E-1    0.3304E-2    0.1242E-1    0.4375E-2    0.1942E-1
    5.391       0.4236E-2    0.2022E-1    0.3381E-2    0.1307E-1    0.4232E-2    0.2021E-1
    5.411       0.4127E-2    0.2100E-1    0.3470E-2    0.1374E-1    0.4122E-2    0.2099E-1
    5.431       0.4043E-2    0.2177E-1    0.3572E-2    0.1442E-1    0.4038E-2    0.2177E-1
    5.451       0.3981E-2    0.2253E-1    0.3688E-2    0.1512E-1    0.3977E-2    0.2253E-1
    5.471       0.3939E-2    0.2329E-1    0.3820E-2    0.1584E-1    0.3936E-2    0.2329E-1
    5.491       0.3915E-2    0.2405E-1    0.3969E-2    0.1659E-1    0.3912E-2    0.2405E-1
    5.511       0.3906E-2    0.2480E-1    0.4139E-2    0.1737E-1    0.3903E-2    0.2480E-1
    5.531       0.3911E-2    0.2556E-1    0.4331E-2    0.1817E-1    0.3910E-2    0.2556E-1
    5.551       0.3931E-2    0.2632E-1    0.4549E-2    0.1901E-1    0.3929E-2    0.2632E-1
    5.571       0.3963E-2    0.2709E-1    0.4798E-2    0.1989E-1    0.3961E-2    0.2709E-1
    5.591       0.4007E-2    0.2787E-1    0.5082E-2    0.2081E-1    0.4006E-2    0.2787E-1
    5.611       0.4064E-2    0.2866E-1    0.5408E-2    0.2178E-1    0.4063E-2    0.2866E-1
    5.631       0.4134E-2    0.2946E-1    0.5783E-2    0.2280E-1    0.4133E-2    0.2946E-1
    5.651       0.4216E-2    0.3027E-1    0.6218E-2    0.2389E-1    0.4216E-2    0.3027E-1
    5.671       0.4313E-2    0.3110E-1    0.6724E-2    0.2504E-1    0.4312E-2    0.3110E-1
    5.691       0.4423E-2    0.3195E-1    0.7317E-2    0.2626E-1    0.4423E-2    0.3195E-1
    5.711       0.4549E-2    0.3282E-1    0.8017E-2    0.2757E-1    0.4549E-2    0.3282E-1
    5.731       0.4693E-2    0.3371E-1    0.8849E-2    0.2897E-1    0.4692E-2    0.3371E-1
    5.752       0.4854E-2    0.3464E-1    0.9847E-2    0.3048E-1    0.4854E-2    0.3464E-1
    5.772       0.5037E-2    0.3559E-1    0.1105E-1    0.3209E-1    0.5037E-2    0.3559E-1
    5.792       0.5243E-2    0.3658E-1    0.1253E-1    0.3382E-1    0.5243E-2    0.3658E-1
    5.812       0.5476E-2    0.3760E-1    0.1435E-1    0.3565E-1    0.5476E-2    0.3760E-1
    5.832       0.5739E-2    0.3867E-1    0.1661E-1    0.3757E-1    0.5739E-2    0.3867E-1
      5.8517       0.0060       0.0398       0.0195       0.0395       0.0060       0.0398
      5.8717       0.0064       0.0409       0.0230       0.0414       0.0064       0.0409
      5.8918       0.0068       0.0422       0.0276       0.0430       0.0068       0.0422
      5.9118       0.0072       0.0435       0.0333       0.0441       0.0072       0.0435
      5.9319       0.0077       0.0448       0.0403       0.0438       0.0077       0.0448
      5.9519       0.0083       0.0463       0.0484       0.0415       0.0083       0.0463
      5.9719       0.0090       0.0478       0.0568       0.0361       0.0090       0.0478
      5.9920       0.0098       0.0494       0.0638       0.0270       0.0098       0.0494
     6.01202      0.01073      0.05119      0.06700      0.01494      0.01073      0.05119
    6.032       0.1186E-1    0.5306E-1    0.6521E-1    0.2472E-2    0.1186E-1    0.5306E-1
      6.0521       0.0132       0.0551       0.0592      -0.0077       0.0132       0.0551
     6.07214      0.01484      0.05723      0.05097     -0.01421      0.01484      0.05723
     6.09218      0.01683      0.05953      0.04265     -0.01735      0.01683      0.05953
     6.11222      0.01928      0.06198      0.03529     -0.01808      0.01928      0.06198
     6.13226      0.02234      0.06454      0.02920     -0.01735      0.02234      0.06454
     6.15230      0.02618      0.06713      0.02433     -0.01585      0.02618      0.06713
     6.17234      0.03102      0.06962      0.02048     -0.01400      0.03102      0.06962
     6.19238      0.03714      0.07171      0.01744     -0.01204      0.03714      0.07171
     6.21242      0.04479      0.07291      0.01503     -0.01009      0.04479      0.07291
      6.2325       0.0541       0.0724       0.0131      -0.0082       0.0541       0.0724
      6.2525       0.0647       0.0690       0.0115      -0.0065       0.0647       0.0690
    6.273       0.7528E-1    0.6144E-1    0.1025E-1    -.4792E-2    0.7528E-1    0.6144E-1
    6.293       0.8354E-1    0.4934E-1    0.9201E-2    -.3242E-2    0.8354E-1    0.4934E-1
    6.313       0.8674E-1    0.3417E-1    0.8327E-2    -.1796E-2    0.8673E-1    0.3416E-1
    6.333       0.8378E-1    0.1925E-1    0.7594E-2    -.4437E-3    0.8378E-1    0.1925E-1
    6.353       0.7619E-1    0.7711E-2    0.6974E-2    0.8222E-3    0.7618E-1    0.7713E-2
    6.373       0.6678E-1    0.6420E-3    0.6446E-2    0.2011E-2    0.6677E-1    0.6461E-3
    6.393       0.5781E-1    -.2707E-2    0.5993E-2    0.3130E-2    0.5780E-1    -.2702E-2
    6.413       0.5030E-1    -.3762E-2    0.5602E-2    0.4188E-2    0.5030E-1    -.3758E-2
    6.433       0.4432E-1    -.3790E-2    0.5262E-2    0.5190E-2    0.4432E-1    -.3787E-2
    6.453       0.3939E-1    -.3549E-2    0.4966E-2    0.6143E-2    0.3939E-1    -.3549E-2
    6.473       0.3493E-1    -.3228E-2    0.4705E-2    0.7052E-2    0.3493E-1    -.3228E-2
    6.493       0.3065E-1    -.2632E-2    0.4476E-2    0.7921E-2    0.3065E-1    -.2633E-2
    6.513       0.2660E-1    -.1562E-2    0.4273E-2    0.8755E-2    0.2660E-1    -.1563E-2
    6.533       0.2297E-1    -.1995E-4    0.4093E-2    0.9556E-2    0.2297E-1    -.2091E-4
    6.553       0.1987E-1    0.1846E-2    0.3932E-2    0.1033E-1    0.1987E-1    0.1846E-2
    6.573       0.1729E-1    0.3869E-2    0.3788E-2    0.1107E-1    0.1729E-1    0.3869E-2
    6.593       0.1518E-1    0.5922E-2    0.3658E-2    0.1180E-1    0.1518E-1    0.5922E-2
    6.613       0.1346E-1    0.7931E-2    0.3542E-2    0.1250E-1    0.1346E-1    0.7931E-2
    6.633       0.1204E-1    0.9857E-2    0.3437E-2    0.1318E-1    0.1204E-1    0.9857E-2
    6.653       0.1087E-1    0.1168E-1    0.3342E-2    0.1384E-1    0.1087E-1    0.1168E-1
    6.673       0.9899E-2    0.1341E-1    0.3255E-2    0.1449E-1    0.9899E-2    0.1341E-1
    6.693       0.9081E-2    0.1503E-1    0.3177E-2    0.1512E-1    0.9081E-2    0.1503E-1
    6.713       0.8388E-2    0.1657E-1    0.3106E-2    0.1574E-1    0.8388E-2    0.1657E-1
    6.733       0.7797E-2    0.1802E-1    0.3040E-2    0.1634E-1    0.7797E-2    0.1802E-1
    6.754       0.7288E-2    0.1939E-1    0.2981E-2    0.1694E-1    0.7288E-2    0.1939E-1
    6.774       0.6848E-2    0.2069E-1    0.2926E-2    0.1752E-1    0.6848E-2    0.2069E-1
    6.794       0.6465E-2    0.2193E-1    0.2876E-2    0.1809E-1    0.6465E-2    0.2193E-1
    6.814       0.6129E-2    0.2311E-1    0.2830E-2    0.1866E-1    0.6129E-2    0.2311E-1
    6.834       0.5833E-2    0.2424E-1    0.2788E-2    0.1922E-1    0.5833E-2    0.2424E-1
    6.854       0.5572E-2    0.2533E-1    0.2749E-2    0.1977E-1    0.5572E-2    0.2533E-1
    6.874       0.5340E-2    0.2638E-1    0.2713E-2    0.2031E-1    0.5340E-2    0.2638E-1
    6.894       0.5133E-2    0.2738E-1    0.2680E-2    0.2084E-1    0.5133E-2    0.2738E-1
    6.914       0.4947E-2    0.2836E-1    0.2650E-2    0.2137E-1    0.4947E-2    0.2836E-1
    6.934       0.4781E-2    0.2930E-1    0.2622E-2    0.2190E-1    0.4781E-2    0.2930E-1
    6.954       0.4631E-2    0.3022E-1    0.2596E-2    0.2242E-1    0.4631E-2    0.3022E-1
    6.974       0.4496E-2    0.3111E-1    0.2572E-2    0.2293E-1    0.4496E-2    0.3111E-1
    6.994       0.4373E-2    0.3198E-1    0.2550E-2    0.2344E-1    0.4373E-2    0.3198E-1
    7.014       0.4262E-2    0.3282E-1    0.2530E-2    0.2395E-1    0.4262E-2    0.3282E-1
    7.034       0.4161E-2    0.3365E-1    0.2511E-2    0.2445E-1    0.4161E-2    0.3365E-1
    7.054       0.4069E-2    0.3446E-1    0.2494E-2    0.2495E-1    0.4069E-2    0.3446E-1
    7.074       0.3985E-2    0.3525E-1    0.2478E-2    0.2545E-1    0.3985E-2    0.3525E-1
    7.094       0.3908E-2    0.3603E-1    0.2463E-2    0.2594E-1    0.3908E-2    0.3603E-1
    7.114       0.3838E-2    0.3680E-1    0.2450E-2    0.2643E-1    0.3838E-2    0.3680E-1
    7.134       0.3773E-2    0.3755E-1    0.2437E-2    0.2692E-1    0.3773E-2    0.3755E-1
    7.154       0.3714E-2    0.3829E-1    0.2426E-2    0.2740E-1    0.3714E-2    0.3829E-1
    7.174       0.3659E-2    0.3903E-1    0.2415E-2    0.2789E-1    0.3659E-2    0.3903E-1
    7.194       0.3609E-2    0.3975E-1    0.2405E-2    0.2837E-1    0.3609E-2    0.3975E-1
    7.214       0.3563E-2    0.4046E-1    0.2396E-2    0.2885E-1    0.3563E-2    0.4046E-1
    7.234       0.3521E-2    0.4116E-1    0.2388E-2    0.2933E-1    0.3521E-2    0.4116E-1
    7.255       0.3482E-2    0.4186E-1    0.2381E-2    0.2980E-1    0.3482E-2    0.4186E-1
    7.275       0.3446E-2    0.4255E-1    0.2374E-2    0.3028E-1    0.3446E-2    0.4255E-1
    7.295       0.3412E-2    0.4323E-1    0.2368E-2    0.3075E-1    0.3412E-2    0.4323E-1
    7.315       0.3382E-2    0.4391E-1    0.2363E-2    0.3122E-1    0.3382E-2    0.4391E-1
    7.335       0.3353E-2    0.4458E-1    0.2358E-2    0.3170E-1    0.3353E-2    0.4458E-1
    7.355       0.3327E-2    0.4524E-1    0.2354E-2    0.3217E-1    0.3327E-2    0.4524E-1
    7.375       0.3303E-2    0.4590E-1    0.2350E-2    0.3264E-1    0.3303E-2    0.4590E-1
    7.395       0.3281E-2    0.4656E-1    0.2347E-2    0.3311E-1    0.3281E-2    0.4656E-1
    7.415       0.3261E-2    0.4721E-1    0.2344E-2    0.3358E-1    0.3261E-2    0.4721E-1
    7.435       0.3242E-2    0.4786E-1    0.2342E-2    0.3405E-1    0.3242E-2    0.4786E-1
    7.455       0.3225E-2    0.4851E-1    0.2340E-2    0.3452E-1    0.3225E-2    0.4851E-1
    7.475       0.3209E-2    0.4915E-1    0.2338E-2    0.3498E-1    0.3209E-2    0.4915E-1
    7.495       0.3194E-2    0.4979E-1    0.2337E-2    0.3545E-1    0.3194E-2    0.4979E-1
    7.515       0.3181E-2    0.5043E-1    0.2336E-2    0.3592E-1    0.3181E-2    0.5043E-1
    7.535       0.3169E-2    0.5106E-1    0.2335E-2    0.3639E-1    0.3169E-2    0.5106E-1
    7.555       0.3158E-2    0.5169E-1    0.2335E-2    0.3685E-1    0.3158E-2    0.5169E-1
    7.575       0.3148E-2    0.5232E-1    0.2335E-2    0.3732E-1    0.3148E-2    0.5232E-1
    7.595       0.3140E-2    0.5295E-1    0.2336E-2    0.3779E-1    0.3140E-2    0.5295E-1
    7.615       0.3132E-2    0.5358E-1    0.2336E-2    0.3826E-1    0.3132E-2    0.5358E-1
    7.635       0.3124E-2    0.5420E-1    0.2337E-2    0.3872E-1    0.3124E-2    0.5420E-1
    7.655       0.3118E-2    0.5483E-1    0.2338E-2    0.3919E-1    0.3118E-2    0.5483E-1
    7.675       0.3113E-2    0.5545E-1    0.2340E-2    0.3966E-1    0.3113E-2    0.5545E-1
    7.695       0.3108E-2    0.5607E-1    0.2341E-2    0.4013E-1    0.3108E-2    0.5607E-1
    7.715       0.3104E-2    0.5669E-1    0.2343E-2    0.4060E-1    0.3104E-2    0.5669E-1
    7.735       0.3100E-2    0.5732E-1    0.2345E-2    0.4107E-1    0.3100E-2    0.5732E-1
    7.756       0.3097E-2    0.5794E-1    0.2348E-2    0.4154E-1    0.3097E-2    0.5794E-1
    7.776       0.3095E-2    0.5855E-1    0.2350E-2    0.4201E-1    0.3095E-2    0.5855E-1
    7.796       0.3093E-2    0.5917E-1    0.2353E-2    0.4248E-1    0.3093E-2    0.5917E-1
    7.816       0.3092E-2    0.5979E-1    0.2356E-2    0.4295E-1    0.3092E-2    0.5979E-1
    7.836       0.3092E-2    0.6041E-1    0.2359E-2    0.4342E-1    0.3092E-2    0.6041E-1
    7.856       0.3092E-2    0.6103E-1    0.2362E-2    0.4390E-1    0.3092E-2    0.6103E-1
    7.876       0.3092E-2    0.6165E-1    0.2366E-2    0.4437E-1    0.3092E-2    0.6165E-1
    7.896       0.3093E-2    0.6227E-1    0.2369E-2    0.4484E-1    0.3093E-2    0.6227E-1
    7.916       0.3094E-2    0.6289E-1    0.2373E-2    0.4532E-1    0.3094E-2    0.6289E-1
    7.936       0.3096E-2    0.6351E-1    0.2377E-2    0.4579E-1    0.3096E-2    0.6351E-1
    7.956       0.3098E-2    0.6413E-1    0.2381E-2    0.4627E-1    0.3098E-2    0.6413E-1
    7.976       0.3100E-2    0.6475E-1    0.2385E-2    0.4675E-1    0.3100E-2    0.6475E-1
    7.996       0.3103E-2    0.6537E-1    0.2389E-2    0.4723E-1    0.3103E-2    0.6537E-1
    8.016       0.3107E-2    0.6599E-1    0.2394E-2    0.4770E-1    0.3107E-2    0.6599E-1
    8.036       0.3110E-2    0.6661E-1    0.2399E-2    0.4818E-1    0.3110E-2    0.6661E-1
    8.056       0.3114E-2    0.6724E-1    0.2403E-2    0.4867E-1    0.3114E-2    0.6724E-1
    8.076       0.3118E-2    0.6786E-1    0.2408E-2    0.4915E-1    0.3118E-2    0.6786E-1
    8.096       0.3123E-2    0.6848E-1    0.2413E-2    0.4963E-1    0.3123E-2    0.6848E-1
    8.116       0.3128E-2    0.6911E-1    0.2418E-2    0.5011E-1    0.3128E-2    0.6911E-1
    8.136       0.3133E-2    0.6974E-1    0.2424E-2    0.5060E-1    0.3133E-2    0.6974E-1
    8.156       0.3139E-2    0.7036E-1    0.2429E-2    0.5109E-1    0.3139E-2    0.7036E-1
    8.176       0.3144E-2    0.7099E-1    0.2434E-2    0.5157E-1    0.3144E-2    0.7099E-1
    8.196       0.3150E-2    0.7162E-1    0.2440E-2    0.5206E-1    0.3150E-2    0.7162E-1
    8.216       0.3157E-2    0.7226E-1    0.2446E-2    0.5255E-1    0.3157E-2    0.7226E-1
    8.236       0.3164E-2    0.7289E-1    0.2452E-2    0.5304E-1    0.3164E-2    0.7289E-1
    8.257       0.3170E-2    0.7352E-1    0.2458E-2    0.5353E-1    0.3170E-2    0.7352E-1
    8.277       0.3178E-2    0.7416E-1    0.2464E-2    0.5403E-1    0.3178E-2    0.7416E-1
    8.297       0.3185E-2    0.7480E-1    0.2470E-2    0.5452E-1    0.3185E-2    0.7480E-1
    8.317       0.3193E-2    0.7543E-1    0.2476E-2    0.5501E-1    0.3193E-2    0.7543E-1
    8.337       0.3201E-2    0.7607E-1    0.2482E-2    0.5551E-1    0.3201E-2    0.7607E-1
    8.357       0.3209E-2    0.7672E-1    0.2489E-2    0.5601E-1    0.3209E-2    0.7672E-1
    8.377       0.3218E-2    0.7736E-1    0.2496E-2    0.5651E-1    0.3218E-2    0.7736E-1
    8.397       0.3226E-2    0.7800E-1    0.2502E-2    0.5701E-1    0.3226E-2    0.7800E-1
    8.417       0.3235E-2    0.7865E-1    0.2509E-2    0.5751E-1    0.3235E-2    0.7865E-1
    8.437       0.3245E-2    0.7930E-1    0.2516E-2    0.5801E-1    0.3245E-2    0.7930E-1
    8.457       0.3254E-2    0.7995E-1    0.2523E-2    0.5852E-1    0.3254E-2    0.7995E-1
    8.477       0.3264E-2    0.8060E-1    0.2530E-2    0.5903E-1    0.3264E-2    0.8060E-1
    8.497       0.3274E-2    0.8126E-1    0.2537E-2    0.5953E-1    0.3274E-2    0.8126E-1
    8.517       0.3284E-2    0.8192E-1    0.2545E-2    0.6004E-1    0.3284E-2    0.8192E-1
    8.537       0.3295E-2    0.8257E-1    0.2552E-2    0.6055E-1    0.3295E-2    0.8257E-1
    8.557       0.3305E-2    0.8323E-1    0.2560E-2    0.6106E-1    0.3305E-2    0.8323E-1
    8.577       0.3316E-2    0.8390E-1    0.2567E-2    0.6158E-1    0.3316E-2    0.8390E-1
    8.597       0.3328E-2    0.8456E-1    0.2575E-2    0.6209E-1    0.3328E-2    0.8456E-1
    8.617       0.3339E-2    0.8523E-1    0.2583E-2    0.6261E-1    0.3339E-2    0.8523E-1
    8.637       0.3351E-2    0.8590E-1    0.2591E-2    0.6313E-1    0.3351E-2    0.8590E-1
    8.657       0.3363E-2    0.8657E-1    0.2599E-2    0.6365E-1    0.3363E-2    0.8657E-1
    8.677       0.3376E-2    0.8725E-1    0.2607E-2    0.6417E-1    0.3376E-2    0.8725E-1
    8.697       0.3388E-2    0.8792E-1    0.2616E-2    0.6469E-1    0.3388E-2    0.8792E-1
    8.717       0.3401E-2    0.8860E-1    0.2624E-2    0.6522E-1    0.3401E-2    0.8860E-1
    8.737       0.3415E-2    0.8929E-1    0.2633E-2    0.6574E-1    0.3415E-2    0.8929E-1
    8.758       0.3428E-2    0.8997E-1    0.2642E-2    0.6627E-1    0.3428E-2    0.8997E-1
    8.778       0.3442E-2    0.9066E-1    0.2651E-2    0.6680E-1    0.3442E-2    0.9066E-1
    8.798       0.3456E-2    0.9135E-1    0.2660E-2    0.6733E-1    0.3456E-2    0.9135E-1
    8.818       0.3471E-2    0.9204E-1    0.2669E-2    0.6787E-1    0.3471E-2    0.9204E-1
    8.838       0.3486E-2    0.9274E-1    0.2678E-2    0.6840E-1    0.3486E-2    0.9274E-1
    8.858       0.3501E-2    0.9344E-1    0.2688E-2    0.6894E-1    0.3501E-2    0.9344E-1
    8.878       0.3517E-2    0.9414E-1    0.2697E-2    0.6948E-1    0.3517E-2    0.9414E-1
    8.898       0.3533E-2    0.9485E-1    0.2707E-2    0.7002E-1    0.3533E-2    0.9485E-1
    8.918       0.3549E-2    0.9556E-1    0.2717E-2    0.7056E-1    0.3549E-2    0.9556E-1
    8.938       0.3566E-2    0.9627E-1    0.2727E-2    0.7111E-1    0.3566E-2    0.9627E-1
    8.958       0.3583E-2    0.9699E-1    0.2738E-2    0.7166E-1    0.3583E-2    0.9699E-1
    8.978       0.3601E-2    0.9770E-1    0.2748E-2    0.7221E-1    0.3601E-2    0.9770E-1
    8.998       0.3619E-2    0.9843E-1    0.2759E-2    0.7276E-1    0.3619E-2    0.9843E-1
    9.018       0.3638E-2    0.9915E-1    0.2770E-2    0.7331E-1    0.3638E-2    0.9915E-1
    9.038       0.3657E-2    0.9988E-1    0.2781E-2    0.7387E-1    0.3657E-2    0.9988E-1
    9.058       0.3676E-2    0.1006       0.2792E-2    0.7443E-1    0.3676E-2    0.1006   
    9.078       0.3697E-2    0.1014       0.2804E-2    0.7499E-1    0.3697E-2    0.1014   
    9.098       0.3717E-2    0.1021       0.2816E-2    0.7555E-1    0.3717E-2    0.1021   
    9.118       0.3739E-2    0.1028       0.2828E-2    0.7611E-1    0.3739E-2    0.1028   
    9.138       0.3761E-2    0.1036       0.2840E-2    0.7668E-1    0.3761E-2    0.1036   
    9.158       0.3784E-2    0.1043       0.2853E-2    0.7725E-1    0.3784E-2    0.1043   
    9.178       0.3807E-2    0.1051       0.2866E-2    0.7782E-1    0.3807E-2    0.1051   
    9.198       0.3831E-2    0.1059       0.2880E-2    0.7840E-1    0.3831E-2    0.1059   
    9.218       0.3856E-2    0.1066       0.2893E-2    0.7898E-1    0.3856E-2    0.1066   
    9.238       0.3882E-2    0.1074       0.2908E-2    0.7956E-1    0.3882E-2    0.1074   
    9.259       0.3909E-2    0.1082       0.2922E-2    0.8014E-1    0.3909E-2    0.1082   
    9.279       0.3937E-2    0.1090       0.2937E-2    0.8073E-1    0.3937E-2    0.1090   
    9.299       0.3966E-2    0.1098       0.2953E-2    0.8132E-1    0.3966E-2    0.1098   
    9.319       0.3996E-2    0.1106       0.2969E-2    0.8191E-1    0.3996E-2    0.1106   
    9.339       0.4027E-2    0.1114       0.2985E-2    0.8250E-1    0.4027E-2    0.1114   
    9.359       0.4059E-2    0.1122       0.3002E-2    0.8310E-1    0.4059E-2    0.1122   
    9.379       0.4093E-2    0.1130       0.3020E-2    0.8371E-1    0.4093E-2    0.1130   
    9.399       0.4128E-2    0.1138       0.3038E-2    0.8431E-1    0.4128E-2    0.1138   
    9.419       0.4164E-2    0.1146       0.3058E-2    0.8492E-1    0.4164E-2    0.1146   
    9.439       0.4203E-2    0.1155       0.3078E-2    0.8553E-1    0.4203E-2    0.1155   
    9.459       0.4243E-2    0.1163       0.3098E-2    0.8615E-1    0.4243E-2    0.1163   
    9.479       0.4285E-2    0.1172       0.3120E-2    0.8677E-1    0.4285E-2    0.1172   
    9.499       0.4329E-2    0.1180       0.3143E-2    0.8740E-1    0.4329E-2    0.1180   
    9.519       0.4375E-2    0.1189       0.3167E-2    0.8803E-1    0.4375E-2    0.1189   
    9.539       0.4424E-2    0.1198       0.3192E-2    0.8866E-1    0.4424E-2    0.1198   
    9.559       0.4476E-2    0.1207       0.3219E-2    0.8930E-1    0.4476E-2    0.1207   
    9.579       0.4530E-2    0.1216       0.3247E-2    0.8995E-1    0.4530E-2    0.1216   
    9.599       0.4588E-2    0.1225       0.3277E-2    0.9060E-1    0.4588E-2    0.1225   
    9.619       0.4649E-2    0.1234       0.3309E-2    0.9126E-1    0.4649E-2    0.1234   
    9.639       0.4714E-2    0.1243       0.3343E-2    0.9192E-1    0.4714E-2    0.1243   
    9.659       0.4783E-2    0.1253       0.3379E-2    0.9259E-1    0.4783E-2    0.1253   
    9.679       0.4857E-2    0.1262       0.3418E-2    0.9326E-1    0.4857E-2    0.1262   
    9.699       0.4936E-2    0.1272       0.3460E-2    0.9395E-1    0.4936E-2    0.1272   
    9.719       0.5021E-2    0.1282       0.3505E-2    0.9464E-1    0.5021E-2    0.1282   
    9.739       0.5112E-2    0.1292       0.3554E-2    0.9534E-1    0.5112E-2    0.1292   
    9.760       0.5210E-2    0.1302       0.3607E-2    0.9605E-1    0.5210E-2    0.1302   
    9.780       0.5317E-2    0.1312       0.3665E-2    0.9677E-1    0.5317E-2    0.1312   
    9.800       0.5432E-2    0.1323       0.3729E-2    0.9750E-1    0.5432E-2    0.1323   
    9.820       0.5557E-2    0.1334       0.3799E-2    0.9824E-1    0.5557E-2    0.1334   
    9.840       0.5693E-2    0.1345       0.3877E-2    0.9899E-1    0.5693E-2    0.1345   
    9.860       0.5842E-2    0.1356       0.3964E-2    0.9976E-1    0.5842E-2    0.1356   
    9.880       0.6006E-2    0.1368       0.4061E-2    0.1005       0.6006E-2    0.1368   
    9.900       0.6187E-2    0.1380       0.4170E-2    0.1013       0.6187E-2    0.1380   
    9.920       0.6387E-2    0.1392       0.4293E-2    0.1022       0.6387E-2    0.1392   
    9.940       0.6609E-2    0.1405       0.4434E-2    0.1030       0.6609E-2    0.1405   
    9.960       0.6856E-2    0.1418       0.4596E-2    0.1039       0.6856E-2    0.1418   
    9.980       0.7134E-2    0.1431       0.4783E-2    0.1048       0.7134E-2    0.1431   
    10.00       0.7447E-2    0.1445       0.5001E-2    0.1057       0.7447E-2    0.1445   
# 
# 04/10/2017 at 17:09 YAMBO_RT @ anomaly [start]
# 04/10/2017 at 17:09                    [end]
#  
# Timing   [Min/Max/Average]: 03s/03s/03s
#
# .-Input file : yambo.in
# | optics                       # [R OPT] Optics
# | bse                          # [R BSE] Bethe Salpeter Equation.
# | bsk                          # [R BSK] Bethe Salpeter Equation kernel
# | bss                          # [R BSS] Bethe Salpeter Equation solver
# | em1s                         # [R Xs] Static Inverse Dielectric Matrix
# | BoseTemp= 0.000000     eV    # Bosonic Temperature
# | FFTGvecs=  387         RL    # [FFT] Plane-waves
# | X_Threads= 1                 # [OPENMP/X] Number of threads for response functions
# | DIP_Threads= 1               # [OPENMP/X] Number of threads for dipoles
# | K_Threads= 1                 # [OPENMP/BSK] Number of threads for response functions
# | Chimod= "hartree"            # [X] IP/Hartree/ALDA/LRC/BSfxc
# | BSEmod= "retarded"           # [BSE] resonant/retarded/coupling
# | BSKmod= "SEX"                # [BSE] IP/Hartree/HF/ALDA/SEX/BSfxc
# | BSSmod= "h"                  # [BSS] (h)aydock/(d)iagonalization/(i)nversion/(t)ddft`
# | BSENGexx=  531         RL    # [BSK] Exchange components
# | BSENGBlk=  59          RL    # [BSK] Screened interaction block size
# | #WehCpl                      # [BSK] eh interaction included also in coupling
# | KfnQPdb= "E < 08_cohsex_eq/ndb.QP" # [EXTQP BSK BSS] Database
# | % BEnRange
# |   0.00000 | 10.00000 | eV    # [BSS] Energy range
# | %
# | % BDmRange
# |   0.10000 |  0.10000 | eV    # [BSS] Damping range
# | %
# | BEnSteps=  500               # [BSS] Energy steps
# | % BLongDir
# | 0.1000E-4 | 0.000    | 0.000    |        # [BSS] [cc] Electric Field
# | %
# | % BSEBands
# |   2 |  7 |                   # [BSK] Bands range
# | %
# | BSHayTrs=  0.02000           # [BSS] Relative [o/o] Haydock treshold. Strict(>0)/Average(<0)
# | % BndsRnXs
# |   1 |  8 |                   # [Xs] Polarization function bands
# | %
# | NGsBlkXs=  59          RL    # [Xs] Response block size
# | GrFnTpXs= "R"                # [Xs] Green`s function (T)ordered,(R)etarded,(r)senant,(a)ntiresonant [T, R, r, Ta, Ra]
# | % DmRngeXs
# |   0.10000 |  0.10000 | eV    # [Xs] Damping range
# | %
# | % LongDrXs
# | 0.1000E-4 | 0.000    | 0.000    |        # [Xs] [cc] Electric Field
# | %
