#                                                           
# :::   :::   :::     ::::    ::::  :::::::::   ::::::::    
# :+:   :+: :+: :+:   +:+:+: :+:+:+ :+:    :+: :+:    :+:   
#  +:+ +:+ +:+   +:+  +:+ +:+:+ +:+ +:+    +:+ +:+    +:+   
#   +#++: +#++:++#++: +#+  +:+  +#+ +#++:++#+  +#+    +:+   
#    +#+  +#+     +#+ +#+       +#+ +#+    +#+ +#+    +#+   
#    #+#  #+#     #+# #+#       #+# #+#    #+# #+#    #+#   
#    ###  ###     ### ###       ### #########   ########    
#                                                           
#                                                           
#        Version 4.2.0 Revision 14428 Hash 698a636          
#                  MPI+SLK+OpenMP Build                     
#                http://www.yambo-code.org                  
#
# EELS @ Q(1)  [q->0 direction]:0.1000E-4  0.000     0.000   
#
#
# - Energies      are GoWo Plasmon Pole appox.
# - Wavefunctions are Slater exchange(X)+Perdew & Zunger(C)
#
# - The Green`s function is Retarded -
# - Using the Length Gauge -
# - [r,Vnl] *is* included -
#
#   BSK|Identifier              :6425
#      |Dimension               :72
#      |Bands                   :2 - 7
#      |Exchange           [res]: yes
#      |Correlation        [res]: yes
#      |Kernel`s coupling       : no
#      |Exchange           [cpl]: no
#      |Correlation        [cpl]: no
#      |W interaction is bare   : no
#      |ALDA kernel in R-space  : no
#      |RL vectors    [exchange]:531
#      |RL vectors [correlation]:59
#      |E/h energy range    [ev]:-1.000000 - -1.000000
#      |Coupling range     [o/o]: 100.0000 -  100.0000
#    W |Interaction is diagonal : no
#      |Matrix size             :59
#      |Bands                   :1 - 8
#      |e/h energy range    [ev]:-1.000000 - -1.000000
#      |Poles              [o/o]: 100.0000
#      |RL vectors in the sum   :387
#      |[r,Vnl] included        : yes
#      |Field direction         :0.1000E-4  0.000000  0.000000
#      |Coulomb Cutoff          :none
#      |xc-Kernel               :none
#   RIM|RL components      [col]:0
#      |Random points      [col]:0
#  
#   Haydock|Accuracy (requested) [o/o]:  0.02000
#          |Accuracy (reached)   [o/o]:  0.01165
#          |Iteration                 :20
#
#    E/ev[1]      EEL-Im[2]    EEL-Re[3]    EELo-Im[4]   EELo-Re[5]   EEL`-Im[6]   EEL`-Re[7]
#
     0.00000     -0.00000     -0.01951     -0.00000     -0.02124     -0.00000     -0.01951
   0.2004E-1    0.7556E-5    -.1951E-1    0.6879E-5    -.2124E-1    0.7556E-5    -.1951E-1
   0.4008E-1    0.1511E-4    -.1951E-1    0.1376E-4    -.2124E-1    0.1511E-4    -.1951E-1
   0.6012E-1    0.2267E-4    -.1950E-1    0.2064E-4    -.2124E-1    0.2267E-4    -.1950E-1
   0.8016E-1    0.3023E-4    -.1950E-1    0.2752E-4    -.2123E-1    0.3023E-4    -.1950E-1
   0.1002       0.3779E-4    -.1949E-1    0.3440E-4    -.2123E-1    0.3779E-4    -.1949E-1
   0.1202       0.4535E-4    -.1948E-1    0.4128E-4    -.2122E-1    0.4535E-4    -.1948E-1
   0.1403       0.5291E-4    -.1947E-1    0.4817E-4    -.2121E-1    0.5291E-4    -.1947E-1
   0.1603       0.6048E-4    -.1946E-1    0.5506E-4    -.2120E-1    0.6048E-4    -.1946E-1
   0.1804       0.6805E-4    -.1945E-1    0.6195E-4    -.2119E-1    0.6805E-4    -.1945E-1
   0.2004       0.7562E-4    -.1943E-1    0.6884E-4    -.2118E-1    0.7562E-4    -.1943E-1
   0.2204       0.8320E-4    -.1942E-1    0.7574E-4    -.2116E-1    0.8320E-4    -.1942E-1
   0.2405       0.9078E-4    -.1940E-1    0.8264E-4    -.2115E-1    0.9078E-4    -.1940E-1
   0.2605       0.9836E-4    -.1938E-1    0.8954E-4    -.2113E-1    0.9836E-4    -.1938E-1
   0.2806       0.1059E-3    -.1936E-1    0.9645E-4    -.2111E-1    0.1059E-3    -.1936E-1
   0.3006       0.1135E-3    -.1934E-1    0.1034E-3    -.2109E-1    0.1135E-3    -.1934E-1
   0.3206       0.1211E-3    -.1932E-1    0.1103E-3    -.2107E-1    0.1211E-3    -.1932E-1
   0.3407       0.1287E-3    -.1929E-1    0.1172E-3    -.2105E-1    0.1287E-3    -.1929E-1
   0.3607       0.1364E-3    -.1926E-1    0.1241E-3    -.2102E-1    0.1364E-3    -.1926E-1
   0.3808       0.1440E-3    -.1924E-1    0.1311E-3    -.2100E-1    0.1440E-3    -.1924E-1
   0.4008       0.1516E-3    -.1921E-1    0.1380E-3    -.2097E-1    0.1516E-3    -.1921E-1
   0.4208       0.1592E-3    -.1918E-1    0.1450E-3    -.2094E-1    0.1592E-3    -.1918E-1
   0.4409       0.1669E-3    -.1914E-1    0.1519E-3    -.2091E-1    0.1669E-3    -.1914E-1
   0.4609       0.1745E-3    -.1911E-1    0.1589E-3    -.2088E-1    0.1745E-3    -.1911E-1
   0.4810       0.1822E-3    -.1907E-1    0.1659E-3    -.2085E-1    0.1822E-3    -.1907E-1
   0.5010       0.1899E-3    -.1904E-1    0.1728E-3    -.2081E-1    0.1899E-3    -.1904E-1
   0.5210       0.1975E-3    -.1900E-1    0.1798E-3    -.2078E-1    0.1975E-3    -.1900E-1
   0.5411       0.2052E-3    -.1896E-1    0.1868E-3    -.2074E-1    0.2052E-3    -.1896E-1
   0.5611       0.2129E-3    -.1892E-1    0.1939E-3    -.2070E-1    0.2129E-3    -.1892E-1
   0.5812       0.2206E-3    -.1887E-1    0.2009E-3    -.2066E-1    0.2206E-3    -.1887E-1
   0.6012       0.2283E-3    -.1883E-1    0.2079E-3    -.2062E-1    0.2283E-3    -.1883E-1
   0.6212       0.2361E-3    -.1878E-1    0.2149E-3    -.2058E-1    0.2361E-3    -.1878E-1
   0.6413       0.2438E-3    -.1873E-1    0.2220E-3    -.2054E-1    0.2438E-3    -.1873E-1
   0.6613       0.2516E-3    -.1868E-1    0.2291E-3    -.2049E-1    0.2516E-3    -.1868E-1
   0.6814       0.2594E-3    -.1863E-1    0.2362E-3    -.2044E-1    0.2594E-3    -.1863E-1
   0.7014       0.2671E-3    -.1858E-1    0.2432E-3    -.2040E-1    0.2671E-3    -.1858E-1
   0.7214       0.2749E-3    -.1852E-1    0.2504E-3    -.2035E-1    0.2749E-3    -.1852E-1
   0.7415       0.2828E-3    -.1847E-1    0.2575E-3    -.2030E-1    0.2828E-3    -.1847E-1
   0.7615       0.2906E-3    -.1841E-1    0.2646E-3    -.2024E-1    0.2906E-3    -.1841E-1
   0.7816       0.2984E-3    -.1835E-1    0.2718E-3    -.2019E-1    0.2984E-3    -.1835E-1
   0.8016       0.3063E-3    -.1829E-1    0.2789E-3    -.2013E-1    0.3063E-3    -.1829E-1
   0.8216       0.3142E-3    -.1823E-1    0.2861E-3    -.2008E-1    0.3142E-3    -.1823E-1
   0.8417       0.3221E-3    -.1817E-1    0.2933E-3    -.2002E-1    0.3221E-3    -.1817E-1
   0.8617       0.3300E-3    -.1810E-1    0.3005E-3    -.1996E-1    0.3300E-3    -.1810E-1
   0.8818       0.3379E-3    -.1803E-1    0.3078E-3    -.1990E-1    0.3379E-3    -.1803E-1
   0.9018       0.3459E-3    -.1797E-1    0.3150E-3    -.1984E-1    0.3459E-3    -.1797E-1
   0.9218       0.3539E-3    -.1789E-1    0.3223E-3    -.1977E-1    0.3539E-3    -.1789E-1
   0.9419       0.3619E-3    -.1782E-1    0.3296E-3    -.1971E-1    0.3619E-3    -.1782E-1
   0.9619       0.3699E-3    -.1775E-1    0.3369E-3    -.1964E-1    0.3699E-3    -.1775E-1
   0.9820       0.3780E-3    -.1768E-1    0.3443E-3    -.1957E-1    0.3780E-3    -.1768E-1
    1.002       0.3860E-3    -.1760E-1    0.3517E-3    -.1950E-1    0.3860E-3    -.1760E-1
    1.022       0.3942E-3    -.1752E-1    0.3590E-3    -.1943E-1    0.3942E-3    -.1752E-1
    1.042       0.4023E-3    -.1744E-1    0.3665E-3    -.1936E-1    0.4023E-3    -.1744E-1
    1.062       0.4104E-3    -.1736E-1    0.3739E-3    -.1929E-1    0.4104E-3    -.1736E-1
    1.082       0.4186E-3    -.1728E-1    0.3814E-3    -.1921E-1    0.4186E-3    -.1728E-1
    1.102       0.4268E-3    -.1719E-1    0.3889E-3    -.1913E-1    0.4268E-3    -.1719E-1
    1.122       0.4351E-3    -.1711E-1    0.3964E-3    -.1905E-1    0.4351E-3    -.1711E-1
    1.142       0.4433E-3    -.1702E-1    0.4040E-3    -.1897E-1    0.4433E-3    -.1702E-1
    1.162       0.4516E-3    -.1693E-1    0.4115E-3    -.1889E-1    0.4516E-3    -.1693E-1
    1.182       0.4600E-3    -.1684E-1    0.4192E-3    -.1881E-1    0.4600E-3    -.1684E-1
    1.202       0.4684E-3    -.1674E-1    0.4268E-3    -.1872E-1    0.4684E-3    -.1674E-1
    1.222       0.4768E-3    -.1665E-1    0.4345E-3    -.1864E-1    0.4768E-3    -.1665E-1
    1.242       0.4852E-3    -.1655E-1    0.4422E-3    -.1855E-1    0.4852E-3    -.1655E-1
    1.263       0.4937E-3    -.1645E-1    0.4500E-3    -.1846E-1    0.4937E-3    -.1645E-1
    1.283       0.5022E-3    -.1635E-1    0.4578E-3    -.1837E-1    0.5022E-3    -.1635E-1
    1.303       0.5108E-3    -.1625E-1    0.4657E-3    -.1828E-1    0.5108E-3    -.1625E-1
    1.323       0.5194E-3    -.1615E-1    0.4736E-3    -.1818E-1    0.5194E-3    -.1615E-1
    1.343       0.5281E-3    -.1605E-1    0.4815E-3    -.1809E-1    0.5281E-3    -.1605E-1
    1.363       0.5368E-3    -.1594E-1    0.4895E-3    -.1799E-1    0.5368E-3    -.1594E-1
    1.383       0.5455E-3    -.1583E-1    0.4975E-3    -.1789E-1    0.5455E-3    -.1583E-1
    1.403       0.5543E-3    -.1572E-1    0.5056E-3    -.1779E-1    0.5543E-3    -.1572E-1
    1.423       0.5632E-3    -.1561E-1    0.5137E-3    -.1769E-1    0.5632E-3    -.1561E-1
    1.443       0.5721E-3    -.1549E-1    0.5219E-3    -.1759E-1    0.5721E-3    -.1549E-1
    1.463       0.5811E-3    -.1538E-1    0.5301E-3    -.1748E-1    0.5811E-3    -.1538E-1
    1.483       0.5901E-3    -.1526E-1    0.5384E-3    -.1737E-1    0.5901E-3    -.1526E-1
    1.503       0.5992E-3    -.1514E-1    0.5468E-3    -.1727E-1    0.5992E-3    -.1514E-1
    1.523       0.6084E-3    -.1502E-1    0.5552E-3    -.1715E-1    0.6084E-3    -.1502E-1
    1.543       0.6176E-3    -.1490E-1    0.5637E-3    -.1704E-1    0.6176E-3    -.1490E-1
    1.563       0.6269E-3    -.1477E-1    0.5723E-3    -.1693E-1    0.6269E-3    -.1477E-1
    1.583       0.6363E-3    -.1465E-1    0.5809E-3    -.1681E-1    0.6363E-3    -.1465E-1
    1.603       0.6457E-3    -.1452E-1    0.5897E-3    -.1670E-1    0.6457E-3    -.1452E-1
    1.623       0.6553E-3    -.1439E-1    0.5985E-3    -.1658E-1    0.6553E-3    -.1439E-1
    1.643       0.6649E-3    -.1426E-1    0.6073E-3    -.1646E-1    0.6649E-3    -.1426E-1
    1.663       0.6746E-3    -.1412E-1    0.6163E-3    -.1633E-1    0.6746E-3    -.1412E-1
    1.683       0.6844E-3    -.1399E-1    0.6254E-3    -.1621E-1    0.6844E-3    -.1399E-1
    1.703       0.6943E-3    -.1385E-1    0.6346E-3    -.1608E-1    0.6943E-3    -.1385E-1
    1.723       0.7043E-3    -.1371E-1    0.6439E-3    -.1596E-1    0.7043E-3    -.1371E-1
    1.743       0.7144E-3    -.1357E-1    0.6532E-3    -.1583E-1    0.7144E-3    -.1357E-1
    1.764       0.7247E-3    -.1342E-1    0.6627E-3    -.1569E-1    0.7247E-3    -.1342E-1
    1.784       0.7350E-3    -.1328E-1    0.6724E-3    -.1556E-1    0.7350E-3    -.1328E-1
    1.804       0.7455E-3    -.1313E-1    0.6821E-3    -.1543E-1    0.7455E-3    -.1313E-1
    1.824       0.7561E-3    -.1298E-1    0.6920E-3    -.1529E-1    0.7561E-3    -.1298E-1
    1.844       0.7669E-3    -.1283E-1    0.7021E-3    -.1515E-1    0.7669E-3    -.1283E-1
    1.864       0.7778E-3    -.1267E-1    0.7123E-3    -.1501E-1    0.7778E-3    -.1267E-1
    1.884       0.7888E-3    -.1252E-1    0.7226E-3    -.1486E-1    0.7888E-3    -.1252E-1
    1.904       0.8001E-3    -.1236E-1    0.7331E-3    -.1472E-1    0.8001E-3    -.1236E-1
    1.924       0.8115E-3    -.1220E-1    0.7438E-3    -.1457E-1    0.8115E-3    -.1220E-1
    1.944       0.8231E-3    -.1203E-1    0.7548E-3    -.1442E-1    0.8231E-3    -.1203E-1
    1.964       0.8349E-3    -.1187E-1    0.7659E-3    -.1427E-1    0.8349E-3    -.1187E-1
    1.984       0.8470E-3    -.1170E-1    0.7772E-3    -.1411E-1    0.8470E-3    -.1170E-1
    2.004       0.8592E-3    -.1153E-1    0.7888E-3    -.1396E-1    0.8592E-3    -.1153E-1
    2.024       0.8717E-3    -.1135E-1    0.8006E-3    -.1380E-1    0.8717E-3    -.1135E-1
    2.044       0.8845E-3    -.1118E-1    0.8127E-3    -.1364E-1    0.8845E-3    -.1118E-1
    2.064       0.8976E-3    -.1100E-1    0.8251E-3    -.1347E-1    0.8976E-3    -.1100E-1
    2.084       0.9110E-3    -.1082E-1    0.8379E-3    -.1331E-1    0.9110E-3    -.1082E-1
    2.104       0.9247E-3    -.1064E-1    0.8509E-3    -.1314E-1    0.9247E-3    -.1064E-1
    2.124       0.9388E-3    -.1045E-1    0.8644E-3    -.1297E-1    0.9388E-3    -.1045E-1
    2.144       0.9532E-3    -.1026E-1    0.8782E-3    -.1279E-1    0.9532E-3    -.1026E-1
    2.164       0.9681E-3    -.1007E-1    0.8925E-3    -.1262E-1    0.9681E-3    -.1007E-1
    2.184       0.9835E-3    -.9876E-2    0.9072E-3    -.1244E-1    0.9835E-3    -.9876E-2
    2.204       0.9994E-3    -.9678E-2    0.9225E-3    -.1226E-1    0.9994E-3    -.9678E-2
    2.224       0.1016E-2    -.9477E-2    0.9383E-3    -.1207E-1    0.1016E-2    -.9477E-2
    2.244       0.1033E-2    -.9273E-2    0.9547E-3    -.1188E-1    0.1033E-2    -.9273E-2
    2.265       0.1051E-2    -.9065E-2    0.9719E-3    -.1169E-1    0.1051E-2    -.9065E-2
    2.285       0.1069E-2    -.8854E-2    0.9897E-3    -.1150E-1    0.1069E-2    -.8854E-2
    2.305       0.1088E-2    -.8639E-2    0.1008E-2    -.1130E-1    0.1088E-2    -.8639E-2
    2.325       0.1108E-2    -.8421E-2    0.1028E-2    -.1109E-1    0.1108E-2    -.8421E-2
    2.345       0.1130E-2    -.8199E-2    0.1049E-2    -.1089E-1    0.1130E-2    -.8199E-2
    2.365       0.1152E-2    -.7972E-2    0.1070E-2    -.1068E-1    0.1152E-2    -.7972E-2
    2.385       0.1176E-2    -.7741E-2    0.1094E-2    -.1046E-1    0.1176E-2    -.7741E-2
    2.405       0.1201E-2    -.7506E-2    0.1118E-2    -.1024E-1    0.1201E-2    -.7506E-2
    2.425       0.1228E-2    -.7266E-2    0.1144E-2    -.1002E-1    0.1228E-2    -.7266E-2
    2.445       0.1257E-2    -.7021E-2    0.1172E-2    -.9792E-2    0.1257E-2    -.7021E-2
    2.465       0.1288E-2    -.6770E-2    0.1202E-2    -.9558E-2    0.1288E-2    -.6770E-2
    2.485       0.1321E-2    -.6514E-2    0.1235E-2    -.9319E-2    0.1321E-2    -.6514E-2
    2.505       0.1358E-2    -.6251E-2    0.1271E-2    -.9073E-2    0.1358E-2    -.6251E-2
    2.525       0.1398E-2    -.5982E-2    0.1309E-2    -.8821E-2    0.1398E-2    -.5982E-2
    2.545       0.1443E-2    -.5706E-2    0.1352E-2    -.8562E-2    0.1443E-2    -.5706E-2
    2.565       0.1493E-2    -.5422E-2    0.1399E-2    -.8296E-2    0.1493E-2    -.5422E-2
    2.585       0.1549E-2    -.5131E-2    0.1452E-2    -.8021E-2    0.1549E-2    -.5131E-2
    2.605       0.1612E-2    -.4831E-2    0.1511E-2    -.7738E-2    0.1612E-2    -.4831E-2
    2.625       0.1685E-2    -.4521E-2    0.1579E-2    -.7445E-2    0.1685E-2    -.4521E-2
    2.645       0.1770E-2    -.4203E-2    0.1656E-2    -.7142E-2    0.1770E-2    -.4203E-2
    2.665       0.1869E-2    -.3874E-2    0.1746E-2    -.6829E-2    0.1869E-2    -.3874E-2
    2.685       0.1987E-2    -.3537E-2    0.1850E-2    -.6504E-2    0.1987E-2    -.3537E-2
    2.705       0.2128E-2    -.3193E-2    0.1974E-2    -.6169E-2    0.2128E-2    -.3193E-2
    2.725       0.2297E-2    -.2845E-2    0.2122E-2    -.5823E-2    0.2298E-2    -.2845E-2
    2.745       0.2501E-2    -.2500E-2    0.2300E-2    -.5470E-2    0.2502E-2    -.2500E-2
    2.766       0.2742E-2    -.2168E-2    0.2516E-2    -.5115E-2    0.2745E-2    -.2169E-2
    2.786       0.3021E-2    -.1861E-2    0.2776E-2    -.4767E-2    0.3024E-2    -.1865E-2
    2.806       0.3334E-2    -.1592E-2    0.3083E-2    -.4443E-2    0.3333E-2    -.1602E-2
    2.826       0.3673E-2    -.1378E-2    0.3431E-2    -.4161E-2    0.3661E-2    -.1389E-2
    2.846       0.4019E-2    -.1235E-2    0.3800E-2    -.3936E-2    0.3995E-2    -.1236E-2
    2.866       0.4335E-2    -.1175E-2    0.4162E-2    -.3763E-2    0.4311E-2    -.1153E-2
    2.886       0.4568E-2    -.1173E-2    0.4505E-2    -.3613E-2    0.4565E-2    -.1132E-2
    2.906       0.4693E-2    -.1161E-2    0.4854E-2    -.3463E-2    0.4724E-2    -.1124E-2
    2.926       0.4751E-2    -.1066E-2    0.5249E-2    -.3325E-2    0.4802E-2    -.1056E-2
    2.946       0.4820E-2    -.8652E-3    0.5706E-2    -.3255E-2    0.4870E-2    -.8892E-3
    2.966       0.4976E-2    -.5889E-3    0.6184E-2    -.3312E-2    0.5005E-2    -.6382E-3
    2.986       0.5264E-2    -.3036E-3    0.6597E-2    -.3508E-2    0.5262E-2    -.3628E-3
    3.006       0.5694E-2    -.9503E-4    0.6872E-2    -.3775E-2    0.5661E-2    -.1474E-3
    3.026       0.6234E-2    -.6158E-4    0.7028E-2    -.4012E-2    0.6175E-2    -.9074E-4
    3.046       0.6780E-2    -.2901E-3    0.7155E-2    -.4188E-2    0.6712E-2    -.2837E-3
    3.066       0.7161E-2    -.7954E-3    0.7325E-2    -.4368E-2    0.7107E-2    -.7530E-3
    3.086       0.7208E-2    -.1457E-2    0.7514E-2    -.4659E-2    0.7186E-2    -.1395E-2
    3.106       0.6875E-2    -.2052E-2    0.7598E-2    -.5116E-2    0.6888E-2    -.1994E-2
    3.126       0.6282E-2    -.2399E-2    0.7431E-2    -.5663E-2    0.6316E-2    -.2360E-2
    3.146       0.5604E-2    -.2450E-2    0.6973E-2    -.6123E-2    0.5645E-2    -.2432E-2
    3.166       0.4971E-2    -.2258E-2    0.6322E-2    -.6350E-2    0.5009E-2    -.2257E-2
    3.186       0.4438E-2    -.1905E-2    0.5626E-2    -.6310E-2    0.4469E-2    -.1915E-2
    3.206       0.4015E-2    -.1457E-2    0.4994E-2    -.6056E-2    0.4038E-2    -.1474E-2
    3.226       0.3690E-2    -.9595E-3    0.4469E-2    -.5661E-2    0.3705E-2    -.9792E-3
    3.246       0.3445E-2    -.4372E-3    0.4055E-2    -.5185E-2    0.3454E-2    -.4585E-3
    3.267       0.3264E-2    0.9568E-4    0.3739E-2    -.4666E-2    0.3268E-2    0.7393E-4
    3.287       0.3135E-2    0.6323E-3    0.3504E-2    -.4127E-2    0.3134E-2    0.6110E-3
    3.307       0.3048E-2    0.1170E-2    0.3334E-2    -.3580E-2    0.3041E-2    0.1150E-2
    3.327       0.2995E-2    0.1708E-2    0.3218E-2    -.3028E-2    0.2983E-2    0.1690E-2
    3.347       0.2970E-2    0.2246E-2    0.3146E-2    -.2475E-2    0.2954E-2    0.2232E-2
    3.367       0.2970E-2    0.2786E-2    0.3112E-2    -.1918E-2    0.2950E-2    0.2778E-2
    3.387       0.2990E-2    0.3331E-2    0.3111E-2    -.1357E-2    0.2969E-2    0.3329E-2
    3.407       0.3031E-2    0.3884E-2    0.3143E-2    -.7898E-3    0.3011E-2    0.3887E-2
    3.427       0.3091E-2    0.4447E-2    0.3205E-2    -.2130E-3    0.3074E-2    0.4456E-2
    3.447       0.3174E-2    0.5025E-2    0.3301E-2    0.3761E-3    0.3160E-2    0.5037E-2
    3.467       0.3282E-2    0.5620E-2    0.3431E-2    0.9804E-3    0.3271E-2    0.5634E-2
    3.487       0.3417E-2    0.6233E-2    0.3600E-2    0.1603E-2    0.3410E-2    0.6248E-2
    3.507       0.3585E-2    0.6867E-2    0.3816E-2    0.2247E-2    0.3581E-2    0.6883E-2
    3.527       0.3790E-2    0.7526E-2    0.4087E-2    0.2916E-2    0.3789E-2    0.7542E-2
      3.5471       0.0040       0.0082       0.0044       0.0036       0.0040       0.0082
      3.5671       0.0043       0.0089       0.0049       0.0043       0.0044       0.0089
      3.5872       0.0047       0.0097       0.0054       0.0051       0.0047       0.0097
      3.6072       0.0052       0.0104       0.0061       0.0058       0.0052       0.0105
      3.6273       0.0058       0.0113       0.0069       0.0066       0.0058       0.0113
      3.6473       0.0065       0.0121       0.0080       0.0073       0.0065       0.0121
      3.6673       0.0074       0.0129       0.0094       0.0078       0.0074       0.0129
      3.6874       0.0086       0.0137       0.0111       0.0081       0.0086       0.0137
      3.7074       0.0100       0.0143       0.0131       0.0079       0.0101       0.0143
      3.7275       0.0119       0.0147       0.0152       0.0070       0.0119       0.0146
      3.7475       0.0140       0.0145       0.0171       0.0052       0.0140       0.0145
    3.768       0.1629E-1    0.1364E-1    0.1816E-1    0.2584E-2    0.1633E-1    0.1357E-1
    3.788       0.1835E-1    0.1178E-1    0.1800E-1    -.2984E-3    0.1836E-1    0.1168E-1
    3.808       0.1958E-1    0.9052E-2    0.1669E-1    -.2723E-2    0.1954E-1    0.8943E-2
      3.8277       0.0195       0.0060       0.0147      -0.0043       0.0194       0.0059
    3.848       0.1822E-1    0.3395E-2    0.1266E-1    -.4912E-2    0.1809E-1    0.3373E-2
    3.868       0.1619E-1    0.1724E-2    0.1080E-1    -.4899E-2    0.1607E-1    0.1763E-2
    3.888       0.1402E-1    0.1011E-2    0.9263E-2    -.4473E-2    0.1393E-1    0.1096E-2
    3.908       0.1206E-1    0.1018E-2    0.8047E-2    -.3821E-2    0.1202E-1    0.1128E-2
    3.928       0.1046E-1    0.1470E-2    0.7110E-2    -.3063E-2    0.1047E-1    0.1583E-2
    3.948       0.9214E-2    0.2152E-2    0.6401E-2    -.2271E-2    0.9267E-2    0.2247E-2
    3.968       0.8269E-2    0.2922E-2    0.5873E-2    -.1488E-2    0.8355E-2    0.2981E-2
    3.988       0.7550E-2    0.3691E-2    0.5483E-2    -.7415E-3    0.7645E-2    0.3703E-2
    4.008       0.6974E-2    0.4422E-2    0.5189E-2    -.4896E-4    0.7052E-2    0.4390E-2
    4.028       0.6472E-2    0.5120E-2    0.4949E-2    0.5869E-3    0.6516E-2    0.5065E-2
    4.048       0.6011E-2    0.5816E-2    0.4726E-2    0.1183E-2    0.6022E-2    0.5763E-2
    4.068       0.5590E-2    0.6538E-2    0.4502E-2    0.1770E-2    0.5581E-2    0.6498E-2
    4.088       0.5223E-2    0.7292E-2    0.4286E-2    0.2374E-2    0.5207E-2    0.7267E-2
    4.108       0.4919E-2    0.8069E-2    0.4091E-2    0.3002E-2    0.4902E-2    0.8055E-2
    4.128       0.4675E-2    0.8857E-2    0.3931E-2    0.3650E-2    0.4661E-2    0.8850E-2
    4.148       0.4487E-2    0.9647E-2    0.3807E-2    0.4311E-2    0.4475E-2    0.9644E-2
    4.168       0.4344E-2    0.1043E-1    0.3717E-2    0.4979E-2    0.4335E-2    0.1043E-1
    4.188       0.4241E-2    0.1122E-1    0.3659E-2    0.5651E-2    0.4234E-2    0.1122E-1
    4.208       0.4171E-2    0.1200E-1    0.3629E-2    0.6327E-2    0.4166E-2    0.1200E-1
    4.228       0.4129E-2    0.1278E-1    0.3623E-2    0.7007E-2    0.4125E-2    0.1278E-1
    4.248       0.4113E-2    0.1356E-1    0.3640E-2    0.7693E-2    0.4110E-2    0.1357E-1
    4.269       0.4118E-2    0.1435E-1    0.3680E-2    0.8387E-2    0.4116E-2    0.1435E-1
    4.289       0.4145E-2    0.1514E-1    0.3740E-2    0.9092E-2    0.4143E-2    0.1514E-1
    4.309       0.4191E-2    0.1594E-1    0.3823E-2    0.9810E-2    0.4190E-2    0.1594E-1
    4.329       0.4257E-2    0.1675E-1    0.3928E-2    0.1054E-1    0.4256E-2    0.1676E-1
    4.349       0.4342E-2    0.1758E-1    0.4057E-2    0.1130E-1    0.4341E-2    0.1758E-1
    4.369       0.4447E-2    0.1843E-1    0.4214E-2    0.1207E-1    0.4447E-2    0.1843E-1
      4.3888       0.0046       0.0193       0.0044       0.0129       0.0046       0.0193
      4.4088       0.0047       0.0202       0.0046       0.0137       0.0047       0.0202
      4.4289       0.0049       0.0211       0.0049       0.0146       0.0049       0.0211
      4.4489       0.0051       0.0220       0.0052       0.0155       0.0051       0.0220
      4.4689       0.0053       0.0230       0.0056       0.0165       0.0053       0.0230
      4.4890       0.0056       0.0241       0.0060       0.0175       0.0056       0.0241
      4.5090       0.0059       0.0251       0.0065       0.0185       0.0059       0.0251
      4.5291       0.0063       0.0263       0.0072       0.0197       0.0063       0.0263
      4.5491       0.0067       0.0274       0.0080       0.0209       0.0067       0.0274
      4.5691       0.0072       0.0287       0.0089       0.0221       0.0072       0.0287
      4.5892       0.0077       0.0300       0.0101       0.0235       0.0077       0.0300
      4.6092       0.0084       0.0314       0.0116       0.0249       0.0084       0.0314
      4.6293       0.0092       0.0329       0.0134       0.0263       0.0092       0.0329
     4.64930      0.01014      0.03456      0.01573      0.02771      0.01014      0.03456
     4.66934      0.01127      0.03628      0.01868      0.02893      0.01128      0.03628
     4.68938      0.01264      0.03813      0.02239      0.02976      0.01264      0.03813
     4.70942      0.01432      0.04010      0.02695      0.02980      0.01432      0.04010
     4.72946      0.01639      0.04219      0.03225      0.02850      0.01639      0.04219
     4.74950      0.01896      0.04437      0.03778      0.02516      0.01896      0.04438
     4.76954      0.02220      0.04660      0.04241      0.01940      0.02220      0.04660
     4.78958      0.02629      0.04874      0.04467      0.01169      0.02629      0.04874
    4.810       0.3147E-1    0.5057E-1    0.4363E-1    0.3608E-2    0.3147E-1    0.5057E-1
    4.830       0.3796E-1    0.5168E-1    0.3974E-1    -.3025E-2    0.3797E-1    0.5168E-1
      4.8497       0.0459       0.0514       0.0344      -0.0073       0.0459       0.0514
      4.8697       0.0551       0.0486       0.0289      -0.0093       0.0551       0.0486
      4.8898       0.0645       0.0423       0.0240      -0.0097       0.0645       0.0423
      4.9098       0.0722       0.0319       0.0200      -0.0091       0.0722       0.0319
      4.9299       0.0756       0.0183       0.0168      -0.0080       0.0756       0.0182
    4.950       0.7327E-1    0.4307E-2    0.1423E-1    -.6650E-2    0.7325E-1    0.4304E-2
      4.9699       0.0663      -0.0069       0.0122      -0.0052       0.0663      -0.0069
    4.990       0.5701E-1    -.1403E-1    0.1061E-1    -.3810E-2    0.5700E-1    -.1402E-1
    5.010       0.4769E-1    -.1737E-1    0.9331E-2    -.2442E-2    0.4769E-1    -.1736E-1
    5.030       0.3948E-1    -.1807E-1    0.8296E-2    -.1141E-2    0.3949E-1    -.1806E-1
    5.050       0.3272E-1    -.1718E-1    0.7452E-2    0.8724E-4    0.3272E-1    -.1718E-1
    5.070       0.2730E-1    -.1546E-1    0.6758E-2    0.1243E-2    0.2731E-1    -.1546E-1
    5.090       0.2302E-1    -.1336E-1    0.6180E-2    0.2332E-2    0.2302E-1    -.1337E-1
    5.110       0.1963E-1    -.1114E-1    0.5696E-2    0.3358E-2    0.1963E-1    -.1115E-1
    5.130       0.1693E-1    -.8939E-2    0.5286E-2    0.4328E-2    0.1693E-1    -.8940E-2
    5.150       0.1477E-1    -.6818E-2    0.4938E-2    0.5248E-2    0.1477E-1    -.6819E-2
    5.170       0.1302E-1    -.4812E-2    0.4639E-2    0.6123E-2    0.1302E-1    -.4813E-2
    5.190       0.1160E-1    -.2930E-2    0.4382E-2    0.6958E-2    0.1160E-1    -.2930E-2
    5.210       0.1042E-1    -.1170E-2    0.4159E-2    0.7757E-2    0.1042E-1    -.1170E-2
    5.230       0.9444E-2    0.4751E-3    0.3965E-2    0.8523E-2    0.9444E-2    0.4750E-3
    5.251       0.8624E-2    0.2014E-2    0.3795E-2    0.9261E-2    0.8624E-2    0.2014E-2
    5.271       0.7931E-2    0.3458E-2    0.3645E-2    0.9972E-2    0.7931E-2    0.3458E-2
    5.291       0.7340E-2    0.4814E-2    0.3513E-2    0.1066E-1    0.7340E-2    0.4814E-2
    5.311       0.6834E-2    0.6094E-2    0.3396E-2    0.1133E-1    0.6834E-2    0.6094E-2
    5.331       0.6397E-2    0.7304E-2    0.3293E-2    0.1198E-1    0.6397E-2    0.7304E-2
    5.351       0.6018E-2    0.8453E-2    0.3200E-2    0.1261E-1    0.6018E-2    0.8453E-2
    5.371       0.5688E-2    0.9546E-2    0.3117E-2    0.1323E-1    0.5688E-2    0.9546E-2
    5.391       0.5398E-2    0.1059E-1    0.3043E-2    0.1383E-1    0.5398E-2    0.1059E-1
    5.411       0.5142E-2    0.1159E-1    0.2976E-2    0.1442E-1    0.5142E-2    0.1159E-1
    5.431       0.4916E-2    0.1255E-1    0.2916E-2    0.1500E-1    0.4916E-2    0.1255E-1
    5.451       0.4715E-2    0.1347E-1    0.2861E-2    0.1557E-1    0.4715E-2    0.1347E-1
    5.471       0.4536E-2    0.1436E-1    0.2812E-2    0.1613E-1    0.4536E-2    0.1436E-1
    5.491       0.4376E-2    0.1523E-1    0.2768E-2    0.1668E-1    0.4376E-2    0.1523E-1
    5.511       0.4233E-2    0.1606E-1    0.2728E-2    0.1722E-1    0.4233E-2    0.1606E-1
    5.531       0.4104E-2    0.1687E-1    0.2691E-2    0.1776E-1    0.4104E-2    0.1687E-1
    5.551       0.3987E-2    0.1766E-1    0.2658E-2    0.1829E-1    0.3987E-2    0.1766E-1
    5.571       0.3882E-2    0.1843E-1    0.2628E-2    0.1882E-1    0.3882E-2    0.1843E-1
    5.591       0.3787E-2    0.1919E-1    0.2601E-2    0.1934E-1    0.3787E-2    0.1919E-1
    5.611       0.3701E-2    0.1992E-1    0.2576E-2    0.1985E-1    0.3701E-2    0.1992E-1
    5.631       0.3622E-2    0.2064E-1    0.2553E-2    0.2036E-1    0.3622E-2    0.2064E-1
    5.651       0.3550E-2    0.2135E-1    0.2533E-2    0.2087E-1    0.3550E-2    0.2135E-1
    5.671       0.3485E-2    0.2204E-1    0.2514E-2    0.2137E-1    0.3485E-2    0.2204E-1
    5.691       0.3425E-2    0.2273E-1    0.2497E-2    0.2187E-1    0.3425E-2    0.2273E-1
    5.711       0.3371E-2    0.2340E-1    0.2482E-2    0.2237E-1    0.3371E-2    0.2340E-1
    5.731       0.3321E-2    0.2406E-1    0.2468E-2    0.2286E-1    0.3321E-2    0.2406E-1
    5.752       0.3275E-2    0.2472E-1    0.2456E-2    0.2335E-1    0.3275E-2    0.2472E-1
    5.772       0.3234E-2    0.2536E-1    0.2445E-2    0.2384E-1    0.3234E-2    0.2536E-1
    5.792       0.3195E-2    0.2600E-1    0.2434E-2    0.2433E-1    0.3195E-2    0.2600E-1
    5.812       0.3160E-2    0.2663E-1    0.2425E-2    0.2481E-1    0.3160E-2    0.2663E-1
    5.832       0.3128E-2    0.2726E-1    0.2417E-2    0.2530E-1    0.3128E-2    0.2726E-1
    5.852       0.3098E-2    0.2788E-1    0.2410E-2    0.2578E-1    0.3098E-2    0.2788E-1
    5.872       0.3071E-2    0.2849E-1    0.2404E-2    0.2626E-1    0.3071E-2    0.2849E-1
    5.892       0.3046E-2    0.2910E-1    0.2398E-2    0.2674E-1    0.3046E-2    0.2910E-1
    5.912       0.3023E-2    0.2971E-1    0.2394E-2    0.2722E-1    0.3023E-2    0.2971E-1
    5.932       0.3002E-2    0.3031E-1    0.2390E-2    0.2770E-1    0.3002E-2    0.3031E-1
    5.952       0.2983E-2    0.3090E-1    0.2386E-2    0.2817E-1    0.2983E-2    0.3090E-1
    5.972       0.2966E-2    0.3150E-1    0.2383E-2    0.2865E-1    0.2966E-2    0.3150E-1
    5.992       0.2950E-2    0.3209E-1    0.2381E-2    0.2913E-1    0.2950E-2    0.3209E-1
    6.012       0.2935E-2    0.3267E-1    0.2379E-2    0.2960E-1    0.2935E-2    0.3267E-1
    6.032       0.2922E-2    0.3326E-1    0.2378E-2    0.3008E-1    0.2922E-2    0.3326E-1
    6.052       0.2910E-2    0.3384E-1    0.2377E-2    0.3055E-1    0.2910E-2    0.3384E-1
    6.072       0.2899E-2    0.3442E-1    0.2377E-2    0.3103E-1    0.2899E-2    0.3442E-1
    6.092       0.2889E-2    0.3500E-1    0.2377E-2    0.3151E-1    0.2889E-2    0.3500E-1
    6.112       0.2880E-2    0.3558E-1    0.2378E-2    0.3198E-1    0.2880E-2    0.3558E-1
    6.132       0.2873E-2    0.3615E-1    0.2379E-2    0.3246E-1    0.2873E-2    0.3615E-1
    6.152       0.2866E-2    0.3672E-1    0.2380E-2    0.3293E-1    0.2866E-2    0.3672E-1
    6.172       0.2859E-2    0.3730E-1    0.2381E-2    0.3341E-1    0.2859E-2    0.3730E-1
    6.192       0.2854E-2    0.3787E-1    0.2383E-2    0.3389E-1    0.2854E-2    0.3787E-1
    6.212       0.2850E-2    0.3844E-1    0.2386E-2    0.3436E-1    0.2850E-2    0.3844E-1
    6.232       0.2846E-2    0.3901E-1    0.2388E-2    0.3484E-1    0.2846E-2    0.3901E-1
    6.253       0.2843E-2    0.3958E-1    0.2391E-2    0.3532E-1    0.2843E-2    0.3958E-1
    6.273       0.2840E-2    0.4014E-1    0.2394E-2    0.3580E-1    0.2840E-2    0.4014E-1
    6.293       0.2838E-2    0.4071E-1    0.2397E-2    0.3628E-1    0.2838E-2    0.4071E-1
    6.313       0.2836E-2    0.4128E-1    0.2401E-2    0.3676E-1    0.2836E-2    0.4128E-1
    6.333       0.2836E-2    0.4185E-1    0.2404E-2    0.3724E-1    0.2836E-2    0.4185E-1
    6.353       0.2835E-2    0.4242E-1    0.2408E-2    0.3772E-1    0.2835E-2    0.4242E-1
    6.373       0.2835E-2    0.4298E-1    0.2413E-2    0.3821E-1    0.2835E-2    0.4298E-1
    6.393       0.2836E-2    0.4355E-1    0.2417E-2    0.3869E-1    0.2836E-2    0.4355E-1
    6.413       0.2837E-2    0.4412E-1    0.2422E-2    0.3917E-1    0.2837E-2    0.4412E-1
    6.433       0.2838E-2    0.4469E-1    0.2426E-2    0.3966E-1    0.2838E-2    0.4469E-1
    6.453       0.2840E-2    0.4525E-1    0.2431E-2    0.4015E-1    0.2840E-2    0.4525E-1
    6.473       0.2842E-2    0.4582E-1    0.2436E-2    0.4063E-1    0.2842E-2    0.4582E-1
    6.493       0.2845E-2    0.4639E-1    0.2442E-2    0.4112E-1    0.2845E-2    0.4639E-1
    6.513       0.2847E-2    0.4696E-1    0.2447E-2    0.4161E-1    0.2847E-2    0.4696E-1
    6.533       0.2851E-2    0.4753E-1    0.2453E-2    0.4210E-1    0.2851E-2    0.4753E-1
    6.553       0.2854E-2    0.4810E-1    0.2458E-2    0.4259E-1    0.2854E-2    0.4810E-1
    6.573       0.2858E-2    0.4867E-1    0.2464E-2    0.4309E-1    0.2858E-2    0.4867E-1
    6.593       0.2862E-2    0.4925E-1    0.2470E-2    0.4358E-1    0.2862E-2    0.4925E-1
    6.613       0.2866E-2    0.4982E-1    0.2477E-2    0.4408E-1    0.2866E-2    0.4982E-1
    6.633       0.2871E-2    0.5040E-1    0.2483E-2    0.4457E-1    0.2871E-2    0.5040E-1
    6.653       0.2876E-2    0.5097E-1    0.2489E-2    0.4507E-1    0.2876E-2    0.5097E-1
    6.673       0.2881E-2    0.5155E-1    0.2496E-2    0.4557E-1    0.2881E-2    0.5155E-1
    6.693       0.2887E-2    0.5213E-1    0.2503E-2    0.4607E-1    0.2887E-2    0.5213E-1
    6.713       0.2892E-2    0.5270E-1    0.2509E-2    0.4657E-1    0.2892E-2    0.5270E-1
    6.733       0.2898E-2    0.5328E-1    0.2516E-2    0.4708E-1    0.2898E-2    0.5328E-1
    6.754       0.2904E-2    0.5386E-1    0.2523E-2    0.4758E-1    0.2904E-2    0.5386E-1
    6.774       0.2911E-2    0.5445E-1    0.2530E-2    0.4809E-1    0.2911E-2    0.5445E-1
    6.794       0.2917E-2    0.5503E-1    0.2538E-2    0.4859E-1    0.2917E-2    0.5503E-1
    6.814       0.2924E-2    0.5562E-1    0.2545E-2    0.4910E-1    0.2924E-2    0.5562E-1
    6.834       0.2931E-2    0.5620E-1    0.2552E-2    0.4961E-1    0.2931E-2    0.5620E-1
    6.854       0.2938E-2    0.5679E-1    0.2560E-2    0.5013E-1    0.2938E-2    0.5679E-1
    6.874       0.2946E-2    0.5738E-1    0.2568E-2    0.5064E-1    0.2946E-2    0.5738E-1
    6.894       0.2953E-2    0.5797E-1    0.2575E-2    0.5116E-1    0.2953E-2    0.5797E-1
    6.914       0.2961E-2    0.5856E-1    0.2583E-2    0.5167E-1    0.2961E-2    0.5856E-1
    6.934       0.2969E-2    0.5916E-1    0.2591E-2    0.5219E-1    0.2969E-2    0.5916E-1
    6.954       0.2977E-2    0.5975E-1    0.2599E-2    0.5271E-1    0.2977E-2    0.5975E-1
    6.974       0.2985E-2    0.6035E-1    0.2607E-2    0.5323E-1    0.2985E-2    0.6035E-1
    6.994       0.2994E-2    0.6095E-1    0.2615E-2    0.5375E-1    0.2994E-2    0.6095E-1
    7.014       0.3002E-2    0.6155E-1    0.2624E-2    0.5428E-1    0.3002E-2    0.6155E-1
    7.034       0.3011E-2    0.6215E-1    0.2632E-2    0.5481E-1    0.3011E-2    0.6215E-1
    7.054       0.3020E-2    0.6275E-1    0.2640E-2    0.5533E-1    0.3020E-2    0.6275E-1
    7.074       0.3029E-2    0.6336E-1    0.2649E-2    0.5586E-1    0.3029E-2    0.6336E-1
    7.094       0.3038E-2    0.6397E-1    0.2658E-2    0.5640E-1    0.3038E-2    0.6397E-1
    7.114       0.3047E-2    0.6458E-1    0.2666E-2    0.5693E-1    0.3047E-2    0.6458E-1
    7.134       0.3057E-2    0.6519E-1    0.2675E-2    0.5746E-1    0.3057E-2    0.6519E-1
    7.154       0.3067E-2    0.6580E-1    0.2684E-2    0.5800E-1    0.3067E-2    0.6580E-1
    7.174       0.3076E-2    0.6642E-1    0.2693E-2    0.5854E-1    0.3076E-2    0.6642E-1
    7.194       0.3086E-2    0.6703E-1    0.2702E-2    0.5908E-1    0.3086E-2    0.6703E-1
    7.214       0.3096E-2    0.6765E-1    0.2711E-2    0.5962E-1    0.3096E-2    0.6765E-1
    7.234       0.3107E-2    0.6827E-1    0.2720E-2    0.6017E-1    0.3107E-2    0.6827E-1
    7.255       0.3117E-2    0.6890E-1    0.2729E-2    0.6071E-1    0.3117E-2    0.6890E-1
    7.275       0.3128E-2    0.6952E-1    0.2739E-2    0.6126E-1    0.3128E-2    0.6952E-1
    7.295       0.3138E-2    0.7015E-1    0.2748E-2    0.6181E-1    0.3138E-2    0.7015E-1
    7.315       0.3149E-2    0.7078E-1    0.2758E-2    0.6236E-1    0.3149E-2    0.7078E-1
    7.335       0.3160E-2    0.7141E-1    0.2767E-2    0.6291E-1    0.3160E-2    0.7141E-1
    7.355       0.3171E-2    0.7205E-1    0.2777E-2    0.6347E-1    0.3171E-2    0.7205E-1
    7.375       0.3183E-2    0.7268E-1    0.2787E-2    0.6403E-1    0.3183E-2    0.7268E-1
    7.395       0.3194E-2    0.7332E-1    0.2796E-2    0.6459E-1    0.3194E-2    0.7332E-1
    7.415       0.3205E-2    0.7396E-1    0.2806E-2    0.6515E-1    0.3205E-2    0.7396E-1
    7.435       0.3217E-2    0.7461E-1    0.2816E-2    0.6571E-1    0.3217E-2    0.7461E-1
    7.455       0.3229E-2    0.7525E-1    0.2826E-2    0.6628E-1    0.3229E-2    0.7525E-1
    7.475       0.3241E-2    0.7590E-1    0.2836E-2    0.6684E-1    0.3241E-2    0.7590E-1
    7.495       0.3253E-2    0.7655E-1    0.2847E-2    0.6741E-1    0.3253E-2    0.7655E-1
    7.515       0.3265E-2    0.7720E-1    0.2857E-2    0.6798E-1    0.3265E-2    0.7720E-1
    7.535       0.3278E-2    0.7786E-1    0.2867E-2    0.6856E-1    0.3278E-2    0.7786E-1
    7.555       0.3290E-2    0.7852E-1    0.2878E-2    0.6913E-1    0.3290E-2    0.7852E-1
    7.575       0.3303E-2    0.7918E-1    0.2888E-2    0.6971E-1    0.3303E-2    0.7918E-1
    7.595       0.3316E-2    0.7984E-1    0.2899E-2    0.7029E-1    0.3316E-2    0.7984E-1
    7.615       0.3329E-2    0.8051E-1    0.2910E-2    0.7087E-1    0.3329E-2    0.8051E-1
    7.635       0.3342E-2    0.8117E-1    0.2921E-2    0.7146E-1    0.3342E-2    0.8117E-1
    7.655       0.3356E-2    0.8185E-1    0.2931E-2    0.7204E-1    0.3356E-2    0.8185E-1
    7.675       0.3369E-2    0.8252E-1    0.2942E-2    0.7263E-1    0.3369E-2    0.8252E-1
    7.695       0.3383E-2    0.8320E-1    0.2954E-2    0.7322E-1    0.3383E-2    0.8320E-1
    7.715       0.3397E-2    0.8387E-1    0.2965E-2    0.7381E-1    0.3397E-2    0.8387E-1
    7.735       0.3411E-2    0.8456E-1    0.2976E-2    0.7441E-1    0.3411E-2    0.8456E-1
    7.756       0.3425E-2    0.8524E-1    0.2987E-2    0.7501E-1    0.3425E-2    0.8524E-1
    7.776       0.3440E-2    0.8593E-1    0.2999E-2    0.7561E-1    0.3440E-2    0.8593E-1
    7.796       0.3454E-2    0.8662E-1    0.3011E-2    0.7621E-1    0.3454E-2    0.8662E-1
    7.816       0.3469E-2    0.8731E-1    0.3022E-2    0.7681E-1    0.3469E-2    0.8731E-1
    7.836       0.3484E-2    0.8801E-1    0.3034E-2    0.7742E-1    0.3484E-2    0.8801E-1
    7.856       0.3499E-2    0.8871E-1    0.3046E-2    0.7803E-1    0.3499E-2    0.8871E-1
    7.876       0.3515E-2    0.8941E-1    0.3058E-2    0.7864E-1    0.3515E-2    0.8941E-1
    7.896       0.3530E-2    0.9012E-1    0.3070E-2    0.7925E-1    0.3530E-2    0.9012E-1
    7.916       0.3546E-2    0.9082E-1    0.3082E-2    0.7987E-1    0.3546E-2    0.9082E-1
    7.936       0.3562E-2    0.9154E-1    0.3095E-2    0.8049E-1    0.3562E-2    0.9154E-1
    7.956       0.3578E-2    0.9225E-1    0.3107E-2    0.8111E-1    0.3578E-2    0.9225E-1
    7.976       0.3595E-2    0.9297E-1    0.3120E-2    0.8173E-1    0.3595E-2    0.9297E-1
    7.996       0.3612E-2    0.9369E-1    0.3133E-2    0.8236E-1    0.3612E-2    0.9369E-1
    8.016       0.3629E-2    0.9442E-1    0.3145E-2    0.8299E-1    0.3629E-2    0.9442E-1
    8.036       0.3646E-2    0.9514E-1    0.3158E-2    0.8362E-1    0.3646E-2    0.9514E-1
    8.056       0.3663E-2    0.9588E-1    0.3172E-2    0.8425E-1    0.3663E-2    0.9588E-1
    8.076       0.3681E-2    0.9661E-1    0.3185E-2    0.8489E-1    0.3681E-2    0.9661E-1
    8.096       0.3699E-2    0.9735E-1    0.3198E-2    0.8553E-1    0.3699E-2    0.9735E-1
    8.116       0.3718E-2    0.9809E-1    0.3212E-2    0.8617E-1    0.3718E-2    0.9809E-1
    8.136       0.3736E-2    0.9884E-1    0.3226E-2    0.8682E-1    0.3736E-2    0.9884E-1
    8.156       0.3755E-2    0.9959E-1    0.3240E-2    0.8746E-1    0.3755E-2    0.9959E-1
    8.176       0.3775E-2    0.1003       0.3254E-2    0.8812E-1    0.3775E-2    0.1003   
    8.196       0.3794E-2    0.1011       0.3268E-2    0.8877E-1    0.3794E-2    0.1011   
    8.216       0.3814E-2    0.1019       0.3283E-2    0.8942E-1    0.3814E-2    0.1019   
    8.236       0.3835E-2    0.1026       0.3298E-2    0.9008E-1    0.3835E-2    0.1026   
    8.257       0.3856E-2    0.1034       0.3313E-2    0.9075E-1    0.3856E-2    0.1034   
    8.277       0.3877E-2    0.1042       0.3328E-2    0.9141E-1    0.3877E-2    0.1042   
    8.297       0.3898E-2    0.1050       0.3343E-2    0.9208E-1    0.3898E-2    0.1050   
    8.317       0.3921E-2    0.1057       0.3359E-2    0.9275E-1    0.3921E-2    0.1057   
    8.337       0.3943E-2    0.1065       0.3375E-2    0.9342E-1    0.3943E-2    0.1065   
    8.357       0.3966E-2    0.1073       0.3391E-2    0.9410E-1    0.3966E-2    0.1073   
    8.377       0.3990E-2    0.1081       0.3407E-2    0.9478E-1    0.3990E-2    0.1081   
    8.397       0.4014E-2    0.1089       0.3424E-2    0.9547E-1    0.4014E-2    0.1089   
    8.417       0.4038E-2    0.1097       0.3441E-2    0.9615E-1    0.4038E-2    0.1097   
    8.437       0.4064E-2    0.1105       0.3458E-2    0.9684E-1    0.4064E-2    0.1105   
    8.457       0.4089E-2    0.1113       0.3476E-2    0.9754E-1    0.4089E-2    0.1113   
    8.477       0.4116E-2    0.1122       0.3494E-2    0.9824E-1    0.4116E-2    0.1122   
    8.497       0.4143E-2    0.1130       0.3513E-2    0.9894E-1    0.4143E-2    0.1130   
    8.517       0.4171E-2    0.1138       0.3531E-2    0.9964E-1    0.4171E-2    0.1138   
    8.537       0.4200E-2    0.1147       0.3551E-2    0.1004       0.4200E-2    0.1147   
    8.557       0.4229E-2    0.1155       0.3570E-2    0.1011       0.4229E-2    0.1155   
    8.577       0.4260E-2    0.1164       0.3591E-2    0.1018       0.4260E-2    0.1164   
    8.597       0.4291E-2    0.1172       0.3611E-2    0.1025       0.4291E-2    0.1172   
    8.617       0.4323E-2    0.1181       0.3633E-2    0.1032       0.4323E-2    0.1181   
    8.637       0.4357E-2    0.1189       0.3654E-2    0.1040       0.4357E-2    0.1189   
    8.657       0.4391E-2    0.1198       0.3677E-2    0.1047       0.4391E-2    0.1198   
    8.677       0.4427E-2    0.1207       0.3700E-2    0.1054       0.4427E-2    0.1207   
    8.697       0.4463E-2    0.1216       0.3724E-2    0.1062       0.4463E-2    0.1216   
    8.717       0.4502E-2    0.1225       0.3748E-2    0.1069       0.4502E-2    0.1225   
    8.737       0.4541E-2    0.1234       0.3774E-2    0.1077       0.4541E-2    0.1234   
    8.758       0.4582E-2    0.1243       0.3800E-2    0.1084       0.4582E-2    0.1243   
    8.778       0.4625E-2    0.1252       0.3827E-2    0.1092       0.4625E-2    0.1252   
    8.798       0.4670E-2    0.1261       0.3856E-2    0.1100       0.4670E-2    0.1261   
    8.818       0.4716E-2    0.1271       0.3885E-2    0.1107       0.4716E-2    0.1271   
    8.838       0.4765E-2    0.1280       0.3916E-2    0.1115       0.4765E-2    0.1280   
    8.858       0.4815E-2    0.1290       0.3948E-2    0.1123       0.4815E-2    0.1290   
    8.878       0.4868E-2    0.1299       0.3981E-2    0.1131       0.4868E-2    0.1299   
    8.898       0.4924E-2    0.1309       0.4016E-2    0.1139       0.4924E-2    0.1309   
    8.918       0.4983E-2    0.1319       0.4053E-2    0.1147       0.4983E-2    0.1319   
    8.938       0.5044E-2    0.1329       0.4092E-2    0.1155       0.5044E-2    0.1329   
    8.958       0.5109E-2    0.1339       0.4132E-2    0.1163       0.5109E-2    0.1339   
    8.978       0.5178E-2    0.1349       0.4175E-2    0.1172       0.5178E-2    0.1349   
    8.998       0.5250E-2    0.1360       0.4221E-2    0.1180       0.5250E-2    0.1360   
    9.018       0.5327E-2    0.1370       0.4269E-2    0.1188       0.5327E-2    0.1370   
    9.038       0.5408E-2    0.1381       0.4321E-2    0.1197       0.5408E-2    0.1381   
    9.058       0.5495E-2    0.1392       0.4375E-2    0.1206       0.5495E-2    0.1392   
    9.078       0.5588E-2    0.1403       0.4434E-2    0.1214       0.5588E-2    0.1403   
    9.098       0.5687E-2    0.1414       0.4497E-2    0.1223       0.5687E-2    0.1414   
    9.118       0.5793E-2    0.1425       0.4565E-2    0.1232       0.5793E-2    0.1425   
    9.138       0.5907E-2    0.1437       0.4639E-2    0.1241       0.5907E-2    0.1437   
    9.158       0.6030E-2    0.1449       0.4719E-2    0.1251       0.6030E-2    0.1449   
    9.178       0.6163E-2    0.1461       0.4805E-2    0.1260       0.6163E-2    0.1461   
    9.198       0.6306E-2    0.1473       0.4900E-2    0.1270       0.6306E-2    0.1473   
    9.218       0.6462E-2    0.1486       0.5005E-2    0.1279       0.6462E-2    0.1486   
    9.238       0.6633E-2    0.1499       0.5120E-2    0.1289       0.6633E-2    0.1499   
    9.259       0.6819E-2    0.1512       0.5248E-2    0.1299       0.6819E-2    0.1512   
    9.279       0.7023E-2    0.1525       0.5390E-2    0.1310       0.7023E-2    0.1525   
    9.299       0.7248E-2    0.1539       0.5549E-2    0.1320       0.7248E-2    0.1539   
    9.319       0.7497E-2    0.1553       0.5728E-2    0.1331       0.7497E-2    0.1553   
    9.339       0.7774E-2    0.1568       0.5931E-2    0.1343       0.7774E-2    0.1568   
    9.359       0.8082E-2    0.1584       0.6162E-2    0.1354       0.8082E-2    0.1584   
    9.379       0.8428E-2    0.1599       0.6428E-2    0.1366       0.8428E-2    0.1599   
    9.399       0.8817E-2    0.1616       0.6735E-2    0.1378       0.8817E-2    0.1616   
    9.419       0.9258E-2    0.1633       0.7093E-2    0.1391       0.9258E-2    0.1633   
    9.439       0.9760E-2    0.1651       0.7514E-2    0.1404       0.9760E-2    0.1651   
    9.459       0.1034E-1    0.1669       0.8012E-2    0.1418       0.1034E-1    0.1669   
    9.479       0.1100E-1    0.1689       0.8608E-2    0.1433       0.1100E-1    0.1689   
    9.499       0.1177E-1    0.1710       0.9328E-2    0.1448       0.1177E-1    0.1710   
     9.51904      0.01267      0.17313      0.01021      0.14635      0.01267      0.17313
     9.53908      0.01373      0.17543      0.01129      0.14799      0.01373      0.17543
     9.55912      0.01500      0.17787      0.01264      0.14966      0.01500      0.17787
     9.57916      0.01651      0.18046      0.01433      0.15135      0.01651      0.18046
     9.59920      0.01835      0.18320      0.01647      0.15298      0.01835      0.18320
     9.61924      0.02060      0.18610      0.01917      0.15442      0.02060      0.18610
     9.63928      0.02338      0.18914      0.02255      0.15544      0.02338      0.18914
     9.65932      0.02685      0.19229      0.02663      0.15567      0.02685      0.19229
     9.67936      0.03121      0.19544      0.03124      0.15457      0.03121      0.19544
     9.69940      0.03673      0.19841      0.03578      0.15160      0.03673      0.19841
     9.71944      0.04369      0.20085      0.03915      0.14662      0.04369      0.20085
     9.73948      0.05236      0.20212      0.04017      0.14037      0.05236      0.20212
     9.75952      0.06276      0.20125      0.03842      0.13435      0.06276      0.20125
     9.77956      0.07433      0.19689      0.03460      0.12992      0.07434      0.19690
     9.79960      0.08544      0.18782      0.02998      0.12755      0.08545      0.18782
     9.81964      0.09331      0.17390      0.02551      0.12691      0.09332      0.17389
     9.83968      0.09521      0.15720      0.02165      0.12743      0.09520      0.15720
     9.85972      0.09041      0.14141      0.01851      0.12863      0.09041      0.14140
     9.87976      0.08080      0.12959      0.01601      0.13018      0.08080      0.12960
     9.89980      0.06931      0.12274      0.01404      0.13188      0.06930      0.12274
     9.91984      0.05820      0.12008      0.01248      0.13362      0.05820      0.12009
     9.93988      0.04858      0.12029      0.01124      0.13534      0.04858      0.12029
     9.95992      0.04072      0.12218      0.01025      0.13702      0.04072      0.12218
    9.980       0.3445E-1    0.1249       0.9447E-2    0.1386       0.3445E-1    0.1249   
    10.00       0.2950E-1    0.1281       0.8793E-2    0.1402       0.2950E-1    0.1281   
# 
# 04/10/2017 at 17:09 YAMBO_RT @ anomaly [start]
# 04/10/2017 at 17:09                    [end]
#  
# Timing   [Min/Max/Average]: 02s/02s/02s
#
# .-Input file : yambo.in
# | optics                       # [R OPT] Optics
# | bse                          # [R BSE] Bethe Salpeter Equation.
# | bsk                          # [R BSK] Bethe Salpeter Equation kernel
# | bss                          # [R BSS] Bethe Salpeter Equation solver
# | em1s                         # [R Xs] Static Inverse Dielectric Matrix
# | BoseTemp= 0.000000     eV    # Bosonic Temperature
# | FFTGvecs=  387         RL    # [FFT] Plane-waves
# | X_Threads= 1                 # [OPENMP/X] Number of threads for response functions
# | DIP_Threads= 1               # [OPENMP/X] Number of threads for dipoles
# | K_Threads= 1                 # [OPENMP/BSK] Number of threads for response functions
# | Chimod= "hartree"            # [X] IP/Hartree/ALDA/LRC/BSfxc
# | BSEmod= "retarded"           # [BSE] resonant/retarded/coupling
# | BSKmod= "SEX"                # [BSE] IP/Hartree/HF/ALDA/SEX/BSfxc
# | BSSmod= "h"                  # [BSS] (h)aydock/(d)iagonalization/(i)nversion/(t)ddft`
# | BSENGexx=  531         RL    # [BSK] Exchange components
# | BSENGBlk=  59          RL    # [BSK] Screened interaction block size
# | #WehCpl                      # [BSK] eh interaction included also in coupling
# | KfnQPdb= "E < 08_ypp_gw_10fs_Xonly/ndb.QP" # [EXTQP BSK BSS] Database
# | % BEnRange
# |   0.00000 | 10.00000 | eV    # [BSS] Energy range
# | %
# | % BDmRange
# |   0.10000 |  0.10000 | eV    # [BSS] Damping range
# | %
# | BEnSteps=  500               # [BSS] Energy steps
# | % BLongDir
# | 0.1000E-4 | 0.000    | 0.000    |        # [BSS] [cc] Electric Field
# | %
# | % BSEBands
# |   2 |  7 |                   # [BSK] Bands range
# | %
# | BSHayTrs=  0.02000           # [BSS] Relative [o/o] Haydock treshold. Strict(>0)/Average(<0)
# | XfnRTdb= "f @ 0.1 ps < 04_elel+elph_0K/ndb.RT_carriers" # [EXTRT Xd] Database
# | % BndsRnXs
# |   1 |  8 |                   # [Xs] Polarization function bands
# | %
# | NGsBlkXs=  59          RL    # [Xs] Response block size
# | GrFnTpXs= "R"                # [Xs] Green`s function (T)ordered,(R)etarded,(r)senant,(a)ntiresonant [T, R, r, Ta, Ra]
# | % DmRngeXs
# |   0.10000 |  0.10000 | eV    # [Xs] Damping range
# | %
# | % LongDrXs
# | 0.1000E-4 | 0.000    | 0.000    |        # [Xs] [cc] Electric Field
# | %
