#                                                           
#                                                           
# Y88b    /   e           e    e      888~~\    ,88~-_      
#  Y88b  /   d8b         d8b  d8b     888   |  d888   \     
#   Y88b/   /Y88b       d888bdY88b    888 _/  88888    |    
#    Y8Y   /  Y88b     / Y88Y Y888b   888  \  88888    |    
#     Y   /____Y88b   /   YY   Y888b  888   |  Y888   /     
#    /   /      Y88b /          Y888b 888__/    `88_-~      
#                                                           
#                                                           
#       Version 4.2.0 Revision 14544 Hash 1911cc9           
#                     MPI+SLK Build                         
#               http://www.yambo-code.org                   
#
# Absorption @ Q(1) [q->0 direction] :0.1000E-4  0.000     0.000   
#
#
# - Energies      are  E < 08_ypp_gw_10fs_Gonly/ndb.QP_merged_1_gw_ppa + Fitted E
# - Wavefunctions are Slater exchange(X)+Perdew & Zunger(C)
#
# - The Green`s function is Retarded -
# - Using the Length Gauge -
# - [r,Vnl] *is* included -
#
#   BSK|Identifier              :4298
#      |Dimension               :100
#      |Bands                   :2 - 7
#      |Exchange           [res]: yes
#      |Correlation        [res]: yes
#      |Kernel`s coupling       : no
#      |Exchange           [cpl]: no
#      |Correlation        [cpl]: no
#      |W interaction is bare   : no
#      |ALDA kernel in R-space  : no
#      |RL vectors    [exchange]:531
#      |RL vectors [correlation]:59
#      |E/h energy range    [ev]:-1.000000 - -1.000000
#      |Coupling range     [o/o]: 100.0000 -  100.0000
#    W |Interaction is diagonal : no
#      |Matrix size             :59
#      |Bands                   :1 - 8
#      |e/h energy range    [ev]:-1.000000 - -1.000000
#      |Poles              [o/o]: 100.0000
#      |RL vectors in the sum   :387
#      |[r,Vnl] included        : yes
#      |Field direction         :0.1000E-4  0.000000  0.000000
#      |Coulomb Cutoff          :none
#      |xc-Kernel               :none
#   RIM|RL components      [col]:0
#      |Random points      [col]:0
#  
#   Haydock|Accuracy (requested) [o/o]:  0.02000
#          |Accuracy (reached)   [o/o]:  0.01084
#          |Iteration                 :28
#
#    E/ev[1]      EPS-Im[2]    EPS-Re[3]    EPSo-Im[4]   EPSo-Re[5]   EPS`-Im[6]   EPS`-Re[7]
#
     0.00000      0.00000     47.94530      0.00000     42.60194      0.00000     47.94530
   0.2004E-1    0.3911E-1     47.95       0.2767E-1     42.60       0.3911E-1     47.95   
   0.4008E-1    0.7826E-1     47.96       0.5537E-1     42.61       0.7826E-1     47.96   
     0.06012      0.11750     47.98027      0.08311     42.62674      0.11750     47.98027
     0.08016      0.15686     48.00751      0.11093     42.64603      0.15686     48.00751
     0.10020      0.19640     48.04259      0.13885     42.67088      0.19640     48.04259
     0.12024      0.23614     48.08553      0.16690     42.70127      0.23614     48.08553
     0.14028      0.27614     48.13639      0.19509     42.73727      0.27614     48.13639
     0.16032      0.31644     48.19522      0.22346     42.77889      0.31644     48.19522
     0.18036      0.35709     48.26208      0.25204     42.82618      0.35709     48.26208
     0.20040      0.39813     48.33706      0.28084     42.87915      0.39813     48.33706
     0.22044      0.43962     48.42022      0.30991     42.93788      0.43962     48.42022
     0.24048      0.48158     48.51166      0.33925     43.00243      0.48158     48.51166
     0.26052      0.52409     48.61147      0.36892     43.07284      0.52409     48.61147
     0.28056      0.56719     48.71978      0.39892     43.14916      0.56719     48.71978
     0.30060      0.61094     48.83670      0.42931     43.23149      0.61094     48.83670
     0.32064      0.65538     48.96235      0.46009     43.31990      0.65538     48.96235
     0.34068      0.70058     49.09689      0.49132     43.41446      0.70058     49.09689
     0.36072      0.74659     49.24047      0.52302     43.51528      0.74659     49.24047
     0.38076      0.79349     49.39325      0.55522     43.62244      0.79349     49.39325
     0.40080      0.84133     49.55541      0.58797     43.73603      0.84133     49.55541
     0.42084      0.89018     49.72713      0.62130     43.85618      0.89018     49.72713
     0.44088      0.94011     49.90864      0.65524     43.98302      0.94011     49.90864
     0.46092      0.99120     50.10013      0.68985     44.11665      0.99120     50.10013
     0.48096      1.04353     50.30185      0.72517     44.25721      1.04353     50.30185
     0.50100      1.09718     50.51405      0.76123     44.40483      1.09718     50.51405
     0.52104      1.15223     50.73699      0.79808     44.55970      1.15223     50.73699
     0.54108      1.20878     50.97095      0.83578     44.72194      1.20878     50.97095
     0.56112      1.26693     51.21623      0.87438     44.89175      1.26693     51.21623
     0.58116      1.32679     51.47316      0.91393     45.06928      1.32679     51.47316
     0.60120      1.38845     51.74207      0.95448     45.25474      1.38845     51.74207
     0.62124      1.45204     52.02332      0.99611     45.44833      1.45204     52.02332
     0.64128      1.51768     52.31731      1.03886     45.65026      1.51768     52.31731
     0.66132      1.58550     52.62444      1.08282     45.86077      1.58550     52.62444
     0.68136      1.65565     52.94514      1.12805     46.08009      1.65565     52.94514
     0.70140      1.72827     53.27989      1.17463     46.30847      1.72827     53.27989
     0.72144      1.80354     53.62917      1.22264     46.54619      1.80354     53.62917
     0.74148      1.88161     53.99352      1.27216     46.79354      1.88161     53.99352
     0.76152      1.96268     54.37347      1.32330     47.05080      1.96268     54.37347
     0.78156      2.04694     54.76965      1.37613     47.31832      2.04694     54.76965
     0.80160      2.13462     55.18267      1.43078     47.59641      2.13462     55.18267
     0.82164      2.22594     55.61323      1.48735     47.88547      2.22594     55.61323
     0.84168      2.32115     56.06203      1.54596     48.18586      2.32115     56.06203
     0.86172      2.42052     56.52985      1.60673     48.49797      2.42052     56.52985
     0.88176      2.52435     57.01752      1.66981     48.82225      2.52435     57.01752
     0.90180      2.63295     57.52591      1.73535     49.15917      2.63295     57.52591
     0.92184      2.74665     58.05596      1.80349     49.50919      2.74665     58.05596
     0.94188      2.86585     58.60868      1.87441     49.87287      2.86585     58.60868
     0.96192      2.99094     59.18517      1.94830     50.25072      2.99094     59.18517
     0.98196      3.12236     59.78656      2.02535     50.64335      3.12236     59.78656
     1.00200      3.26060     60.41412      2.10577     51.05138      3.26060     60.41412
     1.02204      3.40619     61.06916      2.18981     51.47545      3.40619     61.06916
     1.04208      3.55970     61.75314      2.27771     51.91633      3.55970     61.75314
     1.06212      3.72178     62.46759      2.36974     52.37475      3.72178     62.46759
     1.08216      3.89313     63.21420      2.46620     52.85154      3.89313     63.21420
     1.10220      4.07451     63.99476      2.56741     53.34753      4.07451     63.99476
     1.12224      4.26678     64.81123      2.67374     53.86370      4.26678     64.81123
     1.14228      4.47088     65.66570      2.78555     54.40103      4.47088     65.66570
     1.16232      4.68786     66.56047      2.90329     54.96062      4.68786     66.56047
     1.18236      4.91888     67.49802      3.02740     55.54361      4.91888     67.49802
     1.20240      5.16523     68.48107      3.15841     56.15124      5.16523     68.48107
     1.22244      5.42836     69.51252      3.29686     56.78489      5.42836     69.51252
     1.24248      5.70988     70.59558      3.44338     57.44595      5.70988     70.59558
     1.26252      6.01161     71.73377      3.59865     58.13601      6.01161     71.73377
     1.28257      6.33560     72.93091      3.76342     58.85681      6.33560     72.93091
     1.30261      6.68414     74.19118      3.93854     59.61011      6.68414     74.19118
     1.32265      7.05984     75.51920      4.12494     60.39796      7.05984     75.51920
     1.34269      7.46565     76.92004      4.32365     61.22250      7.46565     76.92004
     1.36273      7.90496     78.39927      4.53584     62.08608      7.90496     78.39927
     1.38277      8.38161     79.96309      4.76282     62.99128      8.38161     79.96309
     1.40281      8.90001     81.61831      5.00605     63.94092      8.90001     81.61831
     1.42285      9.46525     83.37254      5.26717     64.93806      9.46525     83.37254
     1.44289     10.08319     85.23417      5.54804     65.98607     10.08318     85.23418
     1.46293     10.76065     87.21262      5.85079     67.08865     10.76064     87.21263
     1.48297     11.50556     89.31837      6.17780     68.24985     11.50555     89.31837
     1.50301     12.32723     91.56315      6.53182     69.47421     12.32721     91.56316
     1.52305     13.23656     93.96007      6.91597     70.76665     13.23654     93.96009
     1.54309     14.24651     96.52396      7.33387     72.13268     14.24649     96.52399
     1.56313     15.37240     99.27137      7.78964     73.57841     15.37237     99.27143
      1.5832      16.6326     102.2211       8.2881      75.1106      16.6326     102.2212
      1.6032      18.0490     105.3941       8.8349      76.7369      18.0490     105.3943
      1.6232      19.6483     108.8144       9.4364      78.4657      19.6483     108.8146
      1.6433      21.4624     112.5087      10.1004      80.3064      21.4626     112.5090
      1.6633      23.5305     116.5078      10.8359      82.2698      23.5309     116.5082
      1.6834      25.9007     120.8470      11.6537      84.3677      25.9015     120.8472
      1.7034      28.6337     125.5663      12.5664      86.6138      28.6347     125.5661
      1.7234      31.8063     130.7108      13.5894      89.0232      31.8073     130.7100
      1.7435      35.5164     136.3297      14.7412      91.6131      35.5171     136.3285
      1.7635      39.8888     142.4759      16.0442      94.4031      39.8891     142.4743
      1.7836      45.0846     149.2043      17.5260      97.4151      45.0845     149.2025
      1.8036      51.3136     156.5684      19.2204     100.6743      51.3128     156.5664
      1.8236      58.8515     164.6118      21.1694     104.2086      58.8500     164.6098
      1.8437      68.0636     173.3530      23.4258     108.0495      68.0613     173.3510
      1.8637      79.4329     182.7567      26.0562     112.2319      79.4296     182.7550
      1.8838      93.5971     192.6855      29.1452     116.7937      93.5925     192.6844
      1.9038     111.3893     202.8138      32.8022     121.7750     111.3832     202.8139
      1.9238     133.8715     212.4738      37.1684     127.2157     133.8635     212.4760
      1.9439     162.3082     220.3929      42.4291     133.1508     162.2987     220.3989
      1.9639     197.9704     224.2897      48.8283     139.6018     197.9604     224.3022
      1.9840     241.5282     220.3761      56.6896     146.5600     241.5213     220.3981
      2.0040     291.6874     203.1227      66.4423     153.9571     291.6923     203.1555
      2.0240     343.0076     166.3251      78.6521     161.6108     343.0369     166.3626
      2.0441     384.4143     106.9391      94.0491     169.1292     384.4767     106.9587
      2.0641     402.2998      30.7509     113.5285     175.7469     402.3784      30.7207
      2.0842     389.5221     -46.7900     138.0599     180.0627     389.5680     -46.8778
      2.1042     351.6032    -109.4786     168.3664     179.6812     351.5761    -109.5801
      2.1242     301.7084    -150.0777     204.1301     170.9184     301.6243    -150.1323
      2.1443     251.3990    -170.6085     242.5369     149.1440     251.3130    -170.5979
      2.1643     206.8177    -176.8870     276.7484     110.8516     206.7678    -176.8397
      2.1844     169.8264    -174.4597     296.6959      57.7494     169.8134    -174.4099
      2.2044     140.1020    -167.3165     294.6066      -0.6662     140.1100    -167.2799
      2.2244     116.5270    -157.9707     271.4084     -51.4521     116.5425    -157.9485
      2.2445      97.8674    -147.8793     235.8883     -86.4862      97.8833    -147.8677
      2.2645      83.0374    -137.8318     197.7854    -105.3648      83.0511    -137.8268
      2.2846      71.1636    -128.2238     163.1278    -112.0720      71.1746    -128.2224
      2.3046      61.5725    -119.2301     134.1298    -111.1481      61.5811    -119.2308
      2.3246      53.7533    -110.9060     110.8251    -106.0292      53.7599    -110.9076
      2.3447      47.3203    -103.2439      92.4038     -98.8942      47.3254    -103.2460
     2.36473     41.98182    -96.20612     77.89725    -90.99889     41.98574    -96.20846
     2.38477     37.51599    -89.74184     66.44048    -83.02016     37.51902    -89.74417
     2.40481     33.75283    -83.79646     57.33773    -75.29840     33.75521    -83.79874
     2.42485     30.56106    -78.31640     50.05360    -67.98634     30.56293    -78.31857
     2.44489     27.83849    -73.25148     44.18375    -61.13506     27.83997    -73.25353
     2.46493     25.50491    -68.55561     39.42473    -54.74239     25.50609    -68.55758
     2.48497     23.49692    -64.18718     35.54866    -48.77932     23.49785    -64.18905
     2.50501     21.76415    -60.10885     32.38418    -43.20506     21.76489    -60.11064
     2.52505     20.26638    -56.28713     29.80206    -37.97434     20.26695    -56.28884
     2.54509     18.97139    -52.69199     27.70481    -33.04152     18.97182    -52.69365
     2.56513     17.85342    -49.29649     26.01928    -28.36253     17.85374    -49.29810
     2.58517     16.89198    -46.07619     24.69130    -23.89550     16.89219    -46.07778
     2.60521     16.07090    -43.00887     23.68207    -19.60099     16.07101    -43.01044
     2.62525     15.37779    -40.07418     22.96563    -15.44175     15.37781    -40.07573
     2.64529     14.80354    -37.25324     22.52740    -11.38235     14.80346    -37.25480
     2.66533     14.34205    -34.52837     22.36351     -7.38895     14.34189    -34.52994
     2.68537     13.99019    -31.88285     22.48100     -3.42902     13.98992    -31.88446
     2.70541     13.74774    -29.30060     22.89873      0.52884     13.74737    -29.30225
     2.72545     13.61772    -26.76608     23.64933      4.51423     13.61723    -26.76777
     2.74549     13.60675    -24.26410     24.78232      8.55416     13.60612    -24.26585
     2.76553     13.72578    -21.77975     26.36863     12.67051     13.72498    -21.78159
     2.78557     13.99106    -19.29860     28.50707     16.87542     13.99005    -19.30054
     2.80561     14.42565    -16.80695     31.33295     21.16260     14.42438    -16.80899
     2.82565     15.06146    -14.29276     35.02867     25.49129     15.05988    -14.29491
     2.84569     15.94215    -11.74727     39.83472     29.75765     15.94017    -11.74952
     2.86573     17.12690     -9.16831     46.05497     33.74481     17.12440     -9.17064
     2.88577     18.69547     -6.56605     54.03900     37.04030     18.69227     -6.56844
     2.90581     20.75376     -3.97379     64.10268     38.91500     20.74970     -3.97611
     2.92585     23.43885     -1.46684     76.30863     38.19284     23.43363     -1.46892
     2.94589     26.91753      0.80510     90.01608     33.25665     26.91089      0.80365
      2.9659      31.3663       2.5669     103.2671      22.5377      31.3580       2.5667
      2.9860      36.9032       3.3505     112.6393       5.8136      36.8932       3.3527
      3.0060      43.4260       2.4478     114.6644     -14.3938      43.4149       2.4538
      3.0261      50.3297      -0.9970     108.4275     -33.4214      50.3193      -0.9858
     3.04609     56.24752     -7.54967     96.39335    -47.39511     56.24107     -7.53313
     3.06613     59.29953    -16.70901     82.30338    -55.24786     59.30036    -16.68965
     3.08617     58.21267    -26.55636     68.91309    -58.07306     58.22147    -26.53876
     3.10621     53.40112    -34.73729     57.45746    -57.57418     53.41520    -34.72525
     3.12625     46.59042    -39.94738     48.15551    -55.17321     46.60609    -39.94165
     3.14629     39.51295    -42.27043     40.77718    -51.81468     39.52757    -42.26979
     3.16633     33.17160    -42.48781     34.97067    -48.05701     33.18389    -42.49049
     3.18637     27.89977    -41.41677     30.40083    -44.20643     27.90969    -41.42129
     3.20641     23.67039    -39.65523     26.79117    -40.41969     23.67819    -39.66068
     3.22645     20.32463    -37.57558     23.92680    -36.76892     20.33070    -37.58140
     3.24649     17.68481    -35.38953     21.64508    -33.28009     17.68952    -35.39543
     3.26653     15.59555    -33.20952     19.82424    -29.95442     15.59919    -33.21535
     3.28657     13.93298    -31.09064     18.37344    -26.78055     13.93577    -31.09636
     3.30661     12.60219    -29.05614     17.22506    -23.74099     12.60430    -29.06171
     3.32665     11.53172    -27.11214     16.32894    -20.81564     11.53328    -27.11760
     3.34669     10.66802    -25.25566     15.64812    -17.98346     10.66910    -25.26103
     3.36673      9.97102    -23.47937     15.15598    -15.22355      9.97168    -23.48466
     3.38677      9.41070    -21.77383     14.83405    -12.51527      9.41099    -21.77910
     3.40681      8.96459    -20.12892     14.67067     -9.83835      8.96453    -20.13421
     3.42685      8.61594    -18.53439     14.66009     -7.17276      8.61552    -18.53972
     3.44689      8.35239    -16.98020     14.80201     -4.49844      8.35163    -16.98563
     3.46693      8.16510    -15.45659     15.10153     -1.79513      8.16396    -15.46215
     3.48697      8.04805    -13.95409     15.56949      0.95794      8.04650    -13.95983
     3.50701      7.99764    -12.46339     16.22309      3.78223      7.99562    -12.46936
     3.52705      8.01242    -10.97530     17.08720      6.70005      8.00986    -10.98155
     3.54709      8.09296     -9.48055     18.19601      9.73454      8.08975     -9.48713
     3.56713      8.24188     -7.96970     19.59571     12.90924      8.23787     -7.97668
     3.58717      8.46395     -6.43300     21.34800     16.24724      8.45897     -6.44043
     3.60721      8.76639     -4.86020     23.53520     19.76918      8.76018     -4.86815
     3.62725      9.15929     -3.24052     26.26715     23.48939      9.15152     -3.24902
     3.64729      9.65622     -1.56251     29.69050     27.40852      9.64647     -1.57157
     3.66733     10.27523      0.18612     34.00108     31.50061     10.26287      0.17652
     3.68737     11.03995      2.01810     39.45802     35.68848     11.02417      2.00811
     3.70741     11.98146      3.94650     46.39748     39.80118     11.96115      3.93648
     3.72745     13.14062      5.98398     55.23494     43.50023     13.11429      5.97461
     3.74749     14.57140      8.14119     66.42887     46.16048     14.53703      8.13383
     3.76753     16.34529     10.42402     80.34384     46.70367     16.30029     10.42119
     3.78758     18.55708     12.82822     96.90209     43.44889     18.49835     12.83451
      3.8076      21.3320      15.3299     114.9244      34.2254      21.2566      15.3535
      3.8277      24.8334      17.8685     131.3776      17.2484      24.7405      17.9234
      3.8477      29.2666      20.3183     141.5729      -7.0075      29.1629      20.4267
      3.8677      34.8728      22.4423     141.5650     -34.3926      34.7830      22.6339
      3.8878      41.8920      23.8273     131.3185     -58.7711      41.8772      24.1265
      3.9078      50.4711      23.8097     114.7388     -75.9424      50.6385      24.1941
     3.92786     60.47462     21.42614     96.52493    -85.38199     60.93561     21.75878
     3.94790     71.15804     15.49063     79.73975    -88.85569     71.88843     15.50442
     3.96794     80.77165      5.04410     65.58499    -88.53764     81.46660      4.51963
     3.98798     86.62448     -9.61744     54.14890    -86.11911     86.82964    -10.53963
     4.00802     86.41109    -26.07724     45.06937    -82.68771     85.96977    -26.88693
     4.02806     80.09310    -40.71101     37.88673    -78.87569     79.33920    -41.00628
     4.04810     69.98727    -51.00400     32.18297    -75.02647     69.36420    -50.82710
     4.06814     58.91101    -56.63354     27.61917    -71.31482     58.59510    -56.26854
     4.08818     48.70900    -58.66079     23.93307    -67.82071     48.63684    -58.32438
     4.10822     40.10623    -58.39772     20.92614    -64.57335     40.15709    -58.16286
     4.12826     33.15495    -56.86657     18.44867    -61.57491     33.24517    -56.72531
     4.14830     27.63494    -54.72512     16.38765    -58.81425     27.72489    -54.64849
     4.16834     23.26712    -52.35578     14.65732    -56.27426     23.34321    -52.31842
     4.18838     19.79762    -49.96612     13.19205    -53.93580     19.85786    -49.95110
     4.20842     17.02069    -47.66167     11.94123    -51.77979     17.06704    -47.65876
     4.22846     14.77716    -45.49079     10.86547    -49.78815     14.81249    -45.49416
     4.24850     12.94643    -43.47085      9.93381    -47.94433     12.97336    -43.47728
     4.26854     11.43758    -41.60306      9.12173    -46.23343     11.45821    -41.61078
     4.28858     10.18197    -39.88054      8.40963    -44.64208     10.19788    -39.88859
     4.30862      9.12749    -38.29280      7.78170    -43.15850      9.13985    -38.30070
     4.32866      8.23425    -36.82812      7.22513    -41.77217      8.24394    -36.83567
     4.34870      7.47151    -35.47487      6.72941    -40.47381      7.47917    -35.48197
     4.36874      6.81533    -34.22203      6.28589    -39.25523      6.82142    -34.22867
     4.38878      6.24690    -33.05951      5.88741    -38.10920      6.25177    -33.06570
     4.40882      5.75131    -31.97820      5.52797    -37.02923      5.75523    -31.98399
     4.42886      5.31666    -30.96997      5.20256    -36.00964      5.31980    -30.97539
     4.44890      4.93336    -30.02760      4.90693    -35.04530      4.93587    -30.03270
     4.46894      4.59362    -29.14467      4.63748    -34.13170      4.59561    -29.14952
     4.48898      4.29107    -28.31555      4.39113    -33.26474      4.29263    -28.32018
     4.50902      4.02051    -27.53522      4.16527    -32.44083      4.02168    -27.53966
     4.52906      3.77758    -26.79921      3.95761    -31.65662      3.77842    -26.80350
     4.54910      3.55871    -26.10357      3.76620    -30.90921      3.55923    -26.10777
     4.56914      3.36090    -25.44482      3.58934    -30.19593      3.36112    -25.44895
     4.58918      3.18166    -24.81982      3.42554    -29.51435      3.18157    -24.82391
     4.60922      3.01889    -24.22577      3.27352    -28.86231      3.01848    -24.22985
     4.62926      2.87088    -23.66019      3.13212    -28.23783      2.87011    -23.66428
     4.64930      2.73622    -23.12085      3.00036    -27.63907      2.73503    -23.12497
     4.66934      2.61377    -22.60579      2.87734    -27.06441      2.61210    -22.60995
     4.68938      2.50269    -22.11332      2.76229    -26.51230      2.50042    -22.11749
     4.70942      2.40236    -21.64202      2.65449    -25.98141      2.39935    -21.64615
     4.72946      2.31243    -21.19086      2.55334    -25.47043      2.30850    -21.19481
     4.74950      2.23270    -20.75931      2.45826    -24.97821      2.22765    -20.76281
     4.76954      2.16296    -20.34752      2.36878    -24.50368      2.15664    -20.35012
     4.78958      2.10255    -19.95653      2.28444    -24.04583      2.09500    -19.95755
     4.80962      2.04945    -19.58815      2.20483    -23.60376      2.04120    -19.58672
     4.82966      1.99937    -19.24383      2.12961    -23.17661      1.99165    -19.23934
     4.84970      1.94582    -18.92227      2.05842    -22.76359      1.94038    -18.91507
     4.86974      1.88318    -18.61746      1.99099    -22.36397      1.88125    -18.60919
     4.88978      1.81087    -18.32071      1.92704    -21.97708      1.81218    -18.31340
     4.90982      1.73357    -18.02575      1.86632    -21.60229      1.73674    -18.02053
     4.92986      1.65714    -17.73118      1.80862    -21.23899      1.66082    -17.72806
     4.94990      1.58539    -17.43869      1.75371    -20.88664      1.58879    -17.43711
     4.96994      1.51971    -17.15059      1.70143    -20.54473      1.52255    -17.14998
     4.98998      1.46004    -16.86862      1.65160    -20.21277      1.46229    -16.86856
     5.01002      1.40573    -16.59374      1.60405    -19.89031      1.40749    -16.59397
     5.03006      1.35603    -16.32639      1.55865    -19.57693      1.35740    -16.32676
     5.05010      1.31025    -16.06663      1.51527    -19.27223      1.31131    -16.06704
     5.07014      1.26780    -15.81432      1.47377    -18.97583      1.26862    -15.81474
     5.09018      1.22822    -15.56923      1.43405    -18.68738      1.22887    -15.56963
     5.11022      1.19113    -15.33107      1.39601    -18.40656      1.19165    -15.33145
     5.13026      1.15624    -15.09957      1.35954    -18.13304      1.15665    -15.09992
     5.15030      1.12330    -14.87442      1.32456    -17.86654      1.12364    -14.87475
     5.17034      1.09212    -14.65536      1.29098    -17.60677      1.09239    -14.65565
     5.19038      1.06253    -14.44209      1.25873    -17.35346      1.06275    -14.44236
     5.21042      1.03438    -14.23437      1.22774    -17.10638      1.03457    -14.23461
     5.23046      1.00756    -14.03195      1.19793    -16.86528      1.00771    -14.03217
     5.25050      0.98196    -13.83461      1.16924    -16.62994      0.98209    -13.83482
     5.27054      0.95750    -13.64214      1.14163    -16.40015      0.95761    -13.64233
     5.29058      0.93408    -13.45434      1.11502    -16.17570      0.93418    -13.45451
     5.31062      0.91165    -13.27101      1.08938    -15.95640      0.91173    -13.27117
     5.33066      0.89014    -13.09198      1.06465    -15.74206      0.89021    -13.09213
     5.35070      0.86949    -12.91709      1.04079    -15.53254      0.86955    -12.91723
     5.37074      0.84965    -12.74616      1.01775    -15.32764      0.84969    -12.74629
     5.39078      0.83056    -12.57906      0.99551    -15.12721      0.83061    -12.57918
     5.41082      0.81220    -12.41564      0.97402    -14.93110      0.81224    -12.41576
     5.43086      0.79452    -12.25576      0.95324    -14.73916      0.79455    -12.25588
     5.45090      0.77748    -12.09930      0.93315    -14.55128      0.77751    -12.09942
     5.47094      0.76105    -11.94615      0.91371    -14.36730      0.76107    -11.94626
     5.49098      0.74521    -11.79618      0.89489    -14.18710      0.74522    -11.79628
     5.51102      0.72991    -11.64929      0.87668    -14.01058      0.72992    -11.64939
     5.53106      0.71514    -11.50536      0.85903    -13.83760      0.71515    -11.50546
     5.55110      0.70088    -11.36430      0.84193    -13.66807      0.70088    -11.36440
     5.57114      0.68709    -11.22603      0.82536    -13.50187      0.68709    -11.22612
     5.59118      0.67376    -11.09043      0.80928    -13.33891      0.67376    -11.09053
     5.61122      0.66088    -10.95743      0.79369    -13.17908      0.66088    -10.95753
     5.63126      0.64842    -10.82695      0.77857    -13.02230      0.64842    -10.82704
     5.65130      0.63638    -10.69890      0.76388    -12.86848      0.63637    -10.69899
     5.67134      0.62473    -10.57320      0.74962    -12.71754      0.62471    -10.57330
     5.69138      0.61347    -10.44978      0.73577    -12.56937      0.61345    -10.44988
     5.71142      0.60259    -10.32858      0.72232    -12.42392      0.60256    -10.32868
     5.73146      0.59208    -10.20951      0.70924    -12.28111      0.59205    -10.20962
     5.75150      0.58195    -10.09252      0.69653    -12.14085      0.58191    -10.09263
     5.77154      0.57219     -9.97753      0.68416    -12.00309      0.57214     -9.97765
     5.79158      0.56281     -9.86449      0.67214    -11.86775      0.56275     -9.86461
     5.81162      0.55383     -9.75334      0.66044    -11.73476      0.55375     -9.75347
     5.83166      0.54526     -9.64403      0.64906    -11.60407      0.54516     -9.64416
     5.85170      0.53714     -9.53652      0.63798    -11.47561      0.53702     -9.53665
     5.87174      0.52953     -9.43077      0.62719    -11.34932      0.52938     -9.43090
     5.89178      0.52247     -9.32678      0.61668    -11.22515      0.52229     -9.32691
     5.91182      0.51606     -9.22460      0.60644    -11.10305      0.51583     -9.22472
     5.93186      0.51038     -9.12434      0.59647    -10.98295      0.51009     -9.12442
     5.95190      0.50547     -9.02620      0.58676    -10.86481      0.50511     -9.02622
     5.97194      0.50124     -8.93055      0.57729    -10.74858      0.50083     -8.93046
     5.99198      0.49732     -8.83776      0.56805    -10.63421      0.49692     -8.83752
     6.01202      0.49294     -8.74806      0.55905    -10.52165      0.49263     -8.74766
     6.03206      0.48713     -8.66102      0.55027    -10.41087      0.48699     -8.66052
     6.05210      0.47933     -8.57554      0.54171    -10.30181      0.47940     -8.57506
     6.07214      0.46988     -8.49042      0.53335    -10.19444      0.47009     -8.49005
     6.09218      0.45972     -8.40505      0.52520    -10.08871      0.45998     -8.40483
    6.112224     0.449677    -8.319541     0.517249    -9.984582     0.449936    -8.319426
    6.132264     0.440216    -8.234278     0.509487    -9.882019     0.440437    -8.234237
    6.152305     0.431461    -8.149632     0.501909    -9.780982     0.431640    -8.149636
    6.172345     0.423379    -8.065877     0.494512    -9.681439     0.423520    -8.065902
    6.192385     0.415879    -7.983150     0.487290    -9.583351     0.415989    -7.983186
    6.212424     0.408866    -7.901531     0.480238    -9.486692     0.408953    -7.901573
    6.232464     0.402259    -7.821045     0.473351    -9.391417     0.402327    -7.821085
    6.252504     0.395992    -7.741685     0.466626    -9.297495     0.396046    -7.741723
    6.272545     0.390014    -7.663444     0.460057    -9.204900     0.390058    -7.663479
    6.292585     0.384287    -7.586290     0.453641    -9.113604     0.384322    -7.586326
    6.312625     0.378780    -7.510208     0.447373    -9.023569     0.378808    -7.510239
    6.332665     0.373469    -7.435163     0.441251    -8.934768     0.373493    -7.435194
    6.352705     0.368337    -7.361138     0.435270    -8.847175     0.368357    -7.361163
    6.372745     0.363369    -7.288094     0.429428    -8.760764     0.363386    -7.288116
    6.392785     0.358554    -7.216013     0.423721    -8.675501     0.358567    -7.216034
    6.412825     0.353880    -7.144862     0.418145    -8.591370     0.353892    -7.144880
    6.432866     0.349342    -7.074625     0.412699    -8.508329     0.349352    -7.074644
    6.452906     0.344932    -7.005271     0.407380    -8.426368     0.344940    -7.005287
    6.472946     0.340644    -6.936780     0.402184    -8.345458     0.340651    -6.936796
    6.492986     0.336473    -6.869127     0.397110    -8.265572     0.336480    -6.869142
    6.513026     0.332417    -6.802296     0.392156    -8.186686     0.332422    -6.802308
    6.533066     0.328470    -6.736256     0.387319    -8.108778     0.328475    -6.736269
    6.553106     0.324630    -6.670997     0.382597    -8.031822     0.324634    -6.671007
    6.573146     0.320895    -6.606487     0.377989    -7.955801     0.320898    -6.606498
    6.593186     0.317261    -6.542714     0.373493    -7.880692     0.317265    -6.542725
    6.613226     0.313728    -6.479656     0.369108    -7.806468     0.313731    -6.479666
    6.633266     0.310293    -6.417295     0.364832    -7.733114     0.310296    -6.417304
    6.653306     0.306956    -6.355609     0.360665    -7.660599     0.306958    -6.355620
    6.673346     0.303714    -6.294580     0.356605    -7.588908     0.303715    -6.294590
    6.693386     0.300567    -6.234193     0.352652    -7.518022     0.300568    -6.234200
    6.713427     0.297514    -6.174420     0.348805    -7.447911     0.297516    -6.174429
    6.733467     0.294555    -6.115255     0.345064    -7.378567     0.294557    -6.115263
    6.753507     0.291690    -6.056669     0.341430    -7.309958     0.291692    -6.056678
    6.773547     0.288919    -5.998652     0.337901    -7.242068     0.288920    -5.998661
    6.793587     0.286242    -5.941179     0.334479    -7.174877     0.286243    -5.941186
    6.813627     0.283660    -5.884234     0.331164    -7.108359     0.283660    -5.884243
    6.833667     0.281173    -5.827800     0.327958    -7.042496     0.281173    -5.827809
    6.853707     0.278782    -5.771858     0.324861    -6.977273     0.278783    -5.771865
    6.873747     0.276490    -5.716388     0.321876    -6.912660     0.276491    -5.716394
    6.893787     0.274298    -5.661368     0.319005    -6.848637     0.274298    -5.661375
    6.913827     0.272208    -5.606784     0.316249    -6.785186     0.272208    -5.606792
    6.933867     0.270222    -5.552610     0.313613    -6.722276     0.270222    -5.552617
    6.953907     0.268343    -5.498833     0.311100    -6.659893     0.268343    -5.498840
    6.973948     0.266576    -5.445423     0.308713    -6.598002     0.266576    -5.445430
    6.993988     0.264924    -5.392366     0.306459    -6.536595     0.264923    -5.392374
    7.014028     0.263391    -5.339634     0.304342    -6.475629     0.263390    -5.339642
    7.034068     0.261983    -5.287210     0.302370    -6.415090     0.261982    -5.287218
    7.054108     0.260706    -5.235064     0.300550    -6.354943     0.260705    -5.235070
    7.074148     0.259566    -5.183173     0.298891    -6.295163     0.259565    -5.183181
    7.094188     0.258572    -5.131510     0.297403    -6.235713     0.258571    -5.131517
    7.114228     0.257732    -5.080048     0.296098    -6.176571     0.257731    -5.080056
    7.134268     0.257057    -5.028756     0.294989    -6.117689     0.257056    -5.028763
    7.154308     0.256558    -4.977603     0.294093    -6.059047     0.256556    -4.977612
    7.174349     0.256248    -4.926555     0.293427    -6.000589     0.256246    -4.926563
    7.194388     0.256142    -4.875578     0.293014    -5.942283     0.256140    -4.875587
    7.214429     0.256258    -4.824630     0.292877    -5.884075     0.256255    -4.824640
    7.234468     0.256614    -4.773675     0.293045    -5.825924     0.256612    -4.773685
    7.254509     0.257235    -4.722660     0.293553    -5.767768     0.257232    -4.722671
    7.274549     0.258146    -4.671546     0.294439    -5.709552     0.258142    -4.671556
    7.294589     0.259377    -4.620272     0.295752    -5.651205     0.259373    -4.620284
    7.314629     0.260964    -4.568781     0.297546    -5.592652     0.260960    -4.568794
    7.334669     0.262948    -4.517014     0.299888    -5.533820     0.262942    -4.517029
    7.354709     0.265376    -4.464895     0.302858    -5.474611     0.265370    -4.464909
    7.374749     0.268304    -4.412347     0.306550    -5.414932     0.268297    -4.412363
    7.394789     0.271799    -4.359285     0.311082    -5.354660     0.271791    -4.359301
    7.414829     0.275939    -4.305612     0.316594    -5.293675     0.275930    -4.305630
    7.434869     0.280817    -4.251217     0.323261    -5.231829     0.280807    -4.251237
    7.454909     0.286546    -4.195984     0.331297    -5.168965     0.286533    -4.196007
    7.474950     0.293259    -4.139774     0.340971    -5.104903     0.293244    -4.139797
    7.494989     0.301119    -4.082435     0.352618    -5.039447     0.301102    -4.082460
    7.515030     0.310325    -4.023794     0.366667    -4.972369     0.310305    -4.023822
    7.535069     0.321121    -3.963658     0.383661    -4.903444     0.321097    -3.963687
    7.555110     0.333808    -3.901806     0.404308    -4.832414     0.333780    -3.901840
    7.575150     0.348763    -3.837995     0.429521    -4.759056     0.348729    -3.838033
    7.595191     0.366459    -3.771951     0.460505    -4.683164     0.366417    -3.771993
    7.615230     0.387495    -3.703376     0.498847    -4.604655     0.387444    -3.703423
    7.635271     0.412639    -3.631942     0.546657    -4.523661     0.412576    -3.631993
    7.655310     0.442880    -3.557321     0.606728    -4.440759     0.442801    -3.557378
    7.675351     0.479508    -3.479187     0.682733    -4.357347     0.479410    -3.479249
    7.695390     0.524215    -3.397288     0.779344    -4.276329     0.524091    -3.397354
    7.715430     0.579239    -3.311520     0.902147    -4.203262     0.579080    -3.311587
    7.735471     0.647551    -3.222098     1.056781    -4.148115     0.647346    -3.222164
    7.755510     0.733080    -3.129896     1.246299    -4.127493     0.732814    -3.129951
    7.775551     0.840989    -3.036955     1.465262    -4.165728     0.840642    -3.036983
    7.795590     0.977820    -2.947506     1.690044    -4.290386     0.977369    -2.947476
    7.815631     1.151337    -2.869574     1.872008    -4.515594     1.150759    -2.869434
    7.835670     1.369172    -2.817508     1.950460    -4.816678     1.368458    -2.817170
    7.855711     1.634996    -2.814993     1.892428    -5.125402     1.634180    -2.814324
    7.875751     1.939799    -2.896258     1.721487    -5.368683     1.939026    -2.895095
    7.895792     2.248523    -3.098857     1.496680    -5.513069     2.248097    -3.097098
    7.915831     2.491660    -3.439142     1.270725    -5.567433     2.492019    -3.436926
    7.935872     2.586514    -3.877838     1.071562    -5.558568     2.587968    -3.875669
    7.955911     2.493325    -4.317831     0.907178    -5.512009     2.495738    -4.316357
    7.975952     2.250444    -4.661328     0.775478    -5.445759     2.253288    -4.660926
    7.995991     1.940380    -4.867688     0.671036    -5.370840     1.943107    -4.868308
    8.016032     1.633226    -4.952500     0.588152    -5.293453     1.635508    -4.953874
    8.036072     1.364774    -4.953185     0.521969    -5.216894     1.366505    -4.955032
    8.056112     1.144401    -4.904154     0.468635    -5.142764     1.145589    -4.906271
    8.076152     0.968668    -4.829307     0.425213    -5.071766     0.969351    -4.831569
    8.096192     0.829996    -4.743148     0.389478    -5.004086     0.830214    -4.745482
    8.116232     0.720709    -4.653826     0.359761    -4.939676     0.720473    -4.656190
    8.136271     0.634317    -4.565655     0.334794    -4.878352     0.633613    -4.568014
    8.156312     0.565760    -4.480792     0.313614    -4.819883     0.564545    -4.483093
    8.176352     0.511242    -4.400257     0.295483    -4.764031     0.509444    -4.402419
    8.196392     0.467932    -4.324531     0.279828    -4.710554     0.465468    -4.326396
    8.216433     0.433689    -4.253946     0.266202    -4.659237     0.430506    -4.255256
    8.236473     0.406720    -4.188880     0.254253    -4.609879     0.402888    -4.189243
    8.256513     0.385188    -4.129790     0.243702    -4.562299     0.381056    -4.128748
    8.276553     0.366871    -4.076846     0.234322    -4.516336     0.363184    -4.074134
    8.296593     0.349317    -4.029287     0.225934    -4.471852     0.347028    -4.025220
    8.316633     0.330783    -3.985088     0.218389    -4.428717     0.330447    -3.980659
    8.336673     0.311166    -3.941876     0.211567    -4.386822     0.312501    -3.938164
    8.356713     0.291637    -3.898236     0.205367    -4.346065     0.293837    -3.895755
    8.376753     0.273446    -3.854032     0.199707    -4.306361     0.275791    -3.852700
    8.396793     0.257246    -3.809769     0.194517    -4.267628     0.259347    -3.809258
    8.416833     0.243137    -3.766018     0.189739    -4.229798     0.244873    -3.766006
    8.436873     0.230932    -3.723158     0.185324    -4.192811     0.232311    -3.723421
    8.456913     0.220353    -3.681395     0.181230    -4.156610     0.221433    -3.681793
    8.476954     0.211130    -3.640798     0.177421    -4.121138     0.211972    -3.641252
    8.496993     0.203029    -3.601364     0.173868    -4.086356     0.203689    -3.601832
    8.517034     0.195862    -3.563049     0.170544    -4.052222     0.196381    -3.563509
    8.537074     0.189477    -3.525792     0.167426    -4.018697     0.189889    -3.526233
    8.557114     0.183755    -3.489521     0.164496    -3.985746     0.184083    -3.489941
    8.577154     0.178600    -3.454168     0.161737    -3.953339     0.178863    -3.454564
    8.597194     0.173935    -3.419663     0.159135    -3.921444     0.174147    -3.420038
    8.617234     0.169699    -3.385945     0.156677    -3.890038     0.169869    -3.386300
    8.637274     0.165842    -3.352954     0.154353    -3.859094     0.165979    -3.353293
    8.657314     0.162323    -3.320634     0.152153    -3.828589     0.162432    -3.320958
    8.677354     0.159110    -3.288936     0.150072    -3.798503     0.159196    -3.289247
    8.697394     0.156177    -3.257808     0.148102    -3.768812     0.156242    -3.258111
    8.717434     0.153501    -3.227211     0.146239    -3.739499     0.153548    -3.227505
    8.737474     0.151065    -3.197097     0.144479    -3.710544     0.151097    -3.197388
    8.757514     0.148859    -3.167432     0.142820    -3.681931     0.148876    -3.167718
    8.777555     0.146871    -3.138172     0.141262    -3.653640     0.146874    -3.138458
    8.797595     0.145098    -3.109286     0.139805    -3.625657     0.145086    -3.109572
    8.817636     0.143537    -3.080733     0.138452    -3.597959     0.143511    -3.081022
    8.837675     0.142191    -3.052481     0.137208    -3.570536     0.142149    -3.052774
    8.857716     0.141064    -3.024491     0.136079    -3.543364     0.141006    -3.024792
    8.877755     0.140169    -2.996730     0.135075    -3.516432     0.140091    -2.997039
    8.897796     0.139519    -2.969157     0.134211    -3.489719     0.139420    -2.969478
    8.917835     0.139138    -2.941737     0.133505    -3.463210     0.139014    -2.942072
    8.937876     0.139053    -2.914428     0.132982    -3.436883     0.138899    -2.914780
    8.957915     0.139305    -2.887189     0.132676    -3.410726     0.139114    -2.887560
    8.977956     0.139943    -2.859973     0.132632    -3.384719     0.139707    -2.860366
    8.997995     0.141032    -2.832736     0.132910    -3.358855     0.140740    -2.833154
    9.018035     0.142660    -2.805428     0.133591    -3.333133     0.142297    -2.805874
    9.038075     0.144937    -2.777997     0.134784    -3.307561     0.144484    -2.778473
    9.058115     0.148013    -2.750399     0.136629    -3.282192     0.147441    -2.750903
    9.078156     0.152081    -2.722595     0.139311    -3.257124     0.151355    -2.723119
    9.098196     0.157400    -2.694564     0.143051    -3.232565     0.156472    -2.695094
    9.118237     0.164316    -2.666324     0.148078    -3.208885     0.163119    -2.666829
    9.138276     0.173282    -2.637972     0.154537    -3.186719     0.171730    -2.638392
    9.158317     0.184897    -2.609745     0.162264    -3.167009     0.182881    -2.609966
    9.178356     0.199912    -2.582139     0.170410    -3.150877     0.197312    -2.581954
    9.198397     0.219206    -2.556095     0.177120    -3.139004     0.215927    -2.555147
    9.218436     0.243610    -2.533295     0.179927    -3.130616     0.239694    -2.530993
    9.238477     0.273432    -2.516465     0.177275    -3.123097     0.269304    -2.511958
    9.258516     0.307427    -2.509437     0.169856    -3.113403     0.304331    -2.501809
    9.278557     0.341363    -2.516105     0.159982    -3.099946     0.341748    -2.505196
    9.298596     0.367500    -2.537538     0.149879    -3.082929     0.374427    -2.525439
    9.318637     0.377605    -2.568610     0.140793    -3.063395     0.392209    -2.560360
    9.338676     0.368962    -2.599037     0.133120    -3.042401     0.387699    -2.599991
    9.358717     0.346577    -2.620082     0.126804    -3.020715     0.362469    -2.631416
    9.378757     0.318274    -2.629394     0.121634    -2.998802     0.325638    -2.646995
    9.398798     0.289213    -2.629206     0.117374    -2.976933     0.286825    -2.646757
    9.418838     0.261174    -2.622159     0.113825    -2.955247     0.251800    -2.634842
    9.438877     0.234743    -2.609614     0.110825    -2.933814     0.222596    -2.615767
    9.458918     0.210717    -2.592441     0.108250    -2.912660     0.199177    -2.592911
    9.478957     0.189858    -2.571822     0.106008    -2.891796     0.180720    -2.568436
    9.498998     0.172404    -2.549103     0.104029    -2.871213     0.166251    -2.543623
    9.519037     0.158102    -2.525410     0.102258    -2.850908     0.154860    -2.519222
    9.539078     0.146465    -2.501498     0.100656    -2.830864     0.145719    -2.495643
     9.55912      0.13698     -2.47781      0.09919     -2.81107      0.13808     -2.47301
     9.57916      0.12919     -2.45456      0.09784     -2.79152      0.13135     -2.45117
     9.59920      0.12274     -2.43187      0.09658     -2.77220      0.12524     -2.42983
     9.61924      0.11734     -2.40974      0.09540     -2.75309      0.11970     -2.40876
     9.63928      0.11277     -2.38818      0.09429     -2.73420      0.11478     -2.38791
     9.65932      0.10889     -2.36715      0.09324     -2.71550      0.11049     -2.36730
     9.67936      0.10555     -2.34663      0.09224     -2.69700      0.10679     -2.34700
     9.69940      0.10267     -2.32655      0.09128     -2.67868      0.10362     -2.32704
     9.71944      0.10018     -2.30691      0.09036     -2.66055      0.10090     -2.30744
     9.73948      0.09803     -2.28764      0.08948     -2.64258      0.09856     -2.28819
     9.75952      0.09618     -2.26874      0.08862     -2.62479      0.09657     -2.26929
     9.77956      0.09462     -2.25016      0.08779     -2.60716      0.09489     -2.25070
     9.79960      0.09333     -2.23189      0.08699     -2.58968      0.09350     -2.23242
     9.81964      0.09233     -2.21393      0.08621     -2.57237      0.09240     -2.21444
     9.83968      0.09164     -2.19628      0.08545     -2.55520      0.09161     -2.19676
     9.85972      0.09127     -2.17896      0.08471     -2.53818      0.09116     -2.17942
     9.87976      0.09127     -2.16206      0.08399     -2.52131      0.09106     -2.16248
     9.89980      0.09164     -2.14571      0.08329     -2.50457      0.09134     -2.14605
     9.91984      0.09232     -2.13010      0.08260     -2.48798      0.09193     -2.13033
     9.93988      0.09306     -2.11545      0.08192     -2.47152      0.09263     -2.11552
     9.95992      0.09344     -2.10183      0.08126     -2.45519      0.09305     -2.10173
     9.97996      0.09296     -2.08897      0.08061     -2.43899      0.09268     -2.08875
    10.00000      0.09138     -2.07627      0.07997     -2.42292      0.09125     -2.07601
# 
# 05/18/2017 at 16:41 YAMBO_RT @ anomaly [start]
# 05/18/2017 at 16:41                    [end]
#  
# Timing   [Min/Max/Average]: 03s/03s/03s
#
# .-Input file : INPUTS/09_bse_10fs_Gonly
# | optics                         # [R OPT] Optics
# | bse                            # [R BSE] Bethe Salpeter Equation.
# | bsk                            # [R BSK] Bethe Salpeter Equation kernel
# | bss                            # [R BSS] Bethe Salpeter Equation solver
# | em1s                           # [R Xs] Static Inverse Dielectric Matrix
# | BoseTemp= 0.000000     eV      # Bosonic Temperature
# | FFTGvecs=  387         RL      # [FFT] Plane-waves
# | Chimod= "hartree"              # [X] IP/Hartree/ALDA/LRC/BSfxc
# | BSEmod= "retarded"             # [BSE] resonant/retarded/coupling
# | BSKmod= "SEX"                  # [BSE] IP/Hartree/HF/ALDA/SEX/BSfxc
# | BSSmod= "h"                    # [BSS] (h)aydock/(d)iagonalization/(i)nversion/(t)ddft`
# | BSENGexx=  531         RL      # [BSK] Exchange components
# | BSENGBlk=  59          RL      # [BSK] Screened interaction block size
# | #WehCpl                        # [BSK] eh interaction included also in coupling
# | KfnQPdb= "E < 08_ypp_gw_10fs_Gonly/ndb.QP_merged_1_gw_ppa" # [EXTQP BSK BSS] Database
# | KfnRTdb= "f @ 0.1 ps < 04_elel+elph_0K/ndb.RT_carriers" # [EXTRT BSK BSS] Database
# | % BEnRange
# |   0.00000 | 10.00000 | eV      # [BSS] Energy range
# | %
# | % BDmRange
# |   0.10000 |  0.10000 | eV      # [BSS] Damping range
# | %
# | BEnSteps=  500                 # [BSS] Energy steps
# | % BLongDir
# | 0.1000E-4 | 0.000    | 0.000    |        # [BSS] [cc] Electric Field
# | %
# | % BSEBands
# |   2 |  7 |                     # [BSK] Bands range
# | %
# | BSHayTrs=  0.02000             # [BSS] Relative [o/o] Haydock treshold. Strict(>0)/Average(<0)
# | % BndsRnXs
# |   1 |  8 |                     # [Xs] Polarization function bands
# | %
# | NGsBlkXs=  59          RL      # [Xs] Response block size
# | GrFnTpXs= "R"                  # [Xs] Green`s function (T)ordered,(R)etarded,(r)senant,(a)ntiresonant [T, R, r, Ta, Ra]
# | % DmRngeXs
# |   0.10000 |  0.10000 | eV      # [Xs] Damping range
# | %
# | % LongDrXs
# | 0.1000E-4 | 0.000    | 0.000    |        # [Xs] [cc] Electric Field
# | %
