#                                                           
#  **    **    **     ****     ****  ******     *******     
# //**  **    ****   /**/**   **/** /*////**   **/////**    
#  //****    **//**  /**//** ** /** /*   /**  **     //**   
#   //**    **  //** /** //***  /** /******  /**      /**   
#    /**   **********/**  //*   /** /*//// **/**      /**   
#    /**  /**//////**/**   /    /** /*    /**//**     **    
#    /**  /**     /**/**        /** /*******  //*******     
#    //   //      // //         //  ///////    ///////      
#                                                           
#        Version 4.3.0 Revision 15624 Hash 7ed12fb          
#                      MPI+SLK Build                        
#                http://www.yambo-code.org                  
#
# Absorption @ Q(1) [q->0 direction] :0.1000E-4  0.000     0.000   
#
#
# - Energies      are Teter 93(XC)
# - Wavefunctions are Teter 93(XC)
#
# - The Green`s function is Retarded -
# - Using the Length Gauge -
# - [r,Vnl] *is* included -
#
#   BSK|Identifier              :5179
#      |Dimension               :49
#      |Bands                   :1 - 50
#      |Exchange           [res]: yes
#      |Correlation        [res]: no
#      |Kernel`s coupling       : no
#      |Exchange           [cpl]: no
#      |Correlation        [cpl]: no
#      |W interaction is bare   : no
#      |ALDA kernel in R-space  : no
#      |RL vectors    [exchange]:4067
#      |E/h energy range    [ev]:-1.000000 - -1.000000
#      |Coupling range     [o/o]: 100.0000 -  100.0000
#
#    E/ev[1]      EPS-Im[2]    EPS-Re[3]    EPSo-Im[4]   EPSo-Re[5]
#
    0.000000     0.000000     1.016390     0.000000     1.019553
   0.1502E-1    0.1804E-6     1.016       0.2888E-6     1.020   
   0.3003E-1    0.3607E-6     1.016       0.5776E-6     1.020   
   0.4505E-1    0.5411E-6     1.016       0.8665E-6     1.020   
   0.6006E-1    0.7214E-6     1.016       0.1155E-5     1.020   
   0.7508E-1    0.9018E-6     1.016       0.1444E-5     1.020   
   0.9009E-1    0.1082E-5     1.016       0.1733E-5     1.020   
   0.1051       0.1263E-5     1.016       0.2022E-5     1.020   
   0.1201       0.1443E-5     1.016       0.2311E-5     1.020   
   0.1351       0.1623E-5     1.016       0.2600E-5     1.020   
   0.1502       0.1804E-5     1.016       0.2889E-5     1.020   
   0.1652       0.1984E-5     1.016       0.3178E-5     1.020   
   0.1802       0.2165E-5     1.016       0.3467E-5     1.020   
   0.1952       0.2345E-5     1.016       0.3756E-5     1.020   
   0.2102       0.2526E-5     1.016       0.4045E-5     1.020   
   0.2252       0.2706E-5     1.016       0.4335E-5     1.020   
   0.2402       0.2887E-5     1.016       0.4624E-5     1.020   
   0.2553       0.3068E-5     1.016       0.4913E-5     1.020   
   0.2703       0.3248E-5     1.016       0.5203E-5     1.020   
   0.2853       0.3429E-5     1.016       0.5492E-5     1.020   
   0.3003       0.3610E-5     1.016       0.5782E-5     1.020   
   0.3153       0.3791E-5     1.016       0.6072E-5     1.020   
   0.3303       0.3971E-5     1.016       0.6361E-5     1.020   
   0.3453       0.4152E-5     1.016       0.6651E-5     1.020   
   0.3604       0.4333E-5     1.016       0.6941E-5     1.020   
   0.3754       0.4514E-5     1.016       0.7231E-5     1.020   
   0.3904       0.4695E-5     1.016       0.7522E-5     1.020   
   0.4054       0.4876E-5     1.016       0.7812E-5     1.020   
   0.4204       0.5057E-5     1.016       0.8102E-5     1.020   
   0.4354       0.5239E-5     1.016       0.8393E-5     1.020   
   0.4505       0.5420E-5     1.016       0.8683E-5     1.020   
   0.4655       0.5601E-5     1.016       0.8974E-5     1.020   
   0.4805       0.5783E-5     1.016       0.9265E-5     1.020   
   0.4955       0.5964E-5     1.016       0.9556E-5     1.020   
   0.5105       0.6146E-5     1.016       0.9847E-5     1.020   
   0.5255       0.6327E-5     1.016       0.1014E-4     1.020   
   0.5405       0.6509E-5     1.016       0.1043E-4     1.020   
   0.5556       0.6691E-5     1.016       0.1072E-4     1.020   
   0.5706       0.6872E-5     1.016       0.1101E-4     1.020   
   0.5856       0.7054E-5     1.016       0.1131E-4     1.020   
   0.6006       0.7236E-5     1.016       0.1160E-4     1.020   
   0.6156       0.7418E-5     1.016       0.1189E-4     1.020   
   0.6306       0.7600E-5     1.016       0.1218E-4     1.020   
   0.6456       0.7783E-5     1.016       0.1247E-4     1.020   
   0.6607       0.7965E-5     1.016       0.1277E-4     1.020   
   0.6757       0.8147E-5     1.016       0.1306E-4     1.020   
   0.6907       0.8330E-5     1.016       0.1335E-4     1.020   
   0.7057       0.8513E-5     1.016       0.1365E-4     1.020   
   0.7207       0.8695E-5     1.016       0.1394E-4     1.020   
   0.7357       0.8878E-5     1.016       0.1423E-4     1.020   
   0.7508       0.9061E-5     1.016       0.1453E-4     1.020   
   0.7658       0.9244E-5     1.016       0.1482E-4     1.020   
   0.7808       0.9427E-5     1.016       0.1512E-4     1.020   
   0.7958       0.9610E-5     1.016       0.1541E-4     1.020   
   0.8108       0.9794E-5     1.016       0.1571E-4     1.020   
   0.8258       0.9977E-5     1.016       0.1600E-4     1.020   
   0.8408       0.1016E-4     1.016       0.1630E-4     1.020   
   0.8559       0.1034E-4     1.016       0.1659E-4     1.020   
   0.8709       0.1053E-4     1.016       0.1689E-4     1.020   
   0.8859       0.1071E-4     1.016       0.1718E-4     1.020   
   0.9009       0.1090E-4     1.016       0.1748E-4     1.020   
   0.9159       0.1108E-4     1.016       0.1778E-4     1.020   
   0.9309       0.1126E-4     1.016       0.1807E-4     1.020   
   0.9459       0.1145E-4     1.016       0.1837E-4     1.020   
   0.9610       0.1163E-4     1.016       0.1867E-4     1.020   
   0.9760       0.1182E-4     1.016       0.1896E-4     1.020   
   0.9910       0.1200E-4     1.016       0.1926E-4     1.020   
    1.006       0.1219E-4     1.016       0.1956E-4     1.020   
    1.021       0.1237E-4     1.016       0.1986E-4     1.020   
    1.036       0.1256E-4     1.016       0.2016E-4     1.020   
    1.051       0.1274E-4     1.016       0.2046E-4     1.020   
    1.066       0.1293E-4     1.016       0.2076E-4     1.020   
    1.081       0.1312E-4     1.016       0.2106E-4     1.020   
    1.096       0.1330E-4     1.016       0.2135E-4     1.020   
    1.111       0.1349E-4     1.016       0.2166E-4     1.020   
    1.126       0.1367E-4     1.016       0.2196E-4     1.020   
    1.141       0.1386E-4     1.016       0.2226E-4     1.020   
    1.156       0.1405E-4     1.016       0.2256E-4     1.020   
    1.171       0.1423E-4     1.016       0.2286E-4     1.020   
    1.186       0.1442E-4     1.016       0.2316E-4     1.020   
    1.201       0.1461E-4     1.016       0.2346E-4     1.020   
    1.216       0.1479E-4     1.016       0.2377E-4     1.020   
    1.231       0.1498E-4     1.016       0.2407E-4     1.020   
    1.246       0.1517E-4     1.016       0.2437E-4     1.020   
    1.261       0.1536E-4     1.016       0.2468E-4     1.020   
    1.276       0.1554E-4     1.016       0.2498E-4     1.020   
    1.291       0.1573E-4     1.016       0.2528E-4     1.020   
    1.306       0.1592E-4     1.016       0.2559E-4     1.020   
    1.321       0.1611E-4     1.016       0.2589E-4     1.020   
    1.336       0.1630E-4     1.016       0.2620E-4     1.020   
    1.351       0.1649E-4     1.017       0.2650E-4     1.020   
    1.366       0.1668E-4     1.017       0.2681E-4     1.020   
    1.381       0.1687E-4     1.017       0.2712E-4     1.020   
    1.396       0.1705E-4     1.017       0.2742E-4     1.020   
    1.411       0.1724E-4     1.017       0.2773E-4     1.020   
    1.426       0.1743E-4     1.017       0.2804E-4     1.020   
    1.441       0.1762E-4     1.017       0.2835E-4     1.020   
    1.456       0.1781E-4     1.017       0.2866E-4     1.020   
    1.471       0.1800E-4     1.017       0.2897E-4     1.020   
    1.486       0.1820E-4     1.017       0.2927E-4     1.020   
    1.502       0.1839E-4     1.017       0.2958E-4     1.020   
    1.517       0.1858E-4     1.017       0.2989E-4     1.020   
    1.532       0.1877E-4     1.017       0.3021E-4     1.020   
    1.547       0.1896E-4     1.017       0.3052E-4     1.020   
    1.562       0.1915E-4     1.017       0.3083E-4     1.020   
    1.577       0.1934E-4     1.017       0.3114E-4     1.020   
    1.592       0.1954E-4     1.017       0.3145E-4     1.020   
    1.607       0.1973E-4     1.017       0.3177E-4     1.020   
    1.622       0.1992E-4     1.017       0.3208E-4     1.020   
    1.637       0.2011E-4     1.017       0.3239E-4     1.020   
    1.652       0.2031E-4     1.017       0.3271E-4     1.020   
    1.667       0.2050E-4     1.017       0.3302E-4     1.020   
    1.682       0.2070E-4     1.017       0.3334E-4     1.020   
    1.697       0.2089E-4     1.017       0.3366E-4     1.020   
    1.712       0.2108E-4     1.017       0.3397E-4     1.020   
    1.727       0.2128E-4     1.017       0.3429E-4     1.020   
    1.742       0.2147E-4     1.017       0.3461E-4     1.020   
    1.757       0.2167E-4     1.017       0.3492E-4     1.020   
    1.772       0.2186E-4     1.017       0.3524E-4     1.020   
    1.787       0.2206E-4     1.017       0.3556E-4     1.020   
    1.802       0.2225E-4     1.017       0.3588E-4     1.020   
    1.817       0.2245E-4     1.017       0.3620E-4     1.020   
    1.832       0.2265E-4     1.017       0.3652E-4     1.020   
    1.847       0.2284E-4     1.017       0.3684E-4     1.020   
    1.862       0.2304E-4     1.017       0.3717E-4     1.020   
    1.877       0.2324E-4     1.017       0.3749E-4     1.020   
    1.892       0.2343E-4     1.017       0.3781E-4     1.020   
    1.907       0.2363E-4     1.017       0.3814E-4     1.020   
    1.922       0.2383E-4     1.017       0.3846E-4     1.020   
    1.937       0.2403E-4     1.017       0.3878E-4     1.020   
    1.952       0.2423E-4     1.017       0.3911E-4     1.020   
    1.967       0.2443E-4     1.017       0.3944E-4     1.020   
    1.982       0.2462E-4     1.017       0.3976E-4     1.020   
    1.997       0.2482E-4     1.017       0.4009E-4     1.020   
    2.012       0.2502E-4     1.017       0.4042E-4     1.020   
    2.027       0.2522E-4     1.017       0.4075E-4     1.020   
    2.042       0.2542E-4     1.017       0.4108E-4     1.020   
    2.057       0.2562E-4     1.017       0.4140E-4     1.020   
    2.072       0.2583E-4     1.017       0.4174E-4     1.020   
    2.087       0.2603E-4     1.017       0.4207E-4     1.020   
    2.102       0.2623E-4     1.017       0.4240E-4     1.020   
    2.117       0.2643E-4     1.017       0.4273E-4     1.020   
    2.132       0.2663E-4     1.017       0.4306E-4     1.020   
    2.147       0.2684E-4     1.017       0.4340E-4     1.020   
    2.162       0.2704E-4     1.017       0.4373E-4     1.020   
    2.177       0.2724E-4     1.017       0.4407E-4     1.020   
    2.192       0.2745E-4     1.017       0.4440E-4     1.020   
    2.207       0.2765E-4     1.017       0.4474E-4     1.020   
    2.222       0.2785E-4     1.017       0.4507E-4     1.020   
    2.237       0.2806E-4     1.017       0.4541E-4     1.020   
    2.252       0.2826E-4     1.017       0.4575E-4     1.020   
    2.267       0.2847E-4     1.017       0.4609E-4     1.020   
    2.282       0.2867E-4     1.017       0.4643E-4     1.020   
    2.297       0.2888E-4     1.017       0.4677E-4     1.020   
    2.312       0.2909E-4     1.017       0.4711E-4     1.020   
    2.327       0.2929E-4     1.017       0.4745E-4     1.020   
    2.342       0.2950E-4     1.017       0.4780E-4     1.020   
    2.357       0.2971E-4     1.017       0.4814E-4     1.020   
    2.372       0.2992E-4     1.017       0.4848E-4     1.020   
    2.387       0.3012E-4     1.017       0.4883E-4     1.020   
    2.402       0.3033E-4     1.017       0.4918E-4     1.020   
    2.417       0.3054E-4     1.017       0.4952E-4     1.020   
    2.432       0.3075E-4     1.017       0.4987E-4     1.020   
    2.447       0.3096E-4     1.017       0.5022E-4     1.020   
    2.462       0.3117E-4     1.017       0.5057E-4     1.020   
    2.477       0.3138E-4     1.017       0.5092E-4     1.020   
    2.492       0.3159E-4     1.017       0.5127E-4     1.020   
    2.508       0.3180E-4     1.017       0.5162E-4     1.020   
    2.523       0.3202E-4     1.017       0.5197E-4     1.020   
    2.538       0.3223E-4     1.017       0.5232E-4     1.020   
    2.553       0.3244E-4     1.017       0.5268E-4     1.020   
    2.568       0.3265E-4     1.017       0.5303E-4     1.020   
    2.583       0.3287E-4     1.017       0.5339E-4     1.020   
    2.598       0.3308E-4     1.017       0.5374E-4     1.020   
    2.613       0.3329E-4     1.017       0.5410E-4     1.020   
    2.628       0.3351E-4     1.017       0.5446E-4     1.020   
    2.643       0.3372E-4     1.017       0.5482E-4     1.020   
    2.658       0.3394E-4     1.017       0.5518E-4     1.020   
    2.673       0.3416E-4     1.017       0.5554E-4     1.020   
    2.688       0.3437E-4     1.017       0.5590E-4     1.020   
    2.703       0.3459E-4     1.017       0.5626E-4     1.020   
    2.718       0.3481E-4     1.017       0.5663E-4     1.020   
    2.733       0.3502E-4     1.017       0.5699E-4     1.020   
    2.748       0.3524E-4     1.017       0.5736E-4     1.020   
    2.763       0.3546E-4     1.017       0.5772E-4     1.020   
    2.778       0.3568E-4     1.017       0.5809E-4     1.020   
    2.793       0.3590E-4     1.017       0.5846E-4     1.020   
    2.808       0.3612E-4     1.017       0.5883E-4     1.020   
    2.823       0.3634E-4     1.017       0.5920E-4     1.020   
    2.838       0.3656E-4     1.017       0.5957E-4     1.020   
    2.853       0.3678E-4     1.017       0.5994E-4     1.020   
    2.868       0.3700E-4     1.017       0.6032E-4     1.020   
    2.883       0.3723E-4     1.017       0.6069E-4     1.020   
    2.898       0.3745E-4     1.017       0.6107E-4     1.020   
    2.913       0.3767E-4     1.017       0.6144E-4     1.020   
    2.928       0.3790E-4     1.017       0.6182E-4     1.020   
    2.943       0.3812E-4     1.017       0.6220E-4     1.020   
    2.958       0.3835E-4     1.017       0.6258E-4     1.020   
    2.973       0.3857E-4     1.017       0.6296E-4     1.020   
    2.988       0.3880E-4     1.017       0.6334E-4     1.020   
    3.003       0.3902E-4     1.017       0.6372E-4     1.020   
    3.018       0.3925E-4     1.017       0.6410E-4     1.020   
    3.033       0.3948E-4     1.017       0.6449E-4     1.020   
    3.048       0.3971E-4     1.017       0.6487E-4     1.020   
    3.063       0.3993E-4     1.017       0.6526E-4     1.021   
    3.078       0.4016E-4     1.017       0.6565E-4     1.021   
    3.093       0.4039E-4     1.017       0.6604E-4     1.021   
    3.108       0.4062E-4     1.017       0.6643E-4     1.021   
    3.123       0.4085E-4     1.017       0.6682E-4     1.021   
    3.138       0.4108E-4     1.017       0.6721E-4     1.021   
    3.153       0.4132E-4     1.017       0.6760E-4     1.021   
    3.168       0.4155E-4     1.017       0.6800E-4     1.021   
    3.183       0.4178E-4     1.017       0.6839E-4     1.021   
    3.198       0.4201E-4     1.017       0.6879E-4     1.021   
    3.213       0.4225E-4     1.017       0.6919E-4     1.021   
    3.228       0.4248E-4     1.017       0.6959E-4     1.021   
    3.243       0.4272E-4     1.017       0.6999E-4     1.021   
    3.258       0.4295E-4     1.017       0.7039E-4     1.021   
    3.273       0.4319E-4     1.017       0.7079E-4     1.021   
    3.288       0.4343E-4     1.017       0.7120E-4     1.021   
    3.303       0.4366E-4     1.017       0.7160E-4     1.021   
    3.318       0.4390E-4     1.017       0.7201E-4     1.021   
    3.333       0.4414E-4     1.017       0.7242E-4     1.021   
    3.348       0.4438E-4     1.017       0.7283E-4     1.021   
    3.363       0.4462E-4     1.017       0.7324E-4     1.021   
    3.378       0.4486E-4     1.017       0.7365E-4     1.021   
    3.393       0.4510E-4     1.017       0.7406E-4     1.021   
    3.408       0.4534E-4     1.017       0.7448E-4     1.021   
    3.423       0.4559E-4     1.017       0.7489E-4     1.021   
    3.438       0.4583E-4     1.017       0.7531E-4     1.021   
    3.453       0.4607E-4     1.017       0.7573E-4     1.021   
    3.468       0.4632E-4     1.017       0.7615E-4     1.021   
    3.483       0.4656E-4     1.017       0.7657E-4     1.021   
    3.498       0.4681E-4     1.017       0.7699E-4     1.021   
    3.514       0.4705E-4     1.017       0.7741E-4     1.021   
    3.529       0.4730E-4     1.017       0.7784E-4     1.021   
    3.544       0.4755E-4     1.017       0.7826E-4     1.021   
    3.559       0.4779E-4     1.017       0.7869E-4     1.021   
    3.574       0.4804E-4     1.017       0.7912E-4     1.021   
    3.589       0.4829E-4     1.017       0.7955E-4     1.021   
    3.604       0.4854E-4     1.017       0.7998E-4     1.021   
    3.619       0.4879E-4     1.017       0.8042E-4     1.021   
    3.634       0.4905E-4     1.017       0.8085E-4     1.021   
    3.649       0.4930E-4     1.017       0.8129E-4     1.021   
    3.664       0.4955E-4     1.017       0.8172E-4     1.021   
    3.679       0.4980E-4     1.017       0.8216E-4     1.021   
    3.694       0.5006E-4     1.017       0.8260E-4     1.021   
    3.709       0.5031E-4     1.017       0.8305E-4     1.021   
    3.724       0.5057E-4     1.017       0.8349E-4     1.021   
    3.739       0.5083E-4     1.017       0.8394E-4     1.021   
    3.754       0.5108E-4     1.017       0.8438E-4     1.021   
    3.769       0.5134E-4     1.017       0.8483E-4     1.021   
    3.784       0.5160E-4     1.017       0.8528E-4     1.021   
    3.799       0.5186E-4     1.017       0.8573E-4     1.021   
    3.814       0.5212E-4     1.017       0.8619E-4     1.021   
    3.829       0.5238E-4     1.017       0.8664E-4     1.021   
    3.844       0.5264E-4     1.017       0.8710E-4     1.021   
    3.859       0.5290E-4     1.017       0.8755E-4     1.021   
    3.874       0.5317E-4     1.017       0.8801E-4     1.021   
    3.889       0.5343E-4     1.017       0.8847E-4     1.021   
    3.904       0.5369E-4     1.017       0.8894E-4     1.021   
    3.919       0.5396E-4     1.017       0.8940E-4     1.021   
    3.934       0.5423E-4     1.017       0.8987E-4     1.021   
    3.949       0.5449E-4     1.017       0.9034E-4     1.021   
    3.964       0.5476E-4     1.017       0.9081E-4     1.021   
    3.979       0.5503E-4     1.017       0.9128E-4     1.021   
    3.994       0.5530E-4     1.017       0.9175E-4     1.021   
    4.009       0.5557E-4     1.017       0.9222E-4     1.021   
    4.024       0.5584E-4     1.017       0.9270E-4     1.021   
    4.039       0.5611E-4     1.017       0.9318E-4     1.021   
    4.054       0.5639E-4     1.017       0.9366E-4     1.021   
    4.069       0.5666E-4     1.017       0.9414E-4     1.021   
    4.084       0.5693E-4     1.017       0.9462E-4     1.021   
    4.099       0.5721E-4     1.017       0.9511E-4     1.021   
    4.114       0.5748E-4     1.017       0.9560E-4     1.021   
    4.129       0.5776E-4     1.017       0.9609E-4     1.021   
    4.144       0.5804E-4     1.018       0.9658E-4     1.021   
    4.159       0.5832E-4     1.018       0.9707E-4     1.021   
    4.174       0.5860E-4     1.018       0.9756E-4     1.021   
    4.189       0.5888E-4     1.018       0.9806E-4     1.021   
    4.204       0.5916E-4     1.018       0.9856E-4     1.021   
    4.219       0.5944E-4     1.018       0.9906E-4     1.021   
    4.234       0.5973E-4     1.018       0.9956E-4     1.021   
    4.249       0.6001E-4     1.018       0.1001E-3     1.021   
    4.264       0.6029E-4     1.018       0.1006E-3     1.021   
    4.279       0.6058E-4     1.018       0.1011E-3     1.022   
    4.294       0.6087E-4     1.018       0.1016E-3     1.022   
    4.309       0.6115E-4     1.018       0.1021E-3     1.022   
    4.324       0.6144E-4     1.018       0.1026E-3     1.022   
    4.339       0.6173E-4     1.018       0.1031E-3     1.022   
    4.354       0.6202E-4     1.018       0.1037E-3     1.022   
    4.369       0.6232E-4     1.018       0.1042E-3     1.022   
    4.384       0.6261E-4     1.018       0.1047E-3     1.022   
    4.399       0.6290E-4     1.018       0.1052E-3     1.022   
    4.414       0.6320E-4     1.018       0.1057E-3     1.022   
    4.429       0.6349E-4     1.018       0.1063E-3     1.022   
    4.444       0.6379E-4     1.018       0.1068E-3     1.022   
    4.459       0.6409E-4     1.018       0.1073E-3     1.022   
    4.474       0.6438E-4     1.018       0.1079E-3     1.022   
    4.489       0.6468E-4     1.018       0.1084E-3     1.022   
    4.505       0.6498E-4     1.018       0.1090E-3     1.022   
    4.520       0.6529E-4     1.018       0.1095E-3     1.022   
    4.535       0.6559E-4     1.018       0.1100E-3     1.022   
    4.550       0.6589E-4     1.018       0.1106E-3     1.022   
    4.565       0.6620E-4     1.018       0.1111E-3     1.022   
    4.580       0.6650E-4     1.018       0.1117E-3     1.022   
    4.595       0.6681E-4     1.018       0.1122E-3     1.022   
    4.610       0.6712E-4     1.018       0.1128E-3     1.022   
    4.625       0.6743E-4     1.018       0.1134E-3     1.022   
    4.640       0.6774E-4     1.018       0.1139E-3     1.022   
    4.655       0.6805E-4     1.018       0.1145E-3     1.022   
    4.670       0.6836E-4     1.018       0.1150E-3     1.022   
    4.685       0.6867E-4     1.018       0.1156E-3     1.022   
    4.700       0.6899E-4     1.018       0.1162E-3     1.022   
    4.715       0.6930E-4     1.018       0.1168E-3     1.022   
    4.730       0.6962E-4     1.018       0.1173E-3     1.022   
    4.745       0.6994E-4     1.018       0.1179E-3     1.022   
    4.760       0.7025E-4     1.018       0.1185E-3     1.022   
    4.775       0.7058E-4     1.018       0.1191E-3     1.022   
    4.790       0.7090E-4     1.018       0.1197E-3     1.022   
    4.805       0.7122E-4     1.018       0.1202E-3     1.022   
    4.820       0.7154E-4     1.018       0.1208E-3     1.022   
    4.835       0.7187E-4     1.018       0.1214E-3     1.022   
    4.850       0.7219E-4     1.018       0.1220E-3     1.022   
    4.865       0.7252E-4     1.018       0.1226E-3     1.022   
    4.880       0.7285E-4     1.018       0.1232E-3     1.022   
    4.895       0.7318E-4     1.018       0.1238E-3     1.022   
    4.910       0.7351E-4     1.018       0.1244E-3     1.022   
    4.925       0.7384E-4     1.018       0.1250E-3     1.022   
    4.940       0.7417E-4     1.018       0.1257E-3     1.022   
    4.955       0.7451E-4     1.018       0.1263E-3     1.022   
    4.970       0.7485E-4     1.018       0.1269E-3     1.022   
    4.985       0.7518E-4     1.018       0.1275E-3     1.022   
    5.000       0.7552E-4     1.018       0.1281E-3     1.022   
    5.015       0.7586E-4     1.018       0.1288E-3     1.022   
    5.030       0.7620E-4     1.018       0.1294E-3     1.022   
    5.045       0.7654E-4     1.018       0.1300E-3     1.022   
    5.060       0.7689E-4     1.018       0.1307E-3     1.022   
    5.075       0.7723E-4     1.018       0.1313E-3     1.022   
    5.090       0.7758E-4     1.018       0.1319E-3     1.022   
    5.105       0.7793E-4     1.018       0.1326E-3     1.022   
    5.120       0.7828E-4     1.018       0.1332E-3     1.022   
    5.135       0.7863E-4     1.018       0.1339E-3     1.023   
    5.150       0.7898E-4     1.018       0.1345E-3     1.023   
    5.165       0.7933E-4     1.018       0.1352E-3     1.023   
    5.180       0.7968E-4     1.018       0.1358E-3     1.023   
    5.195       0.8004E-4     1.018       0.1365E-3     1.023   
    5.210       0.8040E-4     1.018       0.1372E-3     1.023   
    5.225       0.8076E-4     1.018       0.1378E-3     1.023   
    5.240       0.8112E-4     1.018       0.1385E-3     1.023   
    5.255       0.8148E-4     1.018       0.1392E-3     1.023   
    5.270       0.8184E-4     1.018       0.1399E-3     1.023   
    5.285       0.8221E-4     1.018       0.1405E-3     1.023   
    5.300       0.8257E-4     1.018       0.1412E-3     1.023   
    5.315       0.8294E-4     1.018       0.1419E-3     1.023   
    5.330       0.8331E-4     1.018       0.1426E-3     1.023   
    5.345       0.8368E-4     1.018       0.1433E-3     1.023   
    5.360       0.8405E-4     1.018       0.1440E-3     1.023   
    5.375       0.8442E-4     1.018       0.1447E-3     1.023   
    5.390       0.8480E-4     1.018       0.1454E-3     1.023   
    5.405       0.8518E-4     1.018       0.1461E-3     1.023   
    5.420       0.8555E-4     1.018       0.1468E-3     1.023   
    5.435       0.8593E-4     1.018       0.1476E-3     1.023   
    5.450       0.8632E-4     1.018       0.1483E-3     1.023   
    5.465       0.8670E-4     1.018       0.1490E-3     1.023   
    5.480       0.8708E-4     1.018       0.1497E-3     1.023   
    5.495       0.8747E-4     1.018       0.1505E-3     1.023   
    5.511       0.8786E-4     1.018       0.1512E-3     1.023   
    5.526       0.8825E-4     1.019       0.1519E-3     1.023   
    5.541       0.8864E-4     1.019       0.1527E-3     1.023   
    5.556       0.8903E-4     1.019       0.1534E-3     1.023   
    5.571       0.8943E-4     1.019       0.1542E-3     1.023   
    5.586       0.8982E-4     1.019       0.1549E-3     1.023   
    5.601       0.9022E-4     1.019       0.1557E-3     1.023   
    5.616       0.9062E-4     1.019       0.1564E-3     1.023   
    5.631       0.9102E-4     1.019       0.1572E-3     1.023   
    5.646       0.9142E-4     1.019       0.1580E-3     1.023   
    5.661       0.9183E-4     1.019       0.1587E-3     1.023   
    5.676       0.9223E-4     1.019       0.1595E-3     1.023   
    5.691       0.9264E-4     1.019       0.1603E-3     1.023   
    5.706       0.9305E-4     1.019       0.1611E-3     1.023   
    5.721       0.9347E-4     1.019       0.1619E-3     1.023   
    5.736       0.9388E-4     1.019       0.1627E-3     1.023   
    5.751       0.9429E-4     1.019       0.1635E-3     1.023   
    5.766       0.9471E-4     1.019       0.1643E-3     1.023   
    5.781       0.9513E-4     1.019       0.1651E-3     1.023   
    5.796       0.9555E-4     1.019       0.1659E-3     1.023   
    5.811       0.9598E-4     1.019       0.1667E-3     1.024   
    5.826       0.9640E-4     1.019       0.1675E-3     1.024   
    5.841       0.9683E-4     1.019       0.1684E-3     1.024   
    5.856       0.9726E-4     1.019       0.1692E-3     1.024   
    5.871       0.9769E-4     1.019       0.1700E-3     1.024   
    5.886       0.9812E-4     1.019       0.1709E-3     1.024   
    5.901       0.9856E-4     1.019       0.1717E-3     1.024   
    5.916       0.9899E-4     1.019       0.1725E-3     1.024   
    5.931       0.9943E-4     1.019       0.1734E-3     1.024   
    5.946       0.9987E-4     1.019       0.1743E-3     1.024   
    5.961       0.1003E-3     1.019       0.1751E-3     1.024   
    5.976       0.1008E-3     1.019       0.1760E-3     1.024   
    5.991       0.1012E-3     1.019       0.1769E-3     1.024   
    6.006       0.1017E-3     1.019       0.1777E-3     1.024   
    6.021       0.1021E-3     1.019       0.1786E-3     1.024   
    6.036       0.1026E-3     1.019       0.1795E-3     1.024   
    6.051       0.1030E-3     1.019       0.1804E-3     1.024   
    6.066       0.1035E-3     1.019       0.1813E-3     1.024   
    6.081       0.1039E-3     1.019       0.1822E-3     1.024   
    6.096       0.1044E-3     1.019       0.1831E-3     1.024   
    6.111       0.1049E-3     1.019       0.1840E-3     1.024   
    6.126       0.1053E-3     1.019       0.1849E-3     1.024   
    6.141       0.1058E-3     1.019       0.1858E-3     1.024   
    6.156       0.1063E-3     1.019       0.1868E-3     1.024   
    6.171       0.1067E-3     1.019       0.1877E-3     1.024   
    6.186       0.1072E-3     1.019       0.1886E-3     1.024   
    6.201       0.1077E-3     1.019       0.1896E-3     1.024   
    6.216       0.1082E-3     1.019       0.1905E-3     1.024   
    6.231       0.1087E-3     1.019       0.1915E-3     1.024   
    6.246       0.1091E-3     1.019       0.1925E-3     1.024   
    6.261       0.1096E-3     1.019       0.1934E-3     1.024   
    6.276       0.1101E-3     1.019       0.1944E-3     1.024   
    6.291       0.1106E-3     1.019       0.1954E-3     1.024   
    6.306       0.1111E-3     1.019       0.1964E-3     1.024   
    6.321       0.1116E-3     1.019       0.1973E-3     1.024   
    6.336       0.1121E-3     1.019       0.1983E-3     1.024   
    6.351       0.1126E-3     1.019       0.1993E-3     1.024   
    6.366       0.1131E-3     1.019       0.2003E-3     1.025   
    6.381       0.1136E-3     1.019       0.2014E-3     1.025   
    6.396       0.1141E-3     1.019       0.2024E-3     1.025   
    6.411       0.1146E-3     1.019       0.2034E-3     1.025   
    6.426       0.1151E-3     1.019       0.2044E-3     1.025   
    6.441       0.1157E-3     1.019       0.2055E-3     1.025   
    6.456       0.1162E-3     1.019       0.2065E-3     1.025   
    6.471       0.1167E-3     1.019       0.2076E-3     1.025   
    6.486       0.1172E-3     1.019       0.2086E-3     1.025   
    6.502       0.1178E-3     1.019       0.2097E-3     1.025   
    6.517       0.1183E-3     1.020       0.2108E-3     1.025   
    6.532       0.1188E-3     1.020       0.2118E-3     1.025   
    6.547       0.1194E-3     1.020       0.2129E-3     1.025   
    6.562       0.1199E-3     1.020       0.2140E-3     1.025   
    6.577       0.1204E-3     1.020       0.2151E-3     1.025   
    6.592       0.1210E-3     1.020       0.2162E-3     1.025   
    6.607       0.1215E-3     1.020       0.2173E-3     1.025   
    6.622       0.1221E-3     1.020       0.2185E-3     1.025   
    6.637       0.1226E-3     1.020       0.2196E-3     1.025   
    6.652       0.1232E-3     1.020       0.2207E-3     1.025   
    6.667       0.1237E-3     1.020       0.2219E-3     1.025   
    6.682       0.1243E-3     1.020       0.2230E-3     1.025   
    6.697       0.1249E-3     1.020       0.2242E-3     1.025   
    6.712       0.1254E-3     1.020       0.2253E-3     1.025   
    6.727       0.1260E-3     1.020       0.2265E-3     1.025   
    6.742       0.1266E-3     1.020       0.2277E-3     1.025   
    6.757       0.1272E-3     1.020       0.2289E-3     1.025   
    6.772       0.1277E-3     1.020       0.2300E-3     1.025   
    6.787       0.1283E-3     1.020       0.2312E-3     1.025   
    6.802       0.1289E-3     1.020       0.2325E-3     1.025   
    6.817       0.1295E-3     1.020       0.2337E-3     1.026   
    6.832       0.1301E-3     1.020       0.2349E-3     1.026   
    6.847       0.1307E-3     1.020       0.2361E-3     1.026   
    6.862       0.1313E-3     1.020       0.2374E-3     1.026   
    6.877       0.1319E-3     1.020       0.2386E-3     1.026   
    6.892       0.1325E-3     1.020       0.2399E-3     1.026   
    6.907       0.1331E-3     1.020       0.2411E-3     1.026   
    6.922       0.1337E-3     1.020       0.2424E-3     1.026   
    6.937       0.1343E-3     1.020       0.2437E-3     1.026   
    6.952       0.1350E-3     1.020       0.2450E-3     1.026   
    6.967       0.1356E-3     1.020       0.2463E-3     1.026   
    6.982       0.1362E-3     1.020       0.2476E-3     1.026   
    6.997       0.1368E-3     1.020       0.2489E-3     1.026   
    7.012       0.1375E-3     1.020       0.2502E-3     1.026   
    7.027       0.1381E-3     1.020       0.2516E-3     1.026   
    7.042       0.1388E-3     1.020       0.2529E-3     1.026   
    7.057       0.1394E-3     1.020       0.2543E-3     1.026   
    7.072       0.1401E-3     1.020       0.2556E-3     1.026   
    7.087       0.1407E-3     1.020       0.2570E-3     1.026   
    7.102       0.1414E-3     1.020       0.2584E-3     1.026   
    7.117       0.1420E-3     1.020       0.2598E-3     1.026   
    7.132       0.1427E-3     1.020       0.2612E-3     1.026   
    7.147       0.1434E-3     1.020       0.2626E-3     1.026   
    7.162       0.1440E-3     1.020       0.2640E-3     1.026   
    7.177       0.1447E-3     1.020       0.2655E-3     1.026   
    7.192       0.1454E-3     1.020       0.2669E-3     1.026   
    7.207       0.1461E-3     1.020       0.2684E-3     1.026   
    7.222       0.1468E-3     1.020       0.2698E-3     1.027   
    7.237       0.1475E-3     1.020       0.2713E-3     1.027   
    7.252       0.1481E-3     1.020       0.2728E-3     1.027   
    7.267       0.1488E-3     1.021       0.2743E-3     1.027   
    7.282       0.1496E-3     1.021       0.2758E-3     1.027   
    7.297       0.1503E-3     1.021       0.2773E-3     1.027   
    7.312       0.1510E-3     1.021       0.2788E-3     1.027   
    7.327       0.1517E-3     1.021       0.2804E-3     1.027   
    7.342       0.1524E-3     1.021       0.2819E-3     1.027   
    7.357       0.1531E-3     1.021       0.2835E-3     1.027   
    7.372       0.1539E-3     1.021       0.2851E-3     1.027   
    7.387       0.1546E-3     1.021       0.2866E-3     1.027   
    7.402       0.1553E-3     1.021       0.2882E-3     1.027   
    7.417       0.1561E-3     1.021       0.2899E-3     1.027   
    7.432       0.1568E-3     1.021       0.2915E-3     1.027   
    7.447       0.1576E-3     1.021       0.2931E-3     1.027   
    7.462       0.1584E-3     1.021       0.2948E-3     1.027   
    7.477       0.1591E-3     1.021       0.2964E-3     1.027   
    7.492       0.1599E-3     1.021       0.2981E-3     1.027   
    7.508       0.1607E-3     1.021       0.2998E-3     1.027   
    7.523       0.1614E-3     1.021       0.3015E-3     1.027   
    7.538       0.1622E-3     1.021       0.3032E-3     1.027   
    7.553       0.1630E-3     1.021       0.3049E-3     1.027   
    7.568       0.1638E-3     1.021       0.3066E-3     1.028   
    7.583       0.1646E-3     1.021       0.3084E-3     1.028   
    7.598       0.1654E-3     1.021       0.3101E-3     1.028   
    7.613       0.1662E-3     1.021       0.3119E-3     1.028   
    7.628       0.1670E-3     1.021       0.3137E-3     1.028   
    7.643       0.1678E-3     1.021       0.3155E-3     1.028   
    7.658       0.1687E-3     1.021       0.3173E-3     1.028   
    7.673       0.1695E-3     1.021       0.3192E-3     1.028   
    7.688       0.1703E-3     1.021       0.3210E-3     1.028   
    7.703       0.1712E-3     1.021       0.3229E-3     1.028   
    7.718       0.1720E-3     1.021       0.3247E-3     1.028   
    7.733       0.1729E-3     1.021       0.3266E-3     1.028   
    7.748       0.1737E-3     1.021       0.3285E-3     1.028   
    7.763       0.1746E-3     1.021       0.3305E-3     1.028   
    7.778       0.1755E-3     1.021       0.3324E-3     1.028   
    7.793       0.1763E-3     1.021       0.3343E-3     1.028   
    7.808       0.1772E-3     1.021       0.3363E-3     1.028   
    7.823       0.1781E-3     1.021       0.3383E-3     1.028   
    7.838       0.1790E-3     1.021       0.3403E-3     1.028   
    7.853       0.1799E-3     1.021       0.3423E-3     1.028   
    7.868       0.1808E-3     1.021       0.3443E-3     1.028   
    7.883       0.1817E-3     1.022       0.3464E-3     1.029   
    7.898       0.1826E-3     1.022       0.3485E-3     1.029   
    7.913       0.1835E-3     1.022       0.3506E-3     1.029   
    7.928       0.1845E-3     1.022       0.3527E-3     1.029   
    7.943       0.1854E-3     1.022       0.3548E-3     1.029   
    7.958       0.1863E-3     1.022       0.3569E-3     1.029   
    7.973       0.1873E-3     1.022       0.3591E-3     1.029   
    7.988       0.1882E-3     1.022       0.3612E-3     1.029   
    8.003       0.1892E-3     1.022       0.3634E-3     1.029   
    8.018       0.1902E-3     1.022       0.3656E-3     1.029   
    8.033       0.1912E-3     1.022       0.3679E-3     1.029   
    8.048       0.1921E-3     1.022       0.3701E-3     1.029   
    8.063       0.1931E-3     1.022       0.3724E-3     1.029   
    8.078       0.1941E-3     1.022       0.3747E-3     1.029   
    8.093       0.1951E-3     1.022       0.3770E-3     1.029   
    8.108       0.1961E-3     1.022       0.3793E-3     1.029   
    8.123       0.1972E-3     1.022       0.3816E-3     1.029   
    8.138       0.1982E-3     1.022       0.3840E-3     1.029   
    8.153       0.1992E-3     1.022       0.3864E-3     1.030   
    8.168       0.2003E-3     1.022       0.3888E-3     1.030   
    8.183       0.2013E-3     1.022       0.3912E-3     1.030   
    8.198       0.2024E-3     1.022       0.3937E-3     1.030   
    8.213       0.2034E-3     1.022       0.3962E-3     1.030   
    8.228       0.2045E-3     1.022       0.3987E-3     1.030   
    8.243       0.2056E-3     1.022       0.4012E-3     1.030   
    8.258       0.2067E-3     1.022       0.4037E-3     1.030   
    8.273       0.2077E-3     1.022       0.4063E-3     1.030   
    8.288       0.2089E-3     1.022       0.4089E-3     1.030   
    8.303       0.2100E-3     1.022       0.4115E-3     1.030   
    8.318       0.2111E-3     1.022       0.4141E-3     1.030   
    8.333       0.2122E-3     1.022       0.4168E-3     1.030   
    8.348       0.2133E-3     1.022       0.4194E-3     1.030   
    8.363       0.2145E-3     1.022       0.4221E-3     1.030   
    8.378       0.2156E-3     1.023       0.4249E-3     1.030   
    8.393       0.2168E-3     1.023       0.4276E-3     1.031   
    8.408       0.2180E-3     1.023       0.4304E-3     1.031   
    8.423       0.2192E-3     1.023       0.4332E-3     1.031   
    8.438       0.2204E-3     1.023       0.4361E-3     1.031   
    8.453       0.2216E-3     1.023       0.4389E-3     1.031   
    8.468       0.2228E-3     1.023       0.4418E-3     1.031   
    8.483       0.2240E-3     1.023       0.4447E-3     1.031   
    8.498       0.2252E-3     1.023       0.4477E-3     1.031   
    8.514       0.2264E-3     1.023       0.4506E-3     1.031   
    8.529       0.2277E-3     1.023       0.4536E-3     1.031   
    8.544       0.2289E-3     1.023       0.4567E-3     1.031   
    8.559       0.2302E-3     1.023       0.4597E-3     1.031   
    8.574       0.2315E-3     1.023       0.4628E-3     1.031   
    8.589       0.2328E-3     1.023       0.4659E-3     1.031   
    8.604       0.2341E-3     1.023       0.4691E-3     1.031   
    8.619       0.2354E-3     1.023       0.4723E-3     1.032   
    8.634       0.2367E-3     1.023       0.4755E-3     1.032   
    8.649       0.2380E-3     1.023       0.4787E-3     1.032   
    8.664       0.2394E-3     1.023       0.4820E-3     1.032   
    8.679       0.2407E-3     1.023       0.4853E-3     1.032   
    8.694       0.2421E-3     1.023       0.4886E-3     1.032   
    8.709       0.2435E-3     1.023       0.4920E-3     1.032   
    8.724       0.2448E-3     1.023       0.4954E-3     1.032   
    8.739       0.2462E-3     1.023       0.4988E-3     1.032   
    8.754       0.2476E-3     1.023       0.5023E-3     1.032   
    8.769       0.2491E-3     1.023       0.5058E-3     1.032   
    8.784       0.2505E-3     1.023       0.5094E-3     1.032   
    8.799       0.2519E-3     1.023       0.5130E-3     1.032   
    8.814       0.2534E-3     1.024       0.5166E-3     1.032   
    8.829       0.2549E-3     1.024       0.5202E-3     1.033   
    8.844       0.2563E-3     1.024       0.5239E-3     1.033   
    8.859       0.2578E-3     1.024       0.5277E-3     1.033   
    8.874       0.2593E-3     1.024       0.5314E-3     1.033   
    8.889       0.2609E-3     1.024       0.5353E-3     1.033   
    8.904       0.2624E-3     1.024       0.5391E-3     1.033   
    8.919       0.2639E-3     1.024       0.5430E-3     1.033   
    8.934       0.2655E-3     1.024       0.5469E-3     1.033   
    8.949       0.2671E-3     1.024       0.5509E-3     1.033   
    8.964       0.2687E-3     1.024       0.5549E-3     1.033   
    8.979       0.2703E-3     1.024       0.5590E-3     1.033   
    8.994       0.2719E-3     1.024       0.5631E-3     1.033   
    9.009       0.2735E-3     1.024       0.5673E-3     1.034   
    9.024       0.2751E-3     1.024       0.5715E-3     1.034   
    9.039       0.2768E-3     1.024       0.5757E-3     1.034   
    9.054       0.2785E-3     1.024       0.5800E-3     1.034   
    9.069       0.2802E-3     1.024       0.5843E-3     1.034   
    9.084       0.2819E-3     1.024       0.5887E-3     1.034   
    9.099       0.2836E-3     1.024       0.5932E-3     1.034   
    9.114       0.2853E-3     1.024       0.5977E-3     1.034   
    9.129       0.2871E-3     1.024       0.6022E-3     1.034   
    9.144       0.2888E-3     1.024       0.6068E-3     1.034   
    9.159       0.2906E-3     1.024       0.6114E-3     1.034   
    9.174       0.2924E-3     1.025       0.6161E-3     1.035   
    9.189       0.2942E-3     1.025       0.6209E-3     1.035   
    9.204       0.2961E-3     1.025       0.6257E-3     1.035   
    9.219       0.2979E-3     1.025       0.6305E-3     1.035   
    9.234       0.2998E-3     1.025       0.6354E-3     1.035   
    9.249       0.3017E-3     1.025       0.6404E-3     1.035   
    9.264       0.3036E-3     1.025       0.6454E-3     1.035   
    9.279       0.3055E-3     1.025       0.6505E-3     1.035   
    9.294       0.3074E-3     1.025       0.6556E-3     1.035   
    9.309       0.3094E-3     1.025       0.6609E-3     1.035   
    9.324       0.3114E-3     1.025       0.6661E-3     1.035   
    9.339       0.3134E-3     1.025       0.6715E-3     1.036   
    9.354       0.3154E-3     1.025       0.6768E-3     1.036   
    9.369       0.3174E-3     1.025       0.6823E-3     1.036   
    9.384       0.3195E-3     1.025       0.6878E-3     1.036   
    9.399       0.3215E-3     1.025       0.6934E-3     1.036   
    9.414       0.3236E-3     1.025       0.6991E-3     1.036   
    9.429       0.3258E-3     1.025       0.7048E-3     1.036   
    9.444       0.3279E-3     1.025       0.7106E-3     1.036   
    9.459       0.3300E-3     1.025       0.7165E-3     1.036   
    9.474       0.3322E-3     1.025       0.7225E-3     1.037   
    9.489       0.3344E-3     1.025       0.7285E-3     1.037   
    9.505       0.3367E-3     1.026       0.7346E-3     1.037   
    9.520       0.3389E-3     1.026       0.7407E-3     1.037   
    9.535       0.3412E-3     1.026       0.7470E-3     1.037   
    9.550       0.3435E-3     1.026       0.7533E-3     1.037   
    9.565       0.3458E-3     1.026       0.7598E-3     1.037   
    9.580       0.3481E-3     1.026       0.7662E-3     1.037   
    9.595       0.3505E-3     1.026       0.7728E-3     1.037   
    9.610       0.3529E-3     1.026       0.7795E-3     1.038   
    9.625       0.3553E-3     1.026       0.7863E-3     1.038   
    9.640       0.3578E-3     1.026       0.7931E-3     1.038   
    9.655       0.3602E-3     1.026       0.8000E-3     1.038   
    9.670       0.3627E-3     1.026       0.8071E-3     1.038   
    9.685       0.3652E-3     1.026       0.8142E-3     1.038   
    9.700       0.3678E-3     1.026       0.8214E-3     1.038   
    9.715       0.3704E-3     1.026       0.8287E-3     1.038   
    9.730       0.3730E-3     1.026       0.8361E-3     1.038   
    9.745       0.3756E-3     1.026       0.8436E-3     1.039   
    9.760       0.3783E-3     1.026       0.8512E-3     1.039   
    9.775       0.3810E-3     1.027       0.8590E-3     1.039   
    9.790       0.3837E-3     1.027       0.8668E-3     1.039   
    9.805       0.3864E-3     1.027       0.8747E-3     1.039   
    9.820       0.3892E-3     1.027       0.8828E-3     1.039   
    9.835       0.3920E-3     1.027       0.8909E-3     1.039   
    9.850       0.3949E-3     1.027       0.8992E-3     1.040   
    9.865       0.3977E-3     1.027       0.9076E-3     1.040   
    9.880       0.4007E-3     1.027       0.9161E-3     1.040   
    9.895       0.4036E-3     1.027       0.9247E-3     1.040   
    9.910       0.4066E-3     1.027       0.9335E-3     1.040   
    9.925       0.4096E-3     1.027       0.9423E-3     1.040   
    9.940       0.4126E-3     1.027       0.9514E-3     1.040   
    9.955       0.4157E-3     1.027       0.9605E-3     1.041   
    9.970       0.4188E-3     1.027       0.9698E-3     1.041   
    9.985       0.4220E-3     1.027       0.9792E-3     1.041   
    10.00       0.4252E-3     1.027       0.9887E-3     1.041   
    10.02       0.4284E-3     1.027       0.9984E-3     1.041   
    10.03       0.4317E-3     1.028       0.1008E-2     1.041   
    10.05       0.4350E-3     1.028       0.1018E-2     1.041   
    10.06       0.4383E-3     1.028       0.1028E-2     1.042   
    10.08       0.4417E-3     1.028       0.1039E-2     1.042   
    10.09       0.4451E-3     1.028       0.1049E-2     1.042   
    10.11       0.4486E-3     1.028       0.1060E-2     1.042   
    10.12       0.4521E-3     1.028       0.1071E-2     1.042   
    10.14       0.4557E-3     1.028       0.1082E-2     1.042   
    10.15       0.4593E-3     1.028       0.1093E-2     1.043   
    10.17       0.4629E-3     1.028       0.1104E-2     1.043   
    10.18       0.4666E-3     1.028       0.1115E-2     1.043   
    10.20       0.4704E-3     1.028       0.1127E-2     1.043   
    10.21       0.4742E-3     1.028       0.1139E-2     1.043   
    10.23       0.4780E-3     1.028       0.1151E-2     1.043   
    10.24       0.4819E-3     1.028       0.1163E-2     1.044   
    10.26       0.4858E-3     1.029       0.1176E-2     1.044   
    10.27       0.4898E-3     1.029       0.1188E-2     1.044   
    10.29       0.4938E-3     1.029       0.1201E-2     1.044   
    10.30       0.4979E-3     1.029       0.1214E-2     1.044   
    10.32       0.5021E-3     1.029       0.1228E-2     1.044   
    10.33       0.5063E-3     1.029       0.1241E-2     1.045   
    10.35       0.5105E-3     1.029       0.1255E-2     1.045   
    10.36       0.5148E-3     1.029       0.1269E-2     1.045   
    10.38       0.5192E-3     1.029       0.1283E-2     1.045   
    10.39       0.5236E-3     1.029       0.1298E-2     1.045   
    10.41       0.5281E-3     1.029       0.1312E-2     1.046   
    10.42       0.5327E-3     1.029       0.1327E-2     1.046   
    10.44       0.5373E-3     1.029       0.1343E-2     1.046   
    10.45       0.5420E-3     1.030       0.1358E-2     1.046   
    10.47       0.5467E-3     1.030       0.1374E-2     1.046   
    10.48       0.5515E-3     1.030       0.1390E-2     1.047   
    10.50       0.5564E-3     1.030       0.1406E-2     1.047   
    10.51       0.5614E-3     1.030       0.1423E-2     1.047   
    10.53       0.5664E-3     1.030       0.1440E-2     1.047   
    10.54       0.5715E-3     1.030       0.1457E-2     1.047   
    10.56       0.5766E-3     1.030       0.1475E-2     1.048   
    10.57       0.5819E-3     1.030       0.1493E-2     1.048   
    10.59       0.5872E-3     1.030       0.1511E-2     1.048   
    10.60       0.5926E-3     1.030       0.1530E-2     1.048   
    10.62       0.5981E-3     1.031       0.1549E-2     1.049   
    10.63       0.6036E-3     1.031       0.1568E-2     1.049   
    10.65       0.6093E-3     1.031       0.1588E-2     1.049   
    10.66       0.6150E-3     1.031       0.1608E-2     1.049   
    10.68       0.6208E-3     1.031       0.1628E-2     1.049   
    10.69       0.6267E-3     1.031       0.1649E-2     1.050   
    10.71       0.6327E-3     1.031       0.1671E-2     1.050   
    10.72       0.6388E-3     1.031       0.1693E-2     1.050   
    10.74       0.6449E-3     1.031       0.1715E-2     1.050   
    10.75       0.6512E-3     1.031       0.1737E-2     1.051   
    10.77       0.6576E-3     1.031       0.1761E-2     1.051   
    10.78       0.6640E-3     1.032       0.1784E-2     1.051   
    10.80       0.6706E-3     1.032       0.1808E-2     1.052   
    10.81       0.6773E-3     1.032       0.1833E-2     1.052   
    10.83       0.6841E-3     1.032       0.1858E-2     1.052   
    10.84       0.6910E-3     1.032       0.1884E-2     1.052   
    10.86       0.6980E-3     1.032       0.1910E-2     1.053   
    10.87       0.7051E-3     1.032       0.1937E-2     1.053   
    10.89       0.7124E-3     1.032       0.1964E-2     1.053   
    10.90       0.7197E-3     1.032       0.1992E-2     1.054   
    10.92       0.7272E-3     1.032       0.2021E-2     1.054   
    10.93       0.7348E-3     1.033       0.2050E-2     1.054   
    10.95       0.7426E-3     1.033       0.2080E-2     1.054   
    10.96       0.7505E-3     1.033       0.2111E-2     1.055   
    10.98       0.7585E-3     1.033       0.2142E-2     1.055   
    10.99       0.7666E-3     1.033       0.2174E-2     1.055   
    11.01       0.7749E-3     1.033       0.2207E-2     1.056   
    11.02       0.7834E-3     1.033       0.2240E-2     1.056   
    11.04       0.7920E-3     1.033       0.2275E-2     1.056   
    11.05       0.8007E-3     1.034       0.2310E-2     1.057   
    11.07       0.8096E-3     1.034       0.2346E-2     1.057   
    11.08       0.8187E-3     1.034       0.2383E-2     1.057   
    11.10       0.8279E-3     1.034       0.2421E-2     1.058   
    11.11       0.8373E-3     1.034       0.2459E-2     1.058   
    11.13       0.8469E-3     1.034       0.2499E-2     1.059   
    11.14       0.8566E-3     1.034       0.2540E-2     1.059   
    11.16       0.8666E-3     1.034       0.2582E-2     1.059   
    11.17       0.8767E-3     1.035       0.2624E-2     1.060   
    11.19       0.8870E-3     1.035       0.2668E-2     1.060   
    11.20       0.8975E-3     1.035       0.2714E-2     1.060   
    11.22       0.9082E-3     1.035       0.2760E-2     1.061   
    11.23       0.9191E-3     1.035       0.2807E-2     1.061   
    11.25       0.9303E-3     1.035       0.2856E-2     1.062   
    11.26       0.9417E-3     1.035       0.2906E-2     1.062   
    11.28       0.9532E-3     1.035       0.2958E-2     1.063   
    11.29       0.9651E-3     1.036       0.3011E-2     1.063   
    11.31       0.9771E-3     1.036       0.3065E-2     1.063   
    11.32       0.9894E-3     1.036       0.3121E-2     1.064   
    11.34       0.1002E-2     1.036       0.3179E-2     1.064   
    11.35       0.1015E-2     1.036       0.3238E-2     1.065   
    11.37       0.1028E-2     1.036       0.3299E-2     1.065   
    11.38       0.1041E-2     1.037       0.3362E-2     1.066   
    11.40       0.1055E-2     1.037       0.3427E-2     1.066   
    11.41       0.1069E-2     1.037       0.3493E-2     1.067   
    11.43       0.1083E-2     1.037       0.3562E-2     1.067   
    11.44       0.1098E-2     1.037       0.3633E-2     1.068   
    11.46       0.1113E-2     1.037       0.3706E-2     1.068   
    11.47       0.1128E-2     1.037       0.3781E-2     1.069   
    11.49       0.1143E-2     1.038       0.3859E-2     1.070   
    11.50       0.1159E-2     1.038       0.3939E-2     1.070   
    11.52       0.1176E-2     1.038       0.4021E-2     1.071   
    11.53       0.1192E-2     1.038       0.4107E-2     1.071   
    11.55       0.1209E-2     1.038       0.4195E-2     1.072   
    11.56       0.1227E-2     1.039       0.4287E-2     1.073   
    11.58       0.1245E-2     1.039       0.4381E-2     1.073   
    11.59       0.1263E-2     1.039       0.4479E-2     1.074   
    11.61       0.1282E-2     1.039       0.4580E-2     1.075   
    11.62       0.1301E-2     1.039       0.4684E-2     1.075   
    11.64       0.1320E-2     1.039       0.4793E-2     1.076   
    11.65       0.1340E-2     1.040       0.4905E-2     1.077   
    11.67       0.1361E-2     1.040       0.5022E-2     1.077   
    11.68       0.1382E-2     1.040       0.5142E-2     1.078   
    11.70       0.1404E-2     1.040       0.5268E-2     1.079   
    11.71       0.1426E-2     1.041       0.5398E-2     1.080   
    11.73       0.1449E-2     1.041       0.5533E-2     1.081   
    11.74       0.1472E-2     1.041       0.5674E-2     1.081   
    11.76       0.1496E-2     1.041       0.5820E-2     1.082   
    11.77       0.1521E-2     1.041       0.5972E-2     1.083   
    11.79       0.1546E-2     1.042       0.6130E-2     1.084   
    11.80       0.1573E-2     1.042       0.6294E-2     1.085   
    11.82       0.1599E-2     1.042       0.6466E-2     1.086   
    11.83       0.1627E-2     1.042       0.6645E-2     1.087   
    11.85       0.1655E-2     1.043       0.6832E-2     1.088   
    11.86       0.1684E-2     1.043       0.7026E-2     1.089   
    11.88       0.1714E-2     1.043       0.7230E-2     1.090   
    11.89       0.1745E-2     1.043       0.7443E-2     1.091   
    11.91       0.1777E-2     1.044       0.7665E-2     1.092   
    11.92       0.1809E-2     1.044       0.7898E-2     1.093   
    11.94       0.1843E-2     1.044       0.8142E-2     1.094   
    11.95       0.1878E-2     1.044       0.8398E-2     1.096   
    11.97       0.1913E-2     1.045       0.8667E-2     1.097   
    11.98       0.1950E-2     1.045       0.8948E-2     1.098   
    12.00       0.1988E-2     1.045       0.9244E-2     1.100   
    12.01       0.2028E-2     1.046       0.9556E-2     1.101   
    12.03       0.2068E-2     1.046       0.9883E-2     1.102   
    12.04       0.2110E-2     1.046       0.1023E-1     1.104   
    12.06       0.2153E-2     1.047       0.1059E-1     1.105   
    12.07       0.2198E-2     1.047       0.1098E-1     1.107   
    12.09       0.2244E-2     1.047       0.1138E-1     1.109   
    12.10       0.2292E-2     1.048       0.1181E-1     1.110   
    12.12       0.2341E-2     1.048       0.1227E-1     1.112   
    12.13       0.2392E-2     1.048       0.1275E-1     1.114   
    12.15       0.2445E-2     1.049       0.1326E-1     1.116   
    12.16       0.2500E-2     1.049       0.1380E-1     1.118   
    12.18       0.2557E-2     1.049       0.1438E-1     1.120   
    12.19       0.2616E-2     1.050       0.1500E-1     1.122   
    12.21       0.2677E-2     1.050       0.1565E-1     1.124   
    12.22       0.2741E-2     1.050       0.1636E-1     1.126   
    12.24       0.2807E-2     1.051       0.1711E-1     1.129   
    12.25       0.2876E-2     1.051       0.1791E-1     1.131   
    12.27       0.2947E-2     1.052       0.1877E-1     1.134   
    12.28       0.3021E-2     1.052       0.1970E-1     1.136   
    12.30       0.3099E-2     1.053       0.2069E-1     1.139   
    12.31       0.3179E-2     1.053       0.2177E-1     1.142   
    12.33       0.3263E-2     1.054       0.2293E-1     1.145   
    12.34       0.3351E-2     1.054       0.2419E-1     1.149   
    12.36       0.3442E-2     1.055       0.2556E-1     1.152   
    12.37       0.3537E-2     1.055       0.2704E-1     1.156   
    12.39       0.3637E-2     1.056       0.2866E-1     1.160   
    12.40       0.3741E-2     1.056       0.3043E-1     1.164   
    12.42       0.3850E-2     1.057       0.3237E-1     1.168   
    12.43       0.3964E-2     1.057       0.3449E-1     1.173   
    12.45       0.4084E-2     1.058       0.3684E-1     1.177   
    12.46       0.4209E-2     1.058       0.3942E-1     1.183   
    12.48       0.4341E-2     1.059       0.4229E-1     1.188   
    12.49       0.4479E-2     1.060       0.4548E-1     1.194   
    12.51       0.4624E-2     1.060       0.4903E-1     1.200   
    12.52       0.4777E-2     1.061       0.5302E-1     1.206   
    12.54       0.4938E-2     1.062       0.5749E-1     1.213   
    12.55       0.5108E-2     1.063       0.6255E-1     1.221   
    12.57       0.5287E-2     1.063       0.6828E-1     1.229   
    12.58       0.5477E-2     1.064       0.7481E-1     1.237   
    12.60       0.5677E-2     1.065       0.8228E-1     1.246   
    12.61       0.5889E-2     1.066       0.9088E-1     1.256   
    12.63       0.6113E-2     1.067       0.1008        1.266   
    12.64       0.6352E-2     1.068       0.1124        1.277   
    12.66       0.6605E-2     1.068       0.1259        1.289   
    12.67       0.6874E-2     1.069       0.1418        1.301   
    12.69       0.7161E-2     1.070       0.1606        1.314   
    12.70       0.7466E-2     1.071       0.1829        1.326   
    12.72       0.7793E-2     1.073       0.2095        1.339   
    12.73       0.8142E-2     1.074       0.2412        1.350   
    12.75       0.8516E-2     1.075       0.2790        1.359   
    12.76       0.8918E-2     1.076       0.3238        1.364   
    12.78       0.9350E-2     1.077       0.3761        1.362   
    12.79       0.9814E-2     1.079       0.4354        1.350   
    12.81       0.1032E-1     1.080       0.4998        1.323   
    12.82       0.1086E-1     1.082       0.5645        1.277   
    12.84       0.1144E-1     1.083       0.6216        1.209   
    12.85       0.1208E-1     1.085       0.6609        1.121   
    12.87       0.1277E-1     1.087       0.6738        1.022   
    12.88288      0.01353      1.08849      0.65699      0.92375
    12.89790      0.01435      1.09040      0.61470      0.83850
    12.91291      0.01526      1.09243      0.55609      0.77349
    12.92793      0.01625      1.09456      0.49106      0.72999
    12.94294      0.01734      1.09683      0.42715      0.70519
    12.95796      0.01855      1.09923      0.36870      0.69461
    12.97297      0.01989      1.10177      0.31749      0.69389
    12.98799      0.02138      1.10448      0.27374      0.69954
    13.00300      0.02305      1.10735      0.23683      0.70901
    13.01802      0.02492      1.11042      0.20588      0.72056
    13.03303      0.02702      1.11368      0.17994      0.73308
    13.04805      0.02939      1.11717      0.15817      0.74585
    13.06306      0.03208      1.12089      0.13983      0.75844
    13.07808      0.03515      1.12487      0.12431      0.77060
    13.09309      0.03867      1.12912      0.11110      0.78219
    13.10811      0.04272      1.13366      0.09979      0.79315
    13.12312      0.04741      1.13849      0.09007      0.80347
    13.13814      0.05287      1.14361      0.08166      0.81315
    13.15315      0.05927      1.14902      0.07435      0.82222
    13.16817      0.06680      1.15467      0.06797      0.83071
    13.18318      0.07570      1.16048      0.06236      0.83866
    13.19820      0.08628      1.16632      0.05742      0.84611
    13.21321      0.09890      1.17194      0.05304      0.85309
    13.22823      0.11396      1.17697      0.04914      0.85965
    13.24324      0.13188      1.18079      0.04567      0.86582
    13.25826      0.15305      1.18250      0.04256      0.87162
    13.27327      0.17763      1.18078      0.03976      0.87708
    13.28829      0.20533      1.17388      0.03724      0.88225
    13.30330      0.23494      1.15973      0.03496      0.88712
    13.31832      0.26397      1.13645      0.03289      0.89174
    13.33333      0.28850      1.10331      0.03101      0.89612
    13.34835      0.30391      1.06186      0.02929      0.90027
    13.36336      0.30666      1.01634      0.02772      0.90423
    13.37838      0.29605      0.97262      0.02629      0.90799
    13.39339      0.27465      0.93580      0.02497      0.91157
    13.40841      0.24691      0.90856      0.02376      0.91500
    13.42342      0.21717      0.89095      0.02265      0.91827
    13.43844      0.18852      0.88141      0.02162      0.92140
    13.45345      0.16263      0.87786      0.02067      0.92441
    13.46847      0.14011      0.87840      0.01979      0.92729
    13.48348      0.12094      0.88153      0.01897      0.93005
    13.49850      0.10481      0.88619      0.01822      0.93272
    13.51351      0.09129      0.89166      0.01751      0.93528
    13.52853      0.07995      0.89748      0.01686      0.93775
    13.54354      0.07044      0.90336      0.01625      0.94014
    13.55856      0.06241      0.90912      0.01568      0.94244
    13.57357      0.05561      0.91467      0.01516      0.94468
    13.58859      0.04981      0.91996      0.01466      0.94684
    13.60360      0.04485      0.92496      0.01420      0.94893
    13.61862      0.04058      0.92966      0.01377      0.95096
    13.63       0.3688E-1    0.9341       0.1337E-1    0.9529   
    13.65       0.3366E-1    0.9382       0.1300E-1    0.9549   
    13.66       0.3085E-1    0.9421       0.1264E-1    0.9567   
    13.68       0.2837E-1    0.9457       0.1232E-1    0.9586   
    13.69       0.2619E-1    0.9492       0.1201E-1    0.9603   
    13.71       0.2426E-1    0.9524       0.1173E-1    0.9621   
    13.72       0.2254E-1    0.9554       0.1146E-1    0.9638   
    13.74       0.2101E-1    0.9583       0.1121E-1    0.9654   
    13.75       0.1963E-1    0.9609       0.1098E-1    0.9671   
    13.77       0.1840E-1    0.9635       0.1077E-1    0.9687   
    13.78       0.1728E-1    0.9659       0.1057E-1    0.9702   
    13.80       0.1627E-1    0.9682       0.1038E-1    0.9718   
    13.81       0.1536E-1    0.9703       0.1021E-1    0.9733   
    13.83       0.1453E-1    0.9724       0.1006E-1    0.9748   
    13.84       0.1377E-1    0.9744       0.9913E-2    0.9762   
    13.86       0.1308E-1    0.9762       0.9782E-2    0.9777   
    13.87       0.1245E-1    0.9780       0.9663E-2    0.9791   
    13.89       0.1187E-1    0.9797       0.9557E-2    0.9805   
    13.90       0.1134E-1    0.9814       0.9461E-2    0.9819   
    13.92       0.1085E-1    0.9829       0.9377E-2    0.9833   
    13.93       0.1040E-1    0.9844       0.9304E-2    0.9847   
    13.95       0.9988E-2    0.9859       0.9242E-2    0.9861   
    13.96       0.9605E-2    0.9873       0.9191E-2    0.9874   
    13.98       0.9251E-2    0.9886       0.9150E-2    0.9888   
    13.99       0.8923E-2    0.9900       0.9120E-2    0.9901   
    14.01       0.8619E-2    0.9912       0.9101E-2    0.9915   
    14.02       0.8338E-2    0.9924       0.9093E-2    0.9928   
    14.04       0.8077E-2    0.9936       0.9095E-2    0.9942   
    14.05       0.7835E-2    0.9948       0.9108E-2    0.9955   
    14.07       0.7610E-2    0.9959       0.9133E-2    0.9968   
    14.08       0.7402E-2    0.9970       0.9169E-2    0.9982   
    14.10       0.7208E-2    0.9981       0.9216E-2    0.9995   
    14.11       0.7029E-2    0.9991       0.9275E-2     1.001   
    14.13       0.6862E-2     1.000       0.9347E-2     1.002   
    14.14       0.6708E-2     1.001       0.9432E-2     1.004   
    14.16       0.6566E-2     1.002       0.9530E-2     1.005   
    14.17       0.6434E-2     1.003       0.9641E-2     1.006   
    14.19       0.6312E-2     1.004       0.9768E-2     1.008   
    14.20       0.6200E-2     1.005       0.9910E-2     1.009   
    14.22       0.6096E-2     1.006       0.1007E-1     1.011   
    14.23       0.6002E-2     1.007       0.1024E-1     1.012   
    14.25       0.5915E-2     1.008       0.1044E-1     1.014   
    14.26       0.5837E-2     1.008       0.1065E-1     1.015   
    14.28       0.5766E-2     1.009       0.1088E-1     1.017   
    14.29       0.5702E-2     1.010       0.1114E-1     1.018   
    14.31       0.5645E-2     1.011       0.1142E-1     1.020   
    14.32       0.5595E-2     1.012       0.1172E-1     1.022   
    14.34       0.5551E-2     1.013       0.1206E-1     1.024   
    14.35       0.5513E-2     1.013       0.1242E-1     1.025   
    14.37       0.5482E-2     1.014       0.1282E-1     1.027   
    14.38       0.5457E-2     1.015       0.1325E-1     1.029   
    14.40       0.5438E-2     1.016       0.1372E-1     1.031   
    14.41       0.5424E-2     1.017       0.1424E-1     1.033   
    14.43       0.5416E-2     1.017       0.1481E-1     1.035   
    14.44       0.5415E-2     1.018       0.1542E-1     1.037   
    14.46       0.5418E-2     1.019       0.1610E-1     1.039   
    14.47       0.5428E-2     1.020       0.1684E-1     1.042   
    14.49       0.5443E-2     1.021       0.1765E-1     1.044   
    14.50       0.5464E-2     1.021       0.1855E-1     1.047   
    14.52       0.5491E-2     1.022       0.1953E-1     1.049   
    14.53       0.5524E-2     1.023       0.2062E-1     1.052   
    14.55       0.5563E-2     1.024       0.2183E-1     1.055   
    14.56       0.5608E-2     1.025       0.2317E-1     1.058   
    14.58       0.5660E-2     1.026       0.2466E-1     1.061   
    14.59       0.5718E-2     1.026       0.2632E-1     1.064   
    14.61       0.5782E-2     1.027       0.2818E-1     1.068   
    14.62       0.5854E-2     1.028       0.3027E-1     1.072   
    14.64       0.5933E-2     1.029       0.3263E-1     1.076   
    14.65       0.6019E-2     1.030       0.3530E-1     1.080   
    14.67       0.6113E-2     1.031       0.3834E-1     1.085   
    14.68       0.6216E-2     1.032       0.4181E-1     1.089   
    14.70       0.6327E-2     1.033       0.4578E-1     1.094   
    14.71       0.6447E-2     1.033       0.5037E-1     1.100   
    14.73       0.6577E-2     1.034       0.5568E-1     1.106   
    14.74       0.6717E-2     1.035       0.6187E-1     1.112   
    14.76       0.6867E-2     1.036       0.6912E-1     1.118   
    14.77       0.7029E-2     1.037       0.7766E-1     1.125   
    14.79       0.7204E-2     1.038       0.8776E-1     1.132   
    14.80       0.7391E-2     1.040       0.9977E-1     1.139   
    14.82       0.7592E-2     1.041       0.1141        1.145   
    14.83       0.7808E-2     1.042       0.1312        1.151   
    14.85       0.8040E-2     1.043       0.1516        1.156   
    14.86       0.8290E-2     1.044       0.1756        1.159   
    14.88       0.8558E-2     1.045       0.2037        1.157   
    14.89       0.8846E-2     1.047       0.2354        1.150   
    14.91       0.9156E-2     1.048       0.2695        1.135   
    14.92       0.9491E-2     1.049       0.3032        1.109   
    14.94       0.9851E-2     1.051       0.3323        1.072   
    14.95       0.1024E-1     1.052       0.3512        1.025   
    14.97       0.1066E-1     1.054       0.3558       0.9724   
    14.98       0.1111E-1     1.055       0.3448       0.9215   
    15.00       0.1160E-1     1.057       0.3210       0.8782   
# 
# 07/24/2018 at 09:14 YAMBO @ NewLaptop [start]
# 07/24/2018 at 09:14                   [end]
#  
# Timing   [Min/Max/Average]: 01s/01s/01s
#
# .-Input file : yambo.in
# | optics                         # [R OPT] Optics
# | bse                            # [R BSE] Bethe Salpeter Equation.
# | bsk                            # [R BSK] Bethe Salpeter Equation kernel
# | bss                            # [R BSS] Bethe Salpeter Equation solver
# | BoseTemp= 0.000000     eV      # Bosonic Temperature
# | FFTGvecs=  4945        RL      # [FFT] Plane-waves
# | NonPDirs= "XYZ"                # [X/BSS] Non periodic chartesian directions (X,Y,Z,XY...)
# | BSEmod= "retarded"             # [BSE] resonant/retarded/coupling
# | BSKmod= "Hartree"              # [BSE] IP/Hartree/HF/ALDA/SEX/BSfxc
# | BSSmod= "hd"                   # [BSS] (h)aydock/(d)iagonalization/(i)nversion/(t)ddft`
# | BSENGexx=  4067        RL      # [BSK] Exchange components
# | % BEnRange
# |   0.00000 | 15.00000 | eV      # [BSS] Energy range
# | %
# | % BDmRange
# |   0.10000 |  0.10000 | eV      # [BSS] Damping range
# | %
# | BEnSteps= 1000                 # [BSS] Energy steps
# | % BLongDir
# | 0.1000E-4 | 0.000    | 0.000    |        # [BSS] [cc] Electric Field
# | %
# | % BSEBands
# |    1 |  50 |                   # [BSK] Bands range
# | %
# | BSHayTrs=0.1000E-2             # [BSS] Relative [o/o] Haydock treshold. Strict(>0)/Average(<0)
