#                                                           
#  **    **    **     ****     ****  ******     *******     
# //**  **    ****   /**/**   **/** /*////**   **/////**    
#  //****    **//**  /**//** ** /** /*   /**  **     //**   
#   //**    **  //** /** //***  /** /******  /**      /**   
#    /**   **********/**  //*   /** /*//// **/**      /**   
#    /**  /**//////**/**   /    /** /*    /**//**     **    
#    /**  /**     /**/**        /** /*******  //*******     
#    //   //      // //         //  ///////    ///////      
#                                                           
#        Version 4.3.0 Revision 15624 Hash 7ed12fb          
#                      MPI+SLK Build                        
#                http://www.yambo-code.org                  
#
# Joint density of states @ Q(1) [q->0 direction] :0.1000E-4  0.000     0.000   
#
# - Energies      are Teter 93(XC)
# - The Green`s function is Retarded -
#
#   BSK|Identifier              :5179
#      |Dimension               :49
#      |Bands                   :1 - 50
#      |Exchange           [res]: yes
#      |Correlation        [res]: no
#      |Kernel`s coupling       : no
#      |Exchange           [cpl]: no
#      |Correlation        [cpl]: no
#      |W interaction is bare   : no
#      |ALDA kernel in R-space  : no
#      |RL vectors    [exchange]:123
#      |E/h energy range    [ev]:-1.000000 - -1.000000
#      |Coupling range     [o/o]: 100.0000 -  100.0000
#
#    E/ev[1]      jdos-Im[2]   jdos-Re[3]   jdoso-Im[4]  jdoso-Re[5]  jdos`-Im[6]  jdos`-Re[7]
#
    0.000000     0.000000     1.099311     0.000000     1.108381
   0.7538E-1    0.5730E-4     1.099       0.5897E-4     1.108   
   0.1508       0.1146E-3     1.099       0.1179E-3     1.108   
   0.2261       0.1720E-3     1.100       0.1770E-3     1.109   
   0.3015       0.2294E-3     1.100       0.2360E-3     1.109   
   0.3769       0.2868E-3     1.100       0.2952E-3     1.109   
   0.4523       0.3444E-3     1.100       0.3544E-3     1.109   
   0.5276       0.4020E-3     1.100       0.4137E-3     1.109   
   0.6030       0.4597E-3     1.101       0.4731E-3     1.110   
   0.6784       0.5176E-3     1.101       0.5327E-3     1.110   
   0.7538       0.5756E-3     1.101       0.5924E-3     1.111   
   0.8291       0.6338E-3     1.102       0.6523E-3     1.111   
   0.9045       0.6922E-3     1.102       0.7124E-3     1.112   
   0.9799       0.7507E-3     1.103       0.7727E-3     1.112   
    1.055       0.8095E-3     1.104       0.8332E-3     1.113   
    1.131       0.8685E-3     1.104       0.8939E-3     1.113   
    1.206       0.9277E-3     1.105       0.9549E-3     1.114   
    1.281       0.9872E-3     1.106       0.1016E-2     1.115   
    1.357       0.1047E-2     1.106       0.1078E-2     1.116   
    1.432       0.1107E-2     1.107       0.1140E-2     1.116   
    1.508       0.1167E-2     1.108       0.1202E-2     1.117   
    1.583       0.1228E-2     1.109       0.1264E-2     1.118   
    1.658       0.1289E-2     1.110       0.1327E-2     1.119   
    1.734       0.1351E-2     1.111       0.1391E-2     1.120   
    1.809       0.1412E-2     1.112       0.1455E-2     1.121   
    1.884       0.1475E-2     1.113       0.1519E-2     1.122   
    1.960       0.1537E-2     1.114       0.1583E-2     1.124   
    2.035       0.1601E-2     1.115       0.1648E-2     1.125   
    2.111       0.1664E-2     1.117       0.1714E-2     1.126   
    2.186       0.1728E-2     1.118       0.1780E-2     1.127   
    2.261       0.1793E-2     1.119       0.1847E-2     1.129   
    2.337       0.1858E-2     1.121       0.1914E-2     1.130   
    2.412       0.1924E-2     1.122       0.1982E-2     1.132   
    2.487       0.1990E-2     1.123       0.2050E-2     1.133   
    2.563       0.2057E-2     1.125       0.2120E-2     1.135   
    2.638       0.2124E-2     1.127       0.2189E-2     1.136   
    2.714       0.2192E-2     1.128       0.2260E-2     1.138   
    2.789       0.2261E-2     1.130       0.2331E-2     1.140   
    2.864       0.2331E-2     1.132       0.2403E-2     1.142   
    2.940       0.2401E-2     1.133       0.2476E-2     1.143   
    3.015       0.2472E-2     1.135       0.2549E-2     1.145   
    3.090       0.2544E-2     1.137       0.2623E-2     1.147   
    3.166       0.2617E-2     1.139       0.2699E-2     1.149   
    3.241       0.2690E-2     1.141       0.2775E-2     1.151   
    3.317       0.2764E-2     1.143       0.2852E-2     1.153   
    3.392       0.2840E-2     1.145       0.2930E-2     1.156   
    3.467       0.2916E-2     1.147       0.3009E-2     1.158   
    3.543       0.2993E-2     1.150       0.3089E-2     1.160   
    3.618       0.3071E-2     1.152       0.3170E-2     1.163   
    3.693       0.3151E-2     1.154       0.3252E-2     1.165   
    3.769       0.3231E-2     1.157       0.3336E-2     1.167   
    3.844       0.3312E-2     1.159       0.3420E-2     1.170   
    3.920       0.3395E-2     1.162       0.3506E-2     1.173   
    3.995       0.3479E-2     1.164       0.3593E-2     1.175   
    4.070       0.3564E-2     1.167       0.3682E-2     1.178   
    4.146       0.3650E-2     1.170       0.3771E-2     1.181   
    4.221       0.3738E-2     1.172       0.3863E-2     1.184   
    4.296       0.3827E-2     1.175       0.3955E-2     1.187   
    4.372       0.3917E-2     1.178       0.4050E-2     1.190   
    4.447       0.4009E-2     1.181       0.4145E-2     1.193   
    4.523       0.4102E-2     1.184       0.4243E-2     1.196   
    4.598       0.4197E-2     1.187       0.4342E-2     1.199   
    4.673       0.4294E-2     1.190       0.4443E-2     1.202   
    4.749       0.4392E-2     1.194       0.4546E-2     1.206   
    4.824       0.4492E-2     1.197       0.4650E-2     1.209   
    4.899       0.4594E-2     1.201       0.4757E-2     1.213   
    4.975       0.4698E-2     1.204       0.4865E-2     1.216   
    5.050       0.4804E-2     1.208       0.4976E-2     1.220   
    5.126       0.4912E-2     1.211       0.5089E-2     1.224   
    5.201       0.5022E-2     1.215       0.5204E-2     1.228   
    5.276       0.5134E-2     1.219       0.5321E-2     1.232   
    5.352       0.5248E-2     1.223       0.5441E-2     1.236   
    5.427       0.5365E-2     1.227       0.5564E-2     1.240   
    5.503       0.5484E-2     1.231       0.5689E-2     1.244   
      5.5779       0.0056       1.2350       0.0058       1.2486
      5.6533       0.0057       1.2393       0.0059       1.2530
      5.7286       0.0059       1.2437       0.0061       1.2576
      5.8040       0.0060       1.2481       0.0062       1.2622
      5.8794       0.0061       1.2527       0.0064       1.2669
      5.9548       0.0063       1.2573       0.0065       1.2718
      6.0302       0.0064       1.2621       0.0066       1.2767
      6.1055       0.0065       1.2670       0.0068       1.2818
      6.1809       0.0067       1.2720       0.0070       1.2870
      6.2563       0.0068       1.2770       0.0071       1.2923
      6.3317       0.0070       1.2823       0.0073       1.2977
      6.4070       0.0071       1.2876       0.0074       1.3032
      6.4824       0.0073       1.2930       0.0076       1.3089
      6.5578       0.0075       1.2986       0.0078       1.3147
      6.6332       0.0076       1.3043       0.0080       1.3206
      6.7085       0.0078       1.3101       0.0082       1.3267
      6.7839       0.0080       1.3160       0.0083       1.3329
      6.8593       0.0082       1.3221       0.0085       1.3393
      6.9347       0.0084       1.3284       0.0087       1.3458
      7.0101       0.0086       1.3348       0.0090       1.3525
      7.0854       0.0088       1.3413       0.0092       1.3593
      7.1608       0.0090       1.3480       0.0094       1.3663
      7.2362       0.0092       1.3548       0.0096       1.3734
      7.3116       0.0094       1.3618       0.0099       1.3808
      7.3869       0.0096       1.3690       0.0101       1.3883
      7.4623       0.0099       1.3763       0.0104       1.3960
     7.53769      0.01011      1.38385      0.01062      1.40392
     7.61307      0.01037      1.39157      0.01089      1.41202
     7.68844      0.01063      1.39947      0.01118      1.42033
     7.76382      0.01090      1.40758      0.01147      1.42886
     7.83920      0.01118      1.41590      0.01178      1.43762
     7.91457      0.01147      1.42443      0.01209      1.44661
     7.98995      0.01177      1.43318      0.01242      1.45584
     8.06533      0.01209      1.44217      0.01277      1.46533
     8.14070      0.01242      1.45140      0.01313      1.47508
     8.21608      0.01276      1.46088      0.01350      1.48511
     8.29146      0.01311      1.47063      0.01389      1.49543
     8.36683      0.01349      1.48064      0.01430      1.50604
     8.44221      0.01387      1.49094      0.01473      1.51698
     8.51759      0.01428      1.50155      0.01518      1.52824
     8.59297      0.01471      1.51246      0.01566      1.53985
     8.66834      0.01515      1.52370      0.01616      1.55183
     8.74372      0.01562      1.53529      0.01668      1.56419
     8.81910      0.01612      1.54724      0.01724      1.57696
     8.89447      0.01664      1.55957      0.01783      1.59016
     8.96985      0.01719      1.57231      0.01845      1.60382
     9.04523      0.01778      1.58547      0.01912      1.61795
     9.12060      0.01840      1.59909      0.01982      1.63261
     9.19598      0.01905      1.61318      0.02058      1.64781
     9.27136      0.01976      1.62778      0.02139      1.66360
     9.34673      0.02051      1.64293      0.02226      1.68001
     9.42211      0.02131      1.65866      0.02320      1.69711
     9.49749      0.02218      1.67502      0.02422      1.71494
     9.57286      0.02311      1.69205      0.02532      1.73356
     9.64824      0.02412      1.70981      0.02653      1.75305
     9.72362      0.02523      1.72836      0.02786      1.77349
     9.79900      0.02643      1.74778      0.02933      1.79496
     9.87437      0.02776      1.76813      0.03096      1.81760
     9.94975      0.02922      1.78953      0.03279      1.84152
    10.02513      0.03086      1.81208      0.03486      1.86688
    10.10050      0.03269      1.83592      0.03721      1.89388
    10.17588      0.03477      1.86121      0.03993      1.92275
    10.25126      0.03714      1.88814      0.04310      1.95379
    10.32663      0.03988      1.91696      0.04686      1.98735
    10.40201      0.04310      1.94797      0.05137      2.02392
    10.47739      0.04691      1.98154      0.05692      2.06412
    10.55276      0.05153      2.01817      0.06389      2.10879
    10.62814      0.05723      2.05851      0.07288      2.15908
    10.70352      0.06443      2.10345      0.08488      2.21663
    10.77890      0.07379      2.15420      0.10154      2.28383
    10.85427      0.08639      2.21250      0.12587      2.36429
    10.92965      0.10406      2.28093      0.16370      2.46368
    11.00503      0.13017      2.36338      0.22752      2.59086
    11.08040      0.17139      2.46599      0.34728      2.75852
    11.15578      0.24226      2.59836      0.60373      2.97138
    11.23116      0.37845      2.77346      1.20592      3.10171
    11.30653      0.67768      2.98858      2.05102      2.35700
    11.38191      1.37208      3.04391      1.48620      1.25145
    11.45729      2.07159      2.05755      0.74273      1.25470
    11.53266      1.30688      1.16794      0.42027      1.48255
    11.60804      0.65600      1.26318      0.27933      1.68017
    11.68342      0.38080      1.48737      0.21066      1.83875
    11.75879      0.25752      1.67326      0.17480      1.97171
    11.83417      0.19585      1.82181      0.15600      2.08965
    11.90955      0.16270      1.94619      0.14734      2.19975
    11.98493      0.14455      2.05608      0.14557      2.30706
    12.06030      0.13526      2.15788      0.14925      2.41554
    12.13568      0.13183      2.25598      0.15803      2.52869
    12.21106      0.13276      2.35368      0.17235      2.65010
    12.28643      0.13740      2.45368      0.19355      2.78389
    12.36181      0.14559      2.55848      0.22433      2.93537
    12.43719      0.15763      2.67066      0.26972      3.11185
    12.51256      0.17424      2.79312      0.33967      3.32408
    12.58794      0.19669      2.92946      0.45557      3.58803
    12.66332      0.22715      3.08431      0.66924      3.92407
    12.73869      0.26918      3.26406      1.11949      4.32240
    12.81407      0.32898      3.47786      2.06522      4.45172
    12.88945      0.41790      3.73935      2.64101      3.53982
    12.96482      0.55846      4.06954      2.22940      3.42542
    13.04020      0.80027      4.50026      2.81899      3.94243
    13.11558      1.26651      5.06881      4.40778      3.01478
    13.19096      2.28288      5.71358      3.55672      0.83160
    13.26633      4.27095      5.61429      1.98743      0.91554
    13.34171      5.84488      3.57699      1.38692      1.63919
    13.41709      4.76083      1.19156      1.34260      2.38925
    13.49246      3.28546      1.43661      1.80870      3.12732
    13.56784      3.66019      2.13189      3.15587      3.44912
    13.64322      4.75164      0.84800      4.45368      1.70876
    13.71859      3.24950     -0.76845      3.05855      0.24785
    13.79397      1.77462     -0.40366      2.04710      0.69299
    13.86935      1.15975      0.28704      2.18122      1.21332
    13.94472      0.95645      0.90768      2.59739      0.58940
    14.02010      1.03079      1.46684      1.68070      0.02547
    14.09548      1.50480      1.88826      0.96293      0.37203
    14.17085      2.31407      1.44698      0.64800      0.80353
    14.24623      1.78959      0.47648      0.50236      1.17480
    14.32161      0.99131      0.61054      0.43194      1.49813
    14.39699      0.63540      0.99213      0.40236      1.79540
    14.47236      0.47917      1.33844      0.40118      2.08462
    14.54774      0.40546      1.64128      0.42650      2.38167
    14.62312      0.37210      1.91835      0.48526      2.70340
    14.69849      0.36289      2.18487      0.59899      3.07030
    14.77387      0.37174      2.45302      0.82495      3.50489
    14.84925      0.39753      2.73383      1.31958      3.98346
    14.92462      0.44289      3.03904      2.31290      4.07245
    15.00000      0.51498      3.38300      2.64390      3.18868
# 
# 07/24/2018 at 09:14 YAMBO @ NewLaptop [start]
# 07/24/2018 at 09:14                   [end]
#
# .-Input file : yambo.in
# | optics                         # [R OPT] Optics
# | bse                            # [R BSE] Bethe Salpeter Equation.
# | bsk                            # [R BSK] Bethe Salpeter Equation kernel
# | bss                            # [R BSS] Bethe Salpeter Equation solver
# | BoseTemp= 0.000000     eV      # Bosonic Temperature
# | FFTGvecs=  4945        RL      # [FFT] Plane-waves
# | NonPDirs= "XYZ"                # [X/BSS] Non periodic chartesian directions (X,Y,Z,XY...)
# | BSEmod= "retarded"             # [BSE] resonant/retarded/coupling
# | BSKmod= "Hartree"              # [BSE] IP/Hartree/HF/ALDA/SEX/BSfxc
# | BSSmod= "d"                    # [BSS] (h)aydock/(d)iagonalization/(i)nversion/(t)ddft`
# | BSENGexx= 123          RL      # [BSK] Exchange components
# | % BEnRange
# |   0.00000 | 15.00000 | eV      # [BSS] Energy range
# | %
# | % BDmRange
# |   0.10000 |  0.10000 | eV      # [BSS] Damping range
# | %
# | BEnSteps= 200                  # [BSS] Energy steps
# | % BLongDir
# | 0.1000E-4 | 0.000    | 0.000    |        # [BSS] [cc] Electric Field
# | %
# | % BSEBands
# |    1 |  50 |                   # [BSK] Bands range
# | %
