#                                                           
#  /$$     /$$ /$$$$$$  /$$      /$$ /$$$$$$$   /$$$$$$     
# |  $$   /$$//$$__  $$| $$$    /$$$| $$__  $$ /$$__  $$    
#  \  $$ /$$/| $$  \ $$| $$$$  /$$$$| $$  \ $$| $$  \ $$    
#   \  $$$$/ | $$$$$$$$| $$ $$/$$ $$| $$$$$$$ | $$  | $$    
#    \  $$/  | $$__  $$| $$  $$$| $$| $$__  $$| $$  | $$    
#     | $$   | $$  | $$| $$\  $ | $$| $$  \ $$| $$  | $$    
#     | $$   | $$  | $$| $$ \/  | $$| $$$$$$$/|  $$$$$$/    
#     |__/   |__/  |__/|__/     |__/|_______/  \______/     
#                                                           
#       Version 4.3.0 Revision 15624 Hash 7ed12fb           
#                     MPI+SLK Build                         
#               http://www.yambo-code.org                   
#
# Absorption @ Q(1) [q->0 direction] :0.1000E-4  0.000     0.000   
#
#
# - Energies      are Teter 93(XC)
# - Wavefunctions are Teter 93(XC)
#
# - The Green`s function is Retarded -
# - Using the Length Gauge -
# - [r,Vnl] *is* included -
#
#   BSK|Identifier              :7592
#      |Dimension               :49
#      |Bands                   :1 - 50
#      |Exchange           [res]: yes
#      |Correlation        [res]: no
#      |Kernel`s coupling       : no
#      |Exchange           [cpl]: no
#      |Correlation        [cpl]: no
#      |W interaction is bare   : no
#      |ALDA kernel in R-space  : yes
#      |RL vectors    [exchange]:4067
#      |E/h energy range    [ev]:-1.000000 - -1.000000
#      |Coupling range     [o/o]: 100.0000 -  100.0000
#
#    E/ev[1]      EPS-Im[2]    EPS-Re[3]    EPSo-Im[4]   EPSo-Re[5]
#
    0.000000     0.000000     1.017986     0.000000     1.019553
   0.1502E-1    0.2331E-6     1.018       0.2888E-6     1.020   
   0.3003E-1    0.4663E-6     1.018       0.5776E-6     1.020   
   0.4505E-1    0.6994E-6     1.018       0.8665E-6     1.020   
   0.6006E-1    0.9326E-6     1.018       0.1155E-5     1.020   
   0.7508E-1    0.1166E-5     1.018       0.1444E-5     1.020   
   0.9009E-1    0.1399E-5     1.018       0.1733E-5     1.020   
   0.1051       0.1632E-5     1.018       0.2022E-5     1.020   
   0.1201       0.1865E-5     1.018       0.2311E-5     1.020   
   0.1351       0.2099E-5     1.018       0.2600E-5     1.020   
   0.1502       0.2332E-5     1.018       0.2889E-5     1.020   
   0.1652       0.2565E-5     1.018       0.3178E-5     1.020   
   0.1802       0.2799E-5     1.018       0.3467E-5     1.020   
   0.1952       0.3032E-5     1.018       0.3756E-5     1.020   
   0.2102       0.3265E-5     1.018       0.4045E-5     1.020   
   0.2252       0.3499E-5     1.018       0.4335E-5     1.020   
   0.2402       0.3732E-5     1.018       0.4624E-5     1.020   
   0.2553       0.3966E-5     1.018       0.4913E-5     1.020   
   0.2703       0.4199E-5     1.018       0.5203E-5     1.020   
   0.2853       0.4433E-5     1.018       0.5492E-5     1.020   
   0.3003       0.4667E-5     1.018       0.5782E-5     1.020   
   0.3153       0.4901E-5     1.018       0.6072E-5     1.020   
   0.3303       0.5134E-5     1.018       0.6361E-5     1.020   
   0.3453       0.5368E-5     1.018       0.6651E-5     1.020   
   0.3604       0.5602E-5     1.018       0.6941E-5     1.020   
   0.3754       0.5836E-5     1.018       0.7231E-5     1.020   
   0.3904       0.6071E-5     1.018       0.7522E-5     1.020   
   0.4054       0.6305E-5     1.018       0.7812E-5     1.020   
   0.4204       0.6539E-5     1.018       0.8102E-5     1.020   
   0.4354       0.6773E-5     1.018       0.8393E-5     1.020   
   0.4505       0.7008E-5     1.018       0.8683E-5     1.020   
   0.4655       0.7242E-5     1.018       0.8974E-5     1.020   
   0.4805       0.7477E-5     1.018       0.9265E-5     1.020   
   0.4955       0.7712E-5     1.018       0.9556E-5     1.020   
   0.5105       0.7947E-5     1.018       0.9847E-5     1.020   
   0.5255       0.8182E-5     1.018       0.1014E-4     1.020   
   0.5405       0.8417E-5     1.018       0.1043E-4     1.020   
   0.5556       0.8652E-5     1.018       0.1072E-4     1.020   
   0.5706       0.8887E-5     1.018       0.1101E-4     1.020   
   0.5856       0.9123E-5     1.018       0.1131E-4     1.020   
   0.6006       0.9358E-5     1.018       0.1160E-4     1.020   
   0.6156       0.9594E-5     1.018       0.1189E-4     1.020   
   0.6306       0.9830E-5     1.018       0.1218E-4     1.020   
   0.6456       0.1007E-4     1.018       0.1247E-4     1.020   
   0.6607       0.1030E-4     1.018       0.1277E-4     1.020   
   0.6757       0.1054E-4     1.018       0.1306E-4     1.020   
   0.6907       0.1077E-4     1.018       0.1335E-4     1.020   
   0.7057       0.1101E-4     1.018       0.1365E-4     1.020   
   0.7207       0.1125E-4     1.018       0.1394E-4     1.020   
   0.7357       0.1148E-4     1.018       0.1423E-4     1.020   
   0.7508       0.1172E-4     1.018       0.1453E-4     1.020   
   0.7658       0.1196E-4     1.018       0.1482E-4     1.020   
   0.7808       0.1220E-4     1.018       0.1512E-4     1.020   
   0.7958       0.1243E-4     1.018       0.1541E-4     1.020   
   0.8108       0.1267E-4     1.018       0.1571E-4     1.020   
   0.8258       0.1291E-4     1.018       0.1600E-4     1.020   
   0.8408       0.1315E-4     1.018       0.1630E-4     1.020   
   0.8559       0.1338E-4     1.018       0.1659E-4     1.020   
   0.8709       0.1362E-4     1.018       0.1689E-4     1.020   
   0.8859       0.1386E-4     1.018       0.1718E-4     1.020   
   0.9009       0.1410E-4     1.018       0.1748E-4     1.020   
   0.9159       0.1434E-4     1.018       0.1778E-4     1.020   
   0.9309       0.1458E-4     1.018       0.1807E-4     1.020   
   0.9459       0.1482E-4     1.018       0.1837E-4     1.020   
   0.9610       0.1506E-4     1.018       0.1867E-4     1.020   
   0.9760       0.1529E-4     1.018       0.1896E-4     1.020   
   0.9910       0.1553E-4     1.018       0.1926E-4     1.020   
    1.006       0.1577E-4     1.018       0.1956E-4     1.020   
    1.021       0.1601E-4     1.018       0.1986E-4     1.020   
    1.036       0.1626E-4     1.018       0.2016E-4     1.020   
    1.051       0.1650E-4     1.018       0.2046E-4     1.020   
    1.066       0.1674E-4     1.018       0.2076E-4     1.020   
    1.081       0.1698E-4     1.018       0.2106E-4     1.020   
    1.096       0.1722E-4     1.018       0.2135E-4     1.020   
    1.111       0.1746E-4     1.018       0.2166E-4     1.020   
    1.126       0.1770E-4     1.018       0.2196E-4     1.020   
    1.141       0.1794E-4     1.018       0.2226E-4     1.020   
    1.156       0.1819E-4     1.018       0.2256E-4     1.020   
    1.171       0.1843E-4     1.018       0.2286E-4     1.020   
    1.186       0.1867E-4     1.018       0.2316E-4     1.020   
    1.201       0.1891E-4     1.018       0.2346E-4     1.020   
    1.216       0.1916E-4     1.018       0.2377E-4     1.020   
    1.231       0.1940E-4     1.018       0.2407E-4     1.020   
    1.246       0.1965E-4     1.018       0.2437E-4     1.020   
    1.261       0.1989E-4     1.018       0.2468E-4     1.020   
    1.276       0.2013E-4     1.018       0.2498E-4     1.020   
    1.291       0.2038E-4     1.018       0.2528E-4     1.020   
    1.306       0.2062E-4     1.018       0.2559E-4     1.020   
    1.321       0.2087E-4     1.018       0.2589E-4     1.020   
    1.336       0.2111E-4     1.018       0.2620E-4     1.020   
    1.351       0.2136E-4     1.018       0.2650E-4     1.020   
    1.366       0.2160E-4     1.018       0.2681E-4     1.020   
    1.381       0.2185E-4     1.018       0.2712E-4     1.020   
    1.396       0.2210E-4     1.018       0.2742E-4     1.020   
    1.411       0.2234E-4     1.018       0.2773E-4     1.020   
    1.426       0.2259E-4     1.018       0.2804E-4     1.020   
    1.441       0.2284E-4     1.018       0.2835E-4     1.020   
    1.456       0.2309E-4     1.018       0.2866E-4     1.020   
    1.471       0.2333E-4     1.018       0.2897E-4     1.020   
    1.486       0.2358E-4     1.018       0.2927E-4     1.020   
    1.502       0.2383E-4     1.018       0.2958E-4     1.020   
    1.517       0.2408E-4     1.018       0.2989E-4     1.020   
    1.532       0.2433E-4     1.018       0.3021E-4     1.020   
    1.547       0.2458E-4     1.018       0.3052E-4     1.020   
    1.562       0.2483E-4     1.018       0.3083E-4     1.020   
    1.577       0.2508E-4     1.018       0.3114E-4     1.020   
    1.592       0.2533E-4     1.018       0.3145E-4     1.020   
    1.607       0.2558E-4     1.018       0.3177E-4     1.020   
    1.622       0.2583E-4     1.018       0.3208E-4     1.020   
    1.637       0.2609E-4     1.018       0.3239E-4     1.020   
    1.652       0.2634E-4     1.018       0.3271E-4     1.020   
    1.667       0.2659E-4     1.018       0.3302E-4     1.020   
    1.682       0.2684E-4     1.018       0.3334E-4     1.020   
    1.697       0.2710E-4     1.018       0.3366E-4     1.020   
    1.712       0.2735E-4     1.018       0.3397E-4     1.020   
    1.727       0.2760E-4     1.018       0.3429E-4     1.020   
    1.742       0.2786E-4     1.018       0.3461E-4     1.020   
    1.757       0.2811E-4     1.018       0.3492E-4     1.020   
    1.772       0.2837E-4     1.018       0.3524E-4     1.020   
    1.787       0.2862E-4     1.018       0.3556E-4     1.020   
    1.802       0.2888E-4     1.018       0.3588E-4     1.020   
    1.817       0.2914E-4     1.018       0.3620E-4     1.020   
    1.832       0.2939E-4     1.018       0.3652E-4     1.020   
    1.847       0.2965E-4     1.018       0.3684E-4     1.020   
    1.862       0.2991E-4     1.018       0.3717E-4     1.020   
    1.877       0.3016E-4     1.018       0.3749E-4     1.020   
    1.892       0.3042E-4     1.018       0.3781E-4     1.020   
    1.907       0.3068E-4     1.018       0.3814E-4     1.020   
    1.922       0.3094E-4     1.018       0.3846E-4     1.020   
    1.937       0.3120E-4     1.018       0.3878E-4     1.020   
    1.952       0.3146E-4     1.018       0.3911E-4     1.020   
    1.967       0.3172E-4     1.018       0.3944E-4     1.020   
    1.982       0.3198E-4     1.018       0.3976E-4     1.020   
    1.997       0.3224E-4     1.018       0.4009E-4     1.020   
    2.012       0.3251E-4     1.018       0.4042E-4     1.020   
    2.027       0.3277E-4     1.018       0.4075E-4     1.020   
    2.042       0.3303E-4     1.018       0.4108E-4     1.020   
    2.057       0.3329E-4     1.018       0.4140E-4     1.020   
    2.072       0.3356E-4     1.018       0.4174E-4     1.020   
    2.087       0.3382E-4     1.018       0.4207E-4     1.020   
    2.102       0.3409E-4     1.018       0.4240E-4     1.020   
    2.117       0.3435E-4     1.018       0.4273E-4     1.020   
    2.132       0.3462E-4     1.018       0.4306E-4     1.020   
    2.147       0.3488E-4     1.018       0.4340E-4     1.020   
    2.162       0.3515E-4     1.018       0.4373E-4     1.020   
    2.177       0.3542E-4     1.018       0.4407E-4     1.020   
    2.192       0.3568E-4     1.018       0.4440E-4     1.020   
    2.207       0.3595E-4     1.018       0.4474E-4     1.020   
    2.222       0.3622E-4     1.018       0.4507E-4     1.020   
    2.237       0.3649E-4     1.018       0.4541E-4     1.020   
    2.252       0.3676E-4     1.018       0.4575E-4     1.020   
    2.267       0.3703E-4     1.018       0.4609E-4     1.020   
    2.282       0.3730E-4     1.018       0.4643E-4     1.020   
    2.297       0.3757E-4     1.018       0.4677E-4     1.020   
    2.312       0.3784E-4     1.018       0.4711E-4     1.020   
    2.327       0.3812E-4     1.018       0.4745E-4     1.020   
    2.342       0.3839E-4     1.018       0.4780E-4     1.020   
    2.357       0.3866E-4     1.018       0.4814E-4     1.020   
    2.372       0.3894E-4     1.018       0.4848E-4     1.020   
    2.387       0.3921E-4     1.018       0.4883E-4     1.020   
    2.402       0.3949E-4     1.018       0.4918E-4     1.020   
    2.417       0.3976E-4     1.018       0.4952E-4     1.020   
    2.432       0.4004E-4     1.018       0.4987E-4     1.020   
    2.447       0.4031E-4     1.018       0.5022E-4     1.020   
    2.462       0.4059E-4     1.018       0.5057E-4     1.020   
    2.477       0.4087E-4     1.018       0.5092E-4     1.020   
    2.492       0.4115E-4     1.018       0.5127E-4     1.020   
    2.508       0.4143E-4     1.018       0.5162E-4     1.020   
    2.523       0.4171E-4     1.018       0.5197E-4     1.020   
    2.538       0.4199E-4     1.019       0.5232E-4     1.020   
    2.553       0.4227E-4     1.019       0.5268E-4     1.020   
    2.568       0.4255E-4     1.019       0.5303E-4     1.020   
    2.583       0.4283E-4     1.019       0.5339E-4     1.020   
    2.598       0.4311E-4     1.019       0.5374E-4     1.020   
    2.613       0.4340E-4     1.019       0.5410E-4     1.020   
    2.628       0.4368E-4     1.019       0.5446E-4     1.020   
    2.643       0.4397E-4     1.019       0.5482E-4     1.020   
    2.658       0.4425E-4     1.019       0.5518E-4     1.020   
    2.673       0.4454E-4     1.019       0.5554E-4     1.020   
    2.688       0.4483E-4     1.019       0.5590E-4     1.020   
    2.703       0.4511E-4     1.019       0.5626E-4     1.020   
    2.718       0.4540E-4     1.019       0.5663E-4     1.020   
    2.733       0.4569E-4     1.019       0.5699E-4     1.020   
    2.748       0.4598E-4     1.019       0.5736E-4     1.020   
    2.763       0.4627E-4     1.019       0.5772E-4     1.020   
    2.778       0.4656E-4     1.019       0.5809E-4     1.020   
    2.793       0.4685E-4     1.019       0.5846E-4     1.020   
    2.808       0.4714E-4     1.019       0.5883E-4     1.020   
    2.823       0.4744E-4     1.019       0.5920E-4     1.020   
    2.838       0.4773E-4     1.019       0.5957E-4     1.020   
    2.853       0.4802E-4     1.019       0.5994E-4     1.020   
    2.868       0.4832E-4     1.019       0.6032E-4     1.020   
    2.883       0.4861E-4     1.019       0.6069E-4     1.020   
    2.898       0.4891E-4     1.019       0.6107E-4     1.020   
    2.913       0.4921E-4     1.019       0.6144E-4     1.020   
    2.928       0.4951E-4     1.019       0.6182E-4     1.020   
    2.943       0.4981E-4     1.019       0.6220E-4     1.020   
    2.958       0.5010E-4     1.019       0.6258E-4     1.020   
    2.973       0.5040E-4     1.019       0.6296E-4     1.020   
    2.988       0.5071E-4     1.019       0.6334E-4     1.020   
    3.003       0.5101E-4     1.019       0.6372E-4     1.020   
    3.018       0.5131E-4     1.019       0.6410E-4     1.020   
    3.033       0.5161E-4     1.019       0.6449E-4     1.020   
    3.048       0.5192E-4     1.019       0.6487E-4     1.020   
    3.063       0.5222E-4     1.019       0.6526E-4     1.021   
    3.078       0.5253E-4     1.019       0.6565E-4     1.021   
    3.093       0.5283E-4     1.019       0.6604E-4     1.021   
    3.108       0.5314E-4     1.019       0.6643E-4     1.021   
    3.123       0.5345E-4     1.019       0.6682E-4     1.021   
    3.138       0.5376E-4     1.019       0.6721E-4     1.021   
    3.153       0.5407E-4     1.019       0.6760E-4     1.021   
    3.168       0.5438E-4     1.019       0.6800E-4     1.021   
    3.183       0.5469E-4     1.019       0.6839E-4     1.021   
    3.198       0.5500E-4     1.019       0.6879E-4     1.021   
    3.213       0.5532E-4     1.019       0.6919E-4     1.021   
    3.228       0.5563E-4     1.019       0.6959E-4     1.021   
    3.243       0.5594E-4     1.019       0.6999E-4     1.021   
    3.258       0.5626E-4     1.019       0.7039E-4     1.021   
    3.273       0.5658E-4     1.019       0.7079E-4     1.021   
    3.288       0.5689E-4     1.019       0.7120E-4     1.021   
    3.303       0.5721E-4     1.019       0.7160E-4     1.021   
    3.318       0.5753E-4     1.019       0.7201E-4     1.021   
    3.333       0.5785E-4     1.019       0.7242E-4     1.021   
    3.348       0.5817E-4     1.019       0.7283E-4     1.021   
    3.363       0.5850E-4     1.019       0.7324E-4     1.021   
    3.378       0.5882E-4     1.019       0.7365E-4     1.021   
    3.393       0.5914E-4     1.019       0.7406E-4     1.021   
    3.408       0.5947E-4     1.019       0.7448E-4     1.021   
    3.423       0.5979E-4     1.019       0.7489E-4     1.021   
    3.438       0.6012E-4     1.019       0.7531E-4     1.021   
    3.453       0.6045E-4     1.019       0.7573E-4     1.021   
    3.468       0.6078E-4     1.019       0.7615E-4     1.021   
    3.483       0.6111E-4     1.019       0.7657E-4     1.021   
    3.498       0.6144E-4     1.019       0.7699E-4     1.021   
    3.514       0.6177E-4     1.019       0.7741E-4     1.021   
    3.529       0.6210E-4     1.019       0.7784E-4     1.021   
    3.544       0.6243E-4     1.019       0.7826E-4     1.021   
    3.559       0.6277E-4     1.019       0.7869E-4     1.021   
    3.574       0.6311E-4     1.019       0.7912E-4     1.021   
    3.589       0.6344E-4     1.019       0.7955E-4     1.021   
    3.604       0.6378E-4     1.019       0.7998E-4     1.021   
    3.619       0.6412E-4     1.019       0.8042E-4     1.021   
    3.634       0.6446E-4     1.019       0.8085E-4     1.021   
    3.649       0.6480E-4     1.019       0.8129E-4     1.021   
    3.664       0.6514E-4     1.019       0.8172E-4     1.021   
    3.679       0.6548E-4     1.019       0.8216E-4     1.021   
    3.694       0.6583E-4     1.019       0.8260E-4     1.021   
    3.709       0.6617E-4     1.019       0.8305E-4     1.021   
    3.724       0.6652E-4     1.019       0.8349E-4     1.021   
    3.739       0.6687E-4     1.019       0.8394E-4     1.021   
    3.754       0.6721E-4     1.019       0.8438E-4     1.021   
    3.769       0.6756E-4     1.019       0.8483E-4     1.021   
    3.784       0.6792E-4     1.019       0.8528E-4     1.021   
    3.799       0.6827E-4     1.019       0.8573E-4     1.021   
    3.814       0.6862E-4     1.019       0.8619E-4     1.021   
    3.829       0.6897E-4     1.019       0.8664E-4     1.021   
    3.844       0.6933E-4     1.019       0.8710E-4     1.021   
    3.859       0.6969E-4     1.019       0.8755E-4     1.021   
    3.874       0.7004E-4     1.019       0.8801E-4     1.021   
    3.889       0.7040E-4     1.019       0.8847E-4     1.021   
    3.904       0.7076E-4     1.019       0.8894E-4     1.021   
    3.919       0.7112E-4     1.019       0.8940E-4     1.021   
    3.934       0.7149E-4     1.019       0.8987E-4     1.021   
    3.949       0.7185E-4     1.019       0.9034E-4     1.021   
    3.964       0.7221E-4     1.019       0.9081E-4     1.021   
    3.979       0.7258E-4     1.019       0.9128E-4     1.021   
    3.994       0.7295E-4     1.019       0.9175E-4     1.021   
    4.009       0.7332E-4     1.019       0.9222E-4     1.021   
    4.024       0.7369E-4     1.019       0.9270E-4     1.021   
    4.039       0.7406E-4     1.019       0.9318E-4     1.021   
    4.054       0.7443E-4     1.019       0.9366E-4     1.021   
    4.069       0.7480E-4     1.019       0.9414E-4     1.021   
    4.084       0.7518E-4     1.019       0.9462E-4     1.021   
    4.099       0.7555E-4     1.019       0.9511E-4     1.021   
    4.114       0.7593E-4     1.019       0.9560E-4     1.021   
    4.129       0.7631E-4     1.019       0.9609E-4     1.021   
    4.144       0.7669E-4     1.019       0.9658E-4     1.021   
    4.159       0.7707E-4     1.019       0.9707E-4     1.021   
    4.174       0.7746E-4     1.019       0.9756E-4     1.021   
    4.189       0.7784E-4     1.019       0.9806E-4     1.021   
    4.204       0.7822E-4     1.019       0.9856E-4     1.021   
    4.219       0.7861E-4     1.019       0.9906E-4     1.021   
    4.234       0.7900E-4     1.020       0.9956E-4     1.021   
    4.249       0.7939E-4     1.020       0.1001E-3     1.021   
    4.264       0.7978E-4     1.020       0.1006E-3     1.021   
    4.279       0.8017E-4     1.020       0.1011E-3     1.022   
    4.294       0.8057E-4     1.020       0.1016E-3     1.022   
    4.309       0.8096E-4     1.020       0.1021E-3     1.022   
    4.324       0.8136E-4     1.020       0.1026E-3     1.022   
    4.339       0.8176E-4     1.020       0.1031E-3     1.022   
    4.354       0.8216E-4     1.020       0.1037E-3     1.022   
    4.369       0.8256E-4     1.020       0.1042E-3     1.022   
    4.384       0.8296E-4     1.020       0.1047E-3     1.022   
    4.399       0.8337E-4     1.020       0.1052E-3     1.022   
    4.414       0.8377E-4     1.020       0.1057E-3     1.022   
    4.429       0.8418E-4     1.020       0.1063E-3     1.022   
    4.444       0.8459E-4     1.020       0.1068E-3     1.022   
    4.459       0.8500E-4     1.020       0.1073E-3     1.022   
    4.474       0.8541E-4     1.020       0.1079E-3     1.022   
    4.489       0.8583E-4     1.020       0.1084E-3     1.022   
    4.505       0.8624E-4     1.020       0.1090E-3     1.022   
    4.520       0.8666E-4     1.020       0.1095E-3     1.022   
    4.535       0.8708E-4     1.020       0.1100E-3     1.022   
    4.550       0.8750E-4     1.020       0.1106E-3     1.022   
    4.565       0.8792E-4     1.020       0.1111E-3     1.022   
    4.580       0.8834E-4     1.020       0.1117E-3     1.022   
    4.595       0.8877E-4     1.020       0.1122E-3     1.022   
    4.610       0.8919E-4     1.020       0.1128E-3     1.022   
    4.625       0.8962E-4     1.020       0.1134E-3     1.022   
    4.640       0.9005E-4     1.020       0.1139E-3     1.022   
    4.655       0.9048E-4     1.020       0.1145E-3     1.022   
    4.670       0.9092E-4     1.020       0.1150E-3     1.022   
    4.685       0.9135E-4     1.020       0.1156E-3     1.022   
    4.700       0.9179E-4     1.020       0.1162E-3     1.022   
    4.715       0.9223E-4     1.020       0.1168E-3     1.022   
    4.730       0.9267E-4     1.020       0.1173E-3     1.022   
    4.745       0.9311E-4     1.020       0.1179E-3     1.022   
    4.760       0.9356E-4     1.020       0.1185E-3     1.022   
    4.775       0.9400E-4     1.020       0.1191E-3     1.022   
    4.790       0.9445E-4     1.020       0.1197E-3     1.022   
    4.805       0.9490E-4     1.020       0.1202E-3     1.022   
    4.820       0.9535E-4     1.020       0.1208E-3     1.022   
    4.835       0.9580E-4     1.020       0.1214E-3     1.022   
    4.850       0.9626E-4     1.020       0.1220E-3     1.022   
    4.865       0.9672E-4     1.020       0.1226E-3     1.022   
    4.880       0.9718E-4     1.020       0.1232E-3     1.022   
    4.895       0.9764E-4     1.020       0.1238E-3     1.022   
    4.910       0.9810E-4     1.020       0.1244E-3     1.022   
    4.925       0.9856E-4     1.020       0.1250E-3     1.022   
    4.940       0.9903E-4     1.020       0.1257E-3     1.022   
    4.955       0.9950E-4     1.020       0.1263E-3     1.022   
    4.970       0.9997E-4     1.020       0.1269E-3     1.022   
    4.985       0.1004E-3     1.020       0.1275E-3     1.022   
    5.000       0.1009E-3     1.020       0.1281E-3     1.022   
    5.015       0.1014E-3     1.020       0.1288E-3     1.022   
    5.030       0.1019E-3     1.020       0.1294E-3     1.022   
    5.045       0.1024E-3     1.020       0.1300E-3     1.022   
    5.060       0.1028E-3     1.020       0.1307E-3     1.022   
    5.075       0.1033E-3     1.020       0.1313E-3     1.022   
    5.090       0.1038E-3     1.020       0.1319E-3     1.022   
    5.105       0.1043E-3     1.020       0.1326E-3     1.022   
    5.120       0.1048E-3     1.020       0.1332E-3     1.022   
    5.135       0.1053E-3     1.020       0.1339E-3     1.023   
    5.150       0.1058E-3     1.020       0.1345E-3     1.023   
    5.165       0.1063E-3     1.020       0.1352E-3     1.023   
    5.180       0.1068E-3     1.020       0.1358E-3     1.023   
    5.195       0.1073E-3     1.020       0.1365E-3     1.023   
    5.210       0.1078E-3     1.020       0.1372E-3     1.023   
    5.225       0.1083E-3     1.020       0.1378E-3     1.023   
    5.240       0.1088E-3     1.020       0.1385E-3     1.023   
    5.255       0.1093E-3     1.020       0.1392E-3     1.023   
    5.270       0.1098E-3     1.020       0.1399E-3     1.023   
    5.285       0.1103E-3     1.020       0.1405E-3     1.023   
    5.300       0.1109E-3     1.021       0.1412E-3     1.023   
    5.315       0.1114E-3     1.021       0.1419E-3     1.023   
    5.330       0.1119E-3     1.021       0.1426E-3     1.023   
    5.345       0.1124E-3     1.021       0.1433E-3     1.023   
    5.360       0.1130E-3     1.021       0.1440E-3     1.023   
    5.375       0.1135E-3     1.021       0.1447E-3     1.023   
    5.390       0.1140E-3     1.021       0.1454E-3     1.023   
    5.405       0.1146E-3     1.021       0.1461E-3     1.023   
    5.420       0.1151E-3     1.021       0.1468E-3     1.023   
    5.435       0.1156E-3     1.021       0.1476E-3     1.023   
    5.450       0.1162E-3     1.021       0.1483E-3     1.023   
    5.465       0.1167E-3     1.021       0.1490E-3     1.023   
    5.480       0.1173E-3     1.021       0.1497E-3     1.023   
    5.495       0.1178E-3     1.021       0.1505E-3     1.023   
    5.511       0.1184E-3     1.021       0.1512E-3     1.023   
    5.526       0.1189E-3     1.021       0.1519E-3     1.023   
    5.541       0.1195E-3     1.021       0.1527E-3     1.023   
    5.556       0.1200E-3     1.021       0.1534E-3     1.023   
    5.571       0.1206E-3     1.021       0.1542E-3     1.023   
    5.586       0.1212E-3     1.021       0.1549E-3     1.023   
    5.601       0.1217E-3     1.021       0.1557E-3     1.023   
    5.616       0.1223E-3     1.021       0.1564E-3     1.023   
    5.631       0.1229E-3     1.021       0.1572E-3     1.023   
    5.646       0.1235E-3     1.021       0.1580E-3     1.023   
    5.661       0.1241E-3     1.021       0.1587E-3     1.023   
    5.676       0.1246E-3     1.021       0.1595E-3     1.023   
    5.691       0.1252E-3     1.021       0.1603E-3     1.023   
    5.706       0.1258E-3     1.021       0.1611E-3     1.023   
    5.721       0.1264E-3     1.021       0.1619E-3     1.023   
    5.736       0.1270E-3     1.021       0.1627E-3     1.023   
    5.751       0.1276E-3     1.021       0.1635E-3     1.023   
    5.766       0.1282E-3     1.021       0.1643E-3     1.023   
    5.781       0.1288E-3     1.021       0.1651E-3     1.023   
    5.796       0.1294E-3     1.021       0.1659E-3     1.023   
    5.811       0.1300E-3     1.021       0.1667E-3     1.024   
    5.826       0.1306E-3     1.021       0.1675E-3     1.024   
    5.841       0.1312E-3     1.021       0.1684E-3     1.024   
    5.856       0.1319E-3     1.021       0.1692E-3     1.024   
    5.871       0.1325E-3     1.021       0.1700E-3     1.024   
    5.886       0.1331E-3     1.021       0.1709E-3     1.024   
    5.901       0.1337E-3     1.021       0.1717E-3     1.024   
    5.916       0.1344E-3     1.021       0.1725E-3     1.024   
    5.931       0.1350E-3     1.021       0.1734E-3     1.024   
    5.946       0.1357E-3     1.021       0.1743E-3     1.024   
    5.961       0.1363E-3     1.021       0.1751E-3     1.024   
    5.976       0.1369E-3     1.021       0.1760E-3     1.024   
    5.991       0.1376E-3     1.021       0.1769E-3     1.024   
    6.006       0.1382E-3     1.021       0.1777E-3     1.024   
    6.021       0.1389E-3     1.021       0.1786E-3     1.024   
    6.036       0.1396E-3     1.021       0.1795E-3     1.024   
    6.051       0.1402E-3     1.021       0.1804E-3     1.024   
    6.066       0.1409E-3     1.021       0.1813E-3     1.024   
    6.081       0.1416E-3     1.021       0.1822E-3     1.024   
    6.096       0.1422E-3     1.022       0.1831E-3     1.024   
    6.111       0.1429E-3     1.022       0.1840E-3     1.024   
    6.126       0.1436E-3     1.022       0.1849E-3     1.024   
    6.141       0.1443E-3     1.022       0.1858E-3     1.024   
    6.156       0.1450E-3     1.022       0.1868E-3     1.024   
    6.171       0.1456E-3     1.022       0.1877E-3     1.024   
    6.186       0.1463E-3     1.022       0.1886E-3     1.024   
    6.201       0.1470E-3     1.022       0.1896E-3     1.024   
    6.216       0.1477E-3     1.022       0.1905E-3     1.024   
    6.231       0.1485E-3     1.022       0.1915E-3     1.024   
    6.246       0.1492E-3     1.022       0.1925E-3     1.024   
    6.261       0.1499E-3     1.022       0.1934E-3     1.024   
    6.276       0.1506E-3     1.022       0.1944E-3     1.024   
    6.291       0.1513E-3     1.022       0.1954E-3     1.024   
    6.306       0.1520E-3     1.022       0.1964E-3     1.024   
    6.321       0.1528E-3     1.022       0.1973E-3     1.024   
    6.336       0.1535E-3     1.022       0.1983E-3     1.024   
    6.351       0.1543E-3     1.022       0.1993E-3     1.024   
    6.366       0.1550E-3     1.022       0.2003E-3     1.025   
    6.381       0.1557E-3     1.022       0.2014E-3     1.025   
    6.396       0.1565E-3     1.022       0.2024E-3     1.025   
    6.411       0.1572E-3     1.022       0.2034E-3     1.025   
    6.426       0.1580E-3     1.022       0.2044E-3     1.025   
    6.441       0.1588E-3     1.022       0.2055E-3     1.025   
    6.456       0.1595E-3     1.022       0.2065E-3     1.025   
    6.471       0.1603E-3     1.022       0.2076E-3     1.025   
    6.486       0.1611E-3     1.022       0.2086E-3     1.025   
    6.502       0.1619E-3     1.022       0.2097E-3     1.025   
    6.517       0.1627E-3     1.022       0.2108E-3     1.025   
    6.532       0.1635E-3     1.022       0.2118E-3     1.025   
    6.547       0.1642E-3     1.022       0.2129E-3     1.025   
    6.562       0.1650E-3     1.022       0.2140E-3     1.025   
    6.577       0.1659E-3     1.022       0.2151E-3     1.025   
    6.592       0.1667E-3     1.022       0.2162E-3     1.025   
    6.607       0.1675E-3     1.022       0.2173E-3     1.025   
    6.622       0.1683E-3     1.022       0.2185E-3     1.025   
    6.637       0.1691E-3     1.022       0.2196E-3     1.025   
    6.652       0.1700E-3     1.022       0.2207E-3     1.025   
    6.667       0.1708E-3     1.022       0.2219E-3     1.025   
    6.682       0.1716E-3     1.022       0.2230E-3     1.025   
    6.697       0.1725E-3     1.022       0.2242E-3     1.025   
    6.712       0.1733E-3     1.022       0.2253E-3     1.025   
    6.727       0.1742E-3     1.023       0.2265E-3     1.025   
    6.742       0.1750E-3     1.023       0.2277E-3     1.025   
    6.757       0.1759E-3     1.023       0.2289E-3     1.025   
    6.772       0.1768E-3     1.023       0.2300E-3     1.025   
    6.787       0.1776E-3     1.023       0.2312E-3     1.025   
    6.802       0.1785E-3     1.023       0.2325E-3     1.025   
    6.817       0.1794E-3     1.023       0.2337E-3     1.026   
    6.832       0.1803E-3     1.023       0.2349E-3     1.026   
    6.847       0.1812E-3     1.023       0.2361E-3     1.026   
    6.862       0.1821E-3     1.023       0.2374E-3     1.026   
    6.877       0.1830E-3     1.023       0.2386E-3     1.026   
    6.892       0.1839E-3     1.023       0.2399E-3     1.026   
    6.907       0.1849E-3     1.023       0.2411E-3     1.026   
    6.922       0.1858E-3     1.023       0.2424E-3     1.026   
    6.937       0.1867E-3     1.023       0.2437E-3     1.026   
    6.952       0.1876E-3     1.023       0.2450E-3     1.026   
    6.967       0.1886E-3     1.023       0.2463E-3     1.026   
    6.982       0.1895E-3     1.023       0.2476E-3     1.026   
    6.997       0.1905E-3     1.023       0.2489E-3     1.026   
    7.012       0.1915E-3     1.023       0.2502E-3     1.026   
    7.027       0.1924E-3     1.023       0.2516E-3     1.026   
    7.042       0.1934E-3     1.023       0.2529E-3     1.026   
    7.057       0.1944E-3     1.023       0.2543E-3     1.026   
    7.072       0.1954E-3     1.023       0.2556E-3     1.026   
    7.087       0.1964E-3     1.023       0.2570E-3     1.026   
    7.102       0.1974E-3     1.023       0.2584E-3     1.026   
    7.117       0.1984E-3     1.023       0.2598E-3     1.026   
    7.132       0.1994E-3     1.023       0.2612E-3     1.026   
    7.147       0.2004E-3     1.023       0.2626E-3     1.026   
    7.162       0.2014E-3     1.023       0.2640E-3     1.026   
    7.177       0.2025E-3     1.023       0.2655E-3     1.026   
    7.192       0.2035E-3     1.023       0.2669E-3     1.026   
    7.207       0.2045E-3     1.023       0.2684E-3     1.026   
    7.222       0.2056E-3     1.023       0.2698E-3     1.027   
    7.237       0.2067E-3     1.023       0.2713E-3     1.027   
    7.252       0.2077E-3     1.024       0.2728E-3     1.027   
    7.267       0.2088E-3     1.024       0.2743E-3     1.027   
    7.282       0.2099E-3     1.024       0.2758E-3     1.027   
    7.297       0.2110E-3     1.024       0.2773E-3     1.027   
    7.312       0.2121E-3     1.024       0.2788E-3     1.027   
    7.327       0.2132E-3     1.024       0.2804E-3     1.027   
    7.342       0.2143E-3     1.024       0.2819E-3     1.027   
    7.357       0.2154E-3     1.024       0.2835E-3     1.027   
    7.372       0.2165E-3     1.024       0.2851E-3     1.027   
    7.387       0.2177E-3     1.024       0.2866E-3     1.027   
    7.402       0.2188E-3     1.024       0.2882E-3     1.027   
    7.417       0.2200E-3     1.024       0.2899E-3     1.027   
    7.432       0.2211E-3     1.024       0.2915E-3     1.027   
    7.447       0.2223E-3     1.024       0.2931E-3     1.027   
    7.462       0.2235E-3     1.024       0.2948E-3     1.027   
    7.477       0.2247E-3     1.024       0.2964E-3     1.027   
    7.492       0.2259E-3     1.024       0.2981E-3     1.027   
    7.508       0.2271E-3     1.024       0.2998E-3     1.027   
    7.523       0.2283E-3     1.024       0.3015E-3     1.027   
    7.538       0.2295E-3     1.024       0.3032E-3     1.027   
    7.553       0.2307E-3     1.024       0.3049E-3     1.027   
    7.568       0.2320E-3     1.024       0.3066E-3     1.028   
    7.583       0.2332E-3     1.024       0.3084E-3     1.028   
    7.598       0.2345E-3     1.024       0.3101E-3     1.028   
    7.613       0.2357E-3     1.024       0.3119E-3     1.028   
    7.628       0.2370E-3     1.024       0.3137E-3     1.028   
    7.643       0.2383E-3     1.024       0.3155E-3     1.028   
    7.658       0.2396E-3     1.024       0.3173E-3     1.028   
    7.673       0.2409E-3     1.024       0.3192E-3     1.028   
    7.688       0.2422E-3     1.024       0.3210E-3     1.028   
    7.703       0.2435E-3     1.025       0.3229E-3     1.028   
    7.718       0.2448E-3     1.025       0.3247E-3     1.028   
    7.733       0.2462E-3     1.025       0.3266E-3     1.028   
    7.748       0.2475E-3     1.025       0.3285E-3     1.028   
    7.763       0.2489E-3     1.025       0.3305E-3     1.028   
    7.778       0.2502E-3     1.025       0.3324E-3     1.028   
    7.793       0.2516E-3     1.025       0.3343E-3     1.028   
    7.808       0.2530E-3     1.025       0.3363E-3     1.028   
    7.823       0.2544E-3     1.025       0.3383E-3     1.028   
    7.838       0.2558E-3     1.025       0.3403E-3     1.028   
    7.853       0.2573E-3     1.025       0.3423E-3     1.028   
    7.868       0.2587E-3     1.025       0.3443E-3     1.028   
    7.883       0.2601E-3     1.025       0.3464E-3     1.029   
    7.898       0.2616E-3     1.025       0.3485E-3     1.029   
    7.913       0.2631E-3     1.025       0.3506E-3     1.029   
    7.928       0.2645E-3     1.025       0.3527E-3     1.029   
    7.943       0.2660E-3     1.025       0.3548E-3     1.029   
    7.958       0.2675E-3     1.025       0.3569E-3     1.029   
    7.973       0.2691E-3     1.025       0.3591E-3     1.029   
    7.988       0.2706E-3     1.025       0.3612E-3     1.029   
    8.003       0.2721E-3     1.025       0.3634E-3     1.029   
    8.018       0.2737E-3     1.025       0.3656E-3     1.029   
    8.033       0.2752E-3     1.025       0.3679E-3     1.029   
    8.048       0.2768E-3     1.025       0.3701E-3     1.029   
    8.063       0.2784E-3     1.025       0.3724E-3     1.029   
    8.078       0.2800E-3     1.026       0.3747E-3     1.029   
    8.093       0.2816E-3     1.026       0.3770E-3     1.029   
    8.108       0.2832E-3     1.026       0.3793E-3     1.029   
    8.123       0.2849E-3     1.026       0.3816E-3     1.029   
    8.138       0.2865E-3     1.026       0.3840E-3     1.029   
    8.153       0.2882E-3     1.026       0.3864E-3     1.030   
    8.168       0.2899E-3     1.026       0.3888E-3     1.030   
    8.183       0.2916E-3     1.026       0.3912E-3     1.030   
    8.198       0.2933E-3     1.026       0.3937E-3     1.030   
    8.213       0.2950E-3     1.026       0.3962E-3     1.030   
    8.228       0.2968E-3     1.026       0.3987E-3     1.030   
    8.243       0.2985E-3     1.026       0.4012E-3     1.030   
    8.258       0.3003E-3     1.026       0.4037E-3     1.030   
    8.273       0.3021E-3     1.026       0.4063E-3     1.030   
    8.288       0.3039E-3     1.026       0.4089E-3     1.030   
    8.303       0.3057E-3     1.026       0.4115E-3     1.030   
    8.318       0.3075E-3     1.026       0.4141E-3     1.030   
    8.333       0.3093E-3     1.026       0.4168E-3     1.030   
    8.348       0.3112E-3     1.026       0.4194E-3     1.030   
    8.363       0.3131E-3     1.026       0.4221E-3     1.030   
    8.378       0.3150E-3     1.026       0.4249E-3     1.030   
    8.393       0.3169E-3     1.026       0.4276E-3     1.031   
    8.408       0.3188E-3     1.026       0.4304E-3     1.031   
    8.423       0.3207E-3     1.027       0.4332E-3     1.031   
    8.438       0.3227E-3     1.027       0.4361E-3     1.031   
    8.453       0.3247E-3     1.027       0.4389E-3     1.031   
    8.468       0.3267E-3     1.027       0.4418E-3     1.031   
    8.483       0.3287E-3     1.027       0.4447E-3     1.031   
    8.498       0.3307E-3     1.027       0.4477E-3     1.031   
    8.514       0.3328E-3     1.027       0.4506E-3     1.031   
    8.529       0.3348E-3     1.027       0.4536E-3     1.031   
    8.544       0.3369E-3     1.027       0.4567E-3     1.031   
    8.559       0.3390E-3     1.027       0.4597E-3     1.031   
    8.574       0.3411E-3     1.027       0.4628E-3     1.031   
    8.589       0.3433E-3     1.027       0.4659E-3     1.031   
    8.604       0.3454E-3     1.027       0.4691E-3     1.031   
    8.619       0.3476E-3     1.027       0.4723E-3     1.032   
    8.634       0.3498E-3     1.027       0.4755E-3     1.032   
    8.649       0.3520E-3     1.027       0.4787E-3     1.032   
    8.664       0.3543E-3     1.027       0.4820E-3     1.032   
    8.679       0.3565E-3     1.027       0.4853E-3     1.032   
    8.694       0.3588E-3     1.027       0.4886E-3     1.032   
    8.709       0.3611E-3     1.028       0.4920E-3     1.032   
    8.724       0.3635E-3     1.028       0.4954E-3     1.032   
    8.739       0.3658E-3     1.028       0.4988E-3     1.032   
    8.754       0.3682E-3     1.028       0.5023E-3     1.032   
    8.769       0.3706E-3     1.028       0.5058E-3     1.032   
    8.784       0.3730E-3     1.028       0.5094E-3     1.032   
    8.799       0.3754E-3     1.028       0.5130E-3     1.032   
    8.814       0.3779E-3     1.028       0.5166E-3     1.032   
    8.829       0.3804E-3     1.028       0.5202E-3     1.033   
    8.844       0.3829E-3     1.028       0.5239E-3     1.033   
    8.859       0.3854E-3     1.028       0.5277E-3     1.033   
    8.874       0.3880E-3     1.028       0.5314E-3     1.033   
    8.889       0.3906E-3     1.028       0.5353E-3     1.033   
    8.904       0.3932E-3     1.028       0.5391E-3     1.033   
    8.919       0.3958E-3     1.028       0.5430E-3     1.033   
    8.934       0.3985E-3     1.028       0.5469E-3     1.033   
    8.949       0.4012E-3     1.028       0.5509E-3     1.033   
    8.964       0.4039E-3     1.028       0.5549E-3     1.033   
    8.979       0.4067E-3     1.029       0.5590E-3     1.033   
    8.994       0.4094E-3     1.029       0.5631E-3     1.033   
    9.009       0.4122E-3     1.029       0.5673E-3     1.034   
    9.024       0.4151E-3     1.029       0.5715E-3     1.034   
    9.039       0.4179E-3     1.029       0.5757E-3     1.034   
    9.054       0.4208E-3     1.029       0.5800E-3     1.034   
    9.069       0.4237E-3     1.029       0.5843E-3     1.034   
    9.084       0.4267E-3     1.029       0.5887E-3     1.034   
    9.099       0.4297E-3     1.029       0.5932E-3     1.034   
    9.114       0.4327E-3     1.029       0.5977E-3     1.034   
    9.129       0.4357E-3     1.029       0.6022E-3     1.034   
    9.144       0.4388E-3     1.029       0.6068E-3     1.034   
    9.159       0.4419E-3     1.029       0.6114E-3     1.034   
    9.174       0.4451E-3     1.029       0.6161E-3     1.035   
    9.189       0.4482E-3     1.029       0.6209E-3     1.035   
    9.204       0.4514E-3     1.030       0.6257E-3     1.035   
    9.219       0.4547E-3     1.030       0.6305E-3     1.035   
    9.234       0.4580E-3     1.030       0.6354E-3     1.035   
    9.249       0.4613E-3     1.030       0.6404E-3     1.035   
    9.264       0.4646E-3     1.030       0.6454E-3     1.035   
    9.279       0.4680E-3     1.030       0.6505E-3     1.035   
    9.294       0.4714E-3     1.030       0.6556E-3     1.035   
    9.309       0.4749E-3     1.030       0.6609E-3     1.035   
    9.324       0.4784E-3     1.030       0.6661E-3     1.035   
    9.339       0.4820E-3     1.030       0.6715E-3     1.036   
    9.354       0.4855E-3     1.030       0.6768E-3     1.036   
    9.369       0.4892E-3     1.030       0.6823E-3     1.036   
    9.384       0.4928E-3     1.030       0.6878E-3     1.036   
    9.399       0.4965E-3     1.030       0.6934E-3     1.036   
    9.414       0.5003E-3     1.031       0.6991E-3     1.036   
    9.429       0.5041E-3     1.031       0.7048E-3     1.036   
    9.444       0.5079E-3     1.031       0.7106E-3     1.036   
    9.459       0.5118E-3     1.031       0.7165E-3     1.036   
    9.474       0.5157E-3     1.031       0.7225E-3     1.037   
    9.489       0.5197E-3     1.031       0.7285E-3     1.037   
    9.505       0.5237E-3     1.031       0.7346E-3     1.037   
    9.520       0.5277E-3     1.031       0.7407E-3     1.037   
    9.535       0.5319E-3     1.031       0.7470E-3     1.037   
    9.550       0.5360E-3     1.031       0.7533E-3     1.037   
    9.565       0.5402E-3     1.031       0.7598E-3     1.037   
    9.580       0.5445E-3     1.031       0.7662E-3     1.037   
    9.595       0.5488E-3     1.031       0.7728E-3     1.037   
    9.610       0.5532E-3     1.032       0.7795E-3     1.038   
    9.625       0.5576E-3     1.032       0.7863E-3     1.038   
    9.640       0.5620E-3     1.032       0.7931E-3     1.038   
    9.655       0.5666E-3     1.032       0.8000E-3     1.038   
    9.670       0.5712E-3     1.032       0.8071E-3     1.038   
    9.685       0.5758E-3     1.032       0.8142E-3     1.038   
    9.700       0.5805E-3     1.032       0.8214E-3     1.038   
    9.715       0.5853E-3     1.032       0.8287E-3     1.038   
    9.730       0.5901E-3     1.032       0.8361E-3     1.038   
    9.745       0.5950E-3     1.032       0.8436E-3     1.039   
    9.760       0.5999E-3     1.032       0.8512E-3     1.039   
    9.775       0.6049E-3     1.032       0.8590E-3     1.039   
    9.790       0.6100E-3     1.033       0.8668E-3     1.039   
    9.805       0.6151E-3     1.033       0.8747E-3     1.039   
    9.820       0.6203E-3     1.033       0.8828E-3     1.039   
    9.835       0.6256E-3     1.033       0.8909E-3     1.039   
    9.850       0.6309E-3     1.033       0.8992E-3     1.040   
    9.865       0.6363E-3     1.033       0.9076E-3     1.040   
    9.880       0.6418E-3     1.033       0.9161E-3     1.040   
    9.895       0.6474E-3     1.033       0.9247E-3     1.040   
    9.910       0.6530E-3     1.033       0.9335E-3     1.040   
    9.925       0.6587E-3     1.033       0.9423E-3     1.040   
    9.940       0.6645E-3     1.034       0.9514E-3     1.040   
    9.955       0.6703E-3     1.034       0.9605E-3     1.041   
    9.970       0.6763E-3     1.034       0.9698E-3     1.041   
    9.985       0.6823E-3     1.034       0.9792E-3     1.041   
    10.00       0.6884E-3     1.034       0.9887E-3     1.041   
    10.02       0.6946E-3     1.034       0.9984E-3     1.041   
    10.03       0.7009E-3     1.034       0.1008E-2     1.041   
    10.05       0.7073E-3     1.034       0.1018E-2     1.041   
    10.06       0.7137E-3     1.034       0.1028E-2     1.042   
    10.08       0.7203E-3     1.034       0.1039E-2     1.042   
    10.09       0.7269E-3     1.035       0.1049E-2     1.042   
    10.11       0.7336E-3     1.035       0.1060E-2     1.042   
    10.12       0.7405E-3     1.035       0.1071E-2     1.042   
    10.14       0.7474E-3     1.035       0.1082E-2     1.042   
    10.15       0.7545E-3     1.035       0.1093E-2     1.043   
    10.17       0.7616E-3     1.035       0.1104E-2     1.043   
    10.18       0.7689E-3     1.035       0.1115E-2     1.043   
    10.20       0.7762E-3     1.035       0.1127E-2     1.043   
    10.21       0.7837E-3     1.035       0.1139E-2     1.043   
    10.23       0.7913E-3     1.036       0.1151E-2     1.043   
    10.24       0.7989E-3     1.036       0.1163E-2     1.044   
    10.26       0.8068E-3     1.036       0.1176E-2     1.044   
    10.27       0.8147E-3     1.036       0.1188E-2     1.044   
    10.29       0.8227E-3     1.036       0.1201E-2     1.044   
    10.30       0.8309E-3     1.036       0.1214E-2     1.044   
    10.32       0.8392E-3     1.036       0.1228E-2     1.044   
    10.33       0.8477E-3     1.036       0.1241E-2     1.045   
    10.35       0.8562E-3     1.037       0.1255E-2     1.045   
    10.36       0.8649E-3     1.037       0.1269E-2     1.045   
    10.38       0.8738E-3     1.037       0.1283E-2     1.045   
    10.39       0.8828E-3     1.037       0.1298E-2     1.045   
    10.41       0.8919E-3     1.037       0.1312E-2     1.046   
    10.42       0.9012E-3     1.037       0.1327E-2     1.046   
    10.44       0.9106E-3     1.037       0.1343E-2     1.046   
    10.45       0.9202E-3     1.038       0.1358E-2     1.046   
    10.47       0.9300E-3     1.038       0.1374E-2     1.046   
    10.48       0.9399E-3     1.038       0.1390E-2     1.047   
    10.50       0.9500E-3     1.038       0.1406E-2     1.047   
    10.51       0.9602E-3     1.038       0.1423E-2     1.047   
    10.53       0.9707E-3     1.038       0.1440E-2     1.047   
    10.54       0.9813E-3     1.038       0.1457E-2     1.047   
    10.56       0.9921E-3     1.039       0.1475E-2     1.048   
    10.57       0.1003E-2     1.039       0.1493E-2     1.048   
    10.59       0.1014E-2     1.039       0.1511E-2     1.048   
    10.60       0.1026E-2     1.039       0.1530E-2     1.048   
    10.62       0.1037E-2     1.039       0.1549E-2     1.049   
    10.63       0.1049E-2     1.039       0.1568E-2     1.049   
    10.65       0.1061E-2     1.039       0.1588E-2     1.049   
    10.66       0.1073E-2     1.040       0.1608E-2     1.049   
    10.68       0.1086E-2     1.040       0.1628E-2     1.049   
    10.69       0.1098E-2     1.040       0.1649E-2     1.050   
    10.71       0.1111E-2     1.040       0.1671E-2     1.050   
    10.72       0.1124E-2     1.040       0.1693E-2     1.050   
    10.74       0.1138E-2     1.040       0.1715E-2     1.050   
    10.75       0.1151E-2     1.041       0.1737E-2     1.051   
    10.77       0.1165E-2     1.041       0.1761E-2     1.051   
    10.78       0.1179E-2     1.041       0.1784E-2     1.051   
    10.80       0.1194E-2     1.041       0.1808E-2     1.052   
    10.81       0.1208E-2     1.041       0.1833E-2     1.052   
    10.83       0.1223E-2     1.041       0.1858E-2     1.052   
    10.84       0.1239E-2     1.042       0.1884E-2     1.052   
    10.86       0.1254E-2     1.042       0.1910E-2     1.053   
    10.87       0.1270E-2     1.042       0.1937E-2     1.053   
    10.89       0.1286E-2     1.042       0.1964E-2     1.053   
    10.90       0.1303E-2     1.042       0.1992E-2     1.054   
    10.92       0.1320E-2     1.043       0.2021E-2     1.054   
    10.93       0.1337E-2     1.043       0.2050E-2     1.054   
    10.95       0.1355E-2     1.043       0.2080E-2     1.054   
    10.96       0.1373E-2     1.043       0.2111E-2     1.055   
    10.98       0.1391E-2     1.043       0.2142E-2     1.055   
    10.99       0.1410E-2     1.044       0.2174E-2     1.055   
    11.01       0.1429E-2     1.044       0.2207E-2     1.056   
    11.02       0.1448E-2     1.044       0.2240E-2     1.056   
    11.04       0.1468E-2     1.044       0.2275E-2     1.056   
    11.05       0.1489E-2     1.045       0.2310E-2     1.057   
    11.07       0.1510E-2     1.045       0.2346E-2     1.057   
    11.08       0.1531E-2     1.045       0.2383E-2     1.057   
    11.10       0.1553E-2     1.045       0.2421E-2     1.058   
    11.11       0.1575E-2     1.045       0.2459E-2     1.058   
    11.13       0.1598E-2     1.046       0.2499E-2     1.059   
    11.14       0.1621E-2     1.046       0.2540E-2     1.059   
    11.16       0.1645E-2     1.046       0.2582E-2     1.059   
    11.17       0.1670E-2     1.046       0.2624E-2     1.060   
    11.19       0.1695E-2     1.047       0.2668E-2     1.060   
    11.20       0.1720E-2     1.047       0.2714E-2     1.060   
    11.22       0.1746E-2     1.047       0.2760E-2     1.061   
    11.23       0.1773E-2     1.047       0.2807E-2     1.061   
    11.25       0.1801E-2     1.048       0.2856E-2     1.062   
    11.26       0.1829E-2     1.048       0.2906E-2     1.062   
    11.28       0.1858E-2     1.048       0.2958E-2     1.063   
    11.29       0.1888E-2     1.049       0.3011E-2     1.063   
    11.31       0.1918E-2     1.049       0.3065E-2     1.063   
    11.32       0.1949E-2     1.049       0.3121E-2     1.064   
    11.34       0.1981E-2     1.049       0.3179E-2     1.064   
    11.35       0.2014E-2     1.050       0.3238E-2     1.065   
    11.37       0.2048E-2     1.050       0.3299E-2     1.065   
    11.38       0.2083E-2     1.050       0.3362E-2     1.066   
    11.40       0.2118E-2     1.051       0.3427E-2     1.066   
    11.41       0.2155E-2     1.051       0.3493E-2     1.067   
    11.43       0.2192E-2     1.051       0.3562E-2     1.067   
    11.44       0.2231E-2     1.052       0.3633E-2     1.068   
    11.46       0.2271E-2     1.052       0.3706E-2     1.068   
    11.47       0.2311E-2     1.052       0.3781E-2     1.069   
    11.49       0.2353E-2     1.053       0.3859E-2     1.070   
    11.50       0.2397E-2     1.053       0.3939E-2     1.070   
    11.52       0.2441E-2     1.053       0.4021E-2     1.071   
    11.53       0.2487E-2     1.054       0.4107E-2     1.071   
    11.55       0.2534E-2     1.054       0.4195E-2     1.072   
    11.56       0.2582E-2     1.054       0.4287E-2     1.073   
    11.58       0.2632E-2     1.055       0.4381E-2     1.073   
    11.59       0.2684E-2     1.055       0.4479E-2     1.074   
    11.61       0.2737E-2     1.056       0.4580E-2     1.075   
    11.62       0.2792E-2     1.056       0.4684E-2     1.075   
    11.64       0.2849E-2     1.056       0.4793E-2     1.076   
    11.65       0.2907E-2     1.057       0.4905E-2     1.077   
    11.67       0.2968E-2     1.057       0.5022E-2     1.077   
    11.68       0.3030E-2     1.058       0.5142E-2     1.078   
    11.70       0.3095E-2     1.058       0.5268E-2     1.079   
    11.71       0.3161E-2     1.059       0.5398E-2     1.080   
    11.73       0.3230E-2     1.059       0.5533E-2     1.081   
    11.74       0.3301E-2     1.060       0.5674E-2     1.081   
    11.76       0.3375E-2     1.060       0.5820E-2     1.082   
    11.77       0.3452E-2     1.061       0.5972E-2     1.083   
    11.79       0.3531E-2     1.061       0.6130E-2     1.084   
    11.80       0.3613E-2     1.062       0.6294E-2     1.085   
    11.82       0.3698E-2     1.062       0.6466E-2     1.086   
    11.83       0.3787E-2     1.063       0.6645E-2     1.087   
    11.85       0.3879E-2     1.063       0.6832E-2     1.088   
    11.86       0.3974E-2     1.064       0.7026E-2     1.089   
    11.88       0.4073E-2     1.065       0.7230E-2     1.090   
    11.89       0.4176E-2     1.065       0.7443E-2     1.091   
    11.91       0.4283E-2     1.066       0.7665E-2     1.092   
    11.92       0.4394E-2     1.066       0.7898E-2     1.093   
    11.94       0.4510E-2     1.067       0.8142E-2     1.094   
    11.95       0.4631E-2     1.068       0.8398E-2     1.096   
    11.97       0.4757E-2     1.068       0.8667E-2     1.097   
    11.98       0.4889E-2     1.069       0.8948E-2     1.098   
    12.00       0.5026E-2     1.070       0.9244E-2     1.100   
    12.01       0.5169E-2     1.071       0.9556E-2     1.101   
    12.03       0.5319E-2     1.071       0.9883E-2     1.102   
    12.04       0.5476E-2     1.072       0.1023E-1     1.104   
    12.06       0.5640E-2     1.073       0.1059E-1     1.105   
    12.07       0.5811E-2     1.074       0.1098E-1     1.107   
    12.09       0.5991E-2     1.075       0.1138E-1     1.109   
    12.10       0.6180E-2     1.076       0.1181E-1     1.110   
    12.12       0.6379E-2     1.077       0.1227E-1     1.112   
    12.13       0.6587E-2     1.077       0.1275E-1     1.114   
    12.15       0.6806E-2     1.078       0.1326E-1     1.116   
    12.16       0.7037E-2     1.079       0.1380E-1     1.118   
    12.18       0.7279E-2     1.081       0.1438E-1     1.120   
    12.19       0.7536E-2     1.082       0.1500E-1     1.122   
    12.21       0.7806E-2     1.083       0.1565E-1     1.124   
    12.22       0.8092E-2     1.084       0.1636E-1     1.126   
    12.24       0.8394E-2     1.085       0.1711E-1     1.129   
    12.25       0.8714E-2     1.086       0.1791E-1     1.131   
    12.27       0.9053E-2     1.088       0.1877E-1     1.134   
    12.28       0.9413E-2     1.089       0.1970E-1     1.136   
    12.30       0.9795E-2     1.090       0.2069E-1     1.139   
    12.31       0.1020E-1     1.092       0.2177E-1     1.142   
    12.33       0.1064E-1     1.093       0.2293E-1     1.145   
    12.34       0.1110E-1     1.095       0.2419E-1     1.149   
    12.36       0.1159E-1     1.096       0.2556E-1     1.152   
    12.37       0.1212E-1     1.098       0.2704E-1     1.156   
    12.38739      0.01268      1.09993      0.02866      1.15975
    12.40240      0.01329      1.10178      0.03043      1.16381
    12.41742      0.01394      1.10371      0.03237      1.16810
    12.43243      0.01465      1.10574      0.03449      1.17263
    12.44745      0.01540      1.10786      0.03684      1.17744
    12.46246      0.01622      1.11008      0.03942      1.18253
    12.47748      0.01711      1.11242      0.04229      1.18794
    12.49249      0.01807      1.11487      0.04548      1.19369
    12.50751      0.01912      1.11745      0.04903      1.19982
    12.52252      0.02026      1.12018      0.05302      1.20634
    12.53754      0.02151      1.12305      0.05749      1.21330
    12.55255      0.02288      1.12608      0.06255      1.22074
    12.56757      0.02438      1.12928      0.06828      1.22868
    12.58258      0.02603      1.13268      0.07481      1.23718
    12.59760      0.02786      1.13627      0.08228      1.24626
    12.61261      0.02989      1.14010      0.09088      1.25596
    12.62763      0.03214      1.14416      0.10083      1.26630
    12.64264      0.03466      1.14848      0.11239      1.27729
    12.65766      0.03748      1.15309      0.12592      1.28891
    12.67267      0.04065      1.15800      0.14182      1.30109
    12.68769      0.04424      1.16325      0.16061      1.31367
    12.70270      0.04830      1.16885      0.18292      1.32640
    12.71772      0.05294      1.17485      0.20951      1.33880
    12.73273      0.05824      1.18125      0.24123      1.35012
    12.74775      0.06436      1.18809      0.27904      1.35916
    12.76276      0.07143      1.19537      0.32381      1.36409
    12.77778      0.07967      1.20311      0.37605      1.36224
    12.79279      0.08930      1.21128      0.43542      1.34998
    12.80781      0.10064      1.21982      0.49983      1.32288
    12.82282      0.11405      1.22863      0.56453      1.27657
    12.83784      0.12999      1.23750      0.62156      1.20861
    12.85285      0.14898      1.24607      0.66089      1.12105
    12.86787      0.17165      1.25379      0.67377      1.02195
    12.88288      0.19864      1.25976      0.65699      0.92375
    12.89790      0.23055      1.26262      0.61470      0.83850
    12.91291      0.26767      1.26044      0.55609      0.77349
    12.92793      0.30961      1.25057      0.49106      0.72999
    12.94294      0.35469      1.22989      0.42715      0.70519
    12.95796      0.39927      1.19546      0.36870      0.69461
    12.97297      0.43749      1.14596      0.31749      0.69389
    12.98799      0.46234      1.08342      0.27374      0.69954
    13.00300      0.46814      1.01406      0.23683      0.70901
    13.01802      0.45345      0.94671      0.20588      0.72056
    13.03303      0.42185      0.88942      0.17994      0.73308
    13.04805      0.38000      0.84659      0.15817      0.74585
    13.06306      0.33463      0.81856      0.13983      0.75844
    13.07808      0.29063      0.80307      0.12431      0.77060
    13.09309      0.25073      0.79699      0.11110      0.78219
    13.10811      0.21594      0.79735      0.09979      0.79315
    13.12312      0.18629      0.80181      0.09007      0.80347
    13.13814      0.16131      0.80872      0.08166      0.81315
    13.15315      0.14037      0.81693      0.07435      0.82222
    13.16817      0.12283      0.82572      0.06797      0.83071
    13.18318      0.10809      0.83463      0.06236      0.83866
    13.19820      0.09567      0.84338      0.05742      0.84611
    13.21321      0.08515      0.85181      0.05304      0.85309
    13.22823      0.07619      0.85984      0.04914      0.85965
    13.24324      0.06852      0.86743      0.04567      0.86582
    13.25826      0.06191      0.87457      0.04256      0.87162
    13.27327      0.05619      0.88127      0.03976      0.87708
    13.28829      0.05122      0.88755      0.03724      0.88225
    13.30330      0.04687      0.89343      0.03496      0.88712
    13.31832      0.04305      0.89894      0.03289      0.89174
    13.33333      0.03969      0.90411      0.03101      0.89612
    13.34835      0.03670      0.90896      0.02929      0.90027
    13.36336      0.03404      0.91351      0.02772      0.90423
    13.37838      0.03167      0.91780      0.02629      0.90799
    13.39339      0.02955      0.92183      0.02497      0.91157
    13.40841      0.02764      0.92564      0.02376      0.91500
    13.42342      0.02591      0.92924      0.02265      0.91827
    13.43844      0.02435      0.93265      0.02162      0.92140
    13.45345      0.02294      0.93587      0.02067      0.92441
    13.46847      0.02165      0.93893      0.01979      0.92729
    13.48348      0.02048      0.94184      0.01897      0.93005
    13.49850      0.01941      0.94461      0.01822      0.93272
    13.51351      0.01843      0.94726      0.01751      0.93528
    13.52853      0.01753      0.94978      0.01686      0.93775
    13.54354      0.01670      0.95219      0.01625      0.94014
    13.55856      0.01594      0.95449      0.01568      0.94244
    13.57357      0.01524      0.95670      0.01516      0.94468
    13.58859      0.01459      0.95882      0.01466      0.94684
    13.60360      0.01399      0.96086      0.01420      0.94893
    13.62       0.1343E-1    0.9628       0.1377E-1    0.9510   
    13.63       0.1292E-1    0.9647       0.1337E-1    0.9529   
    13.65       0.1244E-1    0.9665       0.1300E-1    0.9549   
    13.66       0.1199E-1    0.9683       0.1264E-1    0.9567   
    13.68       0.1158E-1    0.9700       0.1232E-1    0.9586   
    13.69       0.1119E-1    0.9716       0.1201E-1    0.9603   
    13.71       0.1083E-1    0.9732       0.1173E-1    0.9621   
    13.72       0.1050E-1    0.9748       0.1146E-1    0.9638   
    13.74       0.1019E-1    0.9763       0.1121E-1    0.9654   
    13.75       0.9897E-2    0.9777       0.1098E-1    0.9671   
    13.77       0.9625E-2    0.9792       0.1077E-1    0.9687   
    13.78       0.9372E-2    0.9806       0.1057E-1    0.9702   
    13.80       0.9136E-2    0.9819       0.1038E-1    0.9718   
    13.81       0.8915E-2    0.9832       0.1021E-1    0.9733   
    13.83       0.8710E-2    0.9845       0.1006E-1    0.9748   
    13.84       0.8519E-2    0.9858       0.9913E-2    0.9762   
    13.86       0.8341E-2    0.9870       0.9782E-2    0.9777   
    13.87       0.8176E-2    0.9882       0.9663E-2    0.9791   
    13.89       0.8023E-2    0.9894       0.9557E-2    0.9805   
    13.90       0.7881E-2    0.9906       0.9461E-2    0.9819   
    13.92       0.7749E-2    0.9917       0.9377E-2    0.9833   
    13.93       0.7628E-2    0.9929       0.9304E-2    0.9847   
    13.95       0.7517E-2    0.9940       0.9242E-2    0.9861   
    13.96       0.7416E-2    0.9951       0.9191E-2    0.9874   
    13.98       0.7323E-2    0.9962       0.9150E-2    0.9888   
    13.99       0.7239E-2    0.9972       0.9120E-2    0.9901   
    14.01       0.7164E-2    0.9983       0.9101E-2    0.9915   
    14.02       0.7097E-2    0.9994       0.9093E-2    0.9928   
    14.04       0.7037E-2     1.000       0.9095E-2    0.9942   
    14.05       0.6986E-2     1.001       0.9108E-2    0.9955   
    14.07       0.6943E-2     1.002       0.9133E-2    0.9968   
    14.08       0.6907E-2     1.003       0.9169E-2    0.9982   
    14.10       0.6878E-2     1.005       0.9216E-2    0.9995   
    14.11       0.6857E-2     1.006       0.9275E-2     1.001   
    14.13       0.6843E-2     1.007       0.9347E-2     1.002   
    14.14       0.6837E-2     1.008       0.9432E-2     1.004   
    14.16       0.6838E-2     1.009       0.9530E-2     1.005   
    14.17       0.6847E-2     1.010       0.9641E-2     1.006   
    14.19       0.6863E-2     1.011       0.9768E-2     1.008   
    14.20       0.6886E-2     1.012       0.9910E-2     1.009   
    14.22       0.6917E-2     1.013       0.1007E-1     1.011   
    14.23       0.6957E-2     1.014       0.1024E-1     1.012   
    14.25       0.7004E-2     1.015       0.1044E-1     1.014   
    14.26       0.7059E-2     1.016       0.1065E-1     1.015   
    14.28       0.7123E-2     1.017       0.1088E-1     1.017   
    14.29       0.7196E-2     1.018       0.1114E-1     1.018   
    14.31       0.7278E-2     1.019       0.1142E-1     1.020   
    14.32       0.7369E-2     1.020       0.1172E-1     1.022   
    14.34       0.7471E-2     1.021       0.1206E-1     1.024   
    14.35       0.7583E-2     1.022       0.1242E-1     1.025   
    14.37       0.7706E-2     1.023       0.1282E-1     1.027   
    14.38       0.7840E-2     1.024       0.1325E-1     1.029   
    14.40       0.7987E-2     1.026       0.1372E-1     1.031   
    14.41       0.8146E-2     1.027       0.1424E-1     1.033   
    14.43       0.8320E-2     1.028       0.1481E-1     1.035   
    14.44       0.8507E-2     1.029       0.1542E-1     1.037   
    14.46       0.8711E-2     1.030       0.1610E-1     1.039   
    14.47       0.8931E-2     1.032       0.1684E-1     1.042   
    14.49       0.9170E-2     1.033       0.1765E-1     1.044   
    14.50       0.9428E-2     1.034       0.1855E-1     1.047   
    14.52       0.9706E-2     1.036       0.1953E-1     1.049   
    14.53       0.1001E-1     1.037       0.2062E-1     1.052   
    14.55       0.1033E-1     1.039       0.2183E-1     1.055   
    14.56       0.1069E-1     1.040       0.2317E-1     1.058   
    14.58       0.1107E-1     1.042       0.2466E-1     1.061   
    14.59       0.1148E-1     1.043       0.2632E-1     1.064   
    14.61       0.1193E-1     1.045       0.2818E-1     1.068   
    14.62       0.1242E-1     1.047       0.3027E-1     1.072   
    14.64       0.1294E-1     1.049       0.3263E-1     1.076   
    14.65       0.1352E-1     1.050       0.3530E-1     1.080   
    14.67       0.1415E-1     1.052       0.3834E-1     1.085   
    14.68469      0.01483      1.05442      0.04181      1.08933
    14.69970      0.01558      1.05655      0.04578      1.09443
    14.71472      0.01640      1.05877      0.05037      1.09986
    14.72973      0.01730      1.06110      0.05568      1.10563
    14.74475      0.01829      1.06354      0.06187      1.11173
    14.75976      0.01938      1.06611      0.06912      1.11815
    14.77478      0.02059      1.06882      0.07766      1.12485
    14.78979      0.02193      1.07167      0.08776      1.13175
    14.80481      0.02341      1.07468      0.09977      1.13869
    14.81982      0.02507      1.07787      0.11409      1.14541
    14.83484      0.02693      1.08125      0.13119      1.15148
    14.84985      0.02902      1.08484      0.15156      1.15624
    14.86487      0.03138      1.08865      0.17564      1.15865
    14.87988      0.03404      1.09271      0.20368      1.15726
    14.89490      0.03707      1.09703      0.23538      1.15008
    14.90991      0.04054      1.10163      0.26948      1.13473
    14.92492      0.04451      1.10653      0.30324      1.10899
    14.93994      0.04910      1.11175      0.33227      1.07183
    14.95496      0.05442      1.11729      0.35123      1.02475
    14.96997      0.06063      1.12316      0.35580      0.97241
    14.98499      0.06790      1.12933      0.34484      0.92151
    15.00000      0.07648      1.13576      0.32102      0.87815
# 
# 07/24/2018 at 09:14 YAMBO @ NewLaptop [start]
# 07/24/2018 at 09:14                   [end]
#
# .-Input file : yambo.in
# | optics                         # [R OPT] Optics
# | bse                            # [R BSE] Bethe Salpeter Equation.
# | bsk                            # [R BSK] Bethe Salpeter Equation kernel
# | bss                            # [R BSS] Bethe Salpeter Equation solver
# | tddft                          # [R   K] Use TDDFT kernel
# | BoseTemp= 0.000000     eV      # Bosonic Temperature
# | FFTGvecs=  4945        RL      # [FFT] Plane-waves
# | NonPDirs= "XYZ"                # [X/BSS] Non periodic chartesian directions (X,Y,Z,XY...)
# | BSEmod= "retarded"             # [BSE] resonant/retarded/coupling
# | BSKmod= "ALDA"                 # [BSE] IP/Hartree/HF/ALDA/SEX/BSfxc
# | BSSmod= "d"                    # [BSS] (h)aydock/(d)iagonalization/(i)nversion/(t)ddft`
# | BSENGexx=  4067        RL      # [BSK] Exchange components
# | % BEnRange
# |   0.00000 | 15.00000 | eV      # [BSS] Energy range
# | %
# | % BDmRange
# |   0.10000 |  0.10000 | eV      # [BSS] Damping range
# | %
# | BEnSteps= 1000                 # [BSS] Energy steps
# | % BLongDir
# | 0.1000E-4 | 0.000    | 0.000    |        # [BSS] [cc] Electric Field
# | %
# | % BSEBands
# |    1 |  50 |                   # [BSK] Bands range
# | %
