#  __  __   ________   ___ __ __    _______   ______        
# /_/\/_/\ /_______/\ /__//_//_/\ /_______/\ /_____/\       
# \ \ \ \ \\::: _  \ \\::\| \| \ \\::: _  \ \\:::_ \ \      
#  \:\_\ \ \\::(_)  \ \\:.      \ \\::(_)  \/_\:\ \ \ \     
#   \::::_\/ \:: __  \ \\:.\-/\  \ \\::  _  \ \\:\ \ \ \    
#     \::\ \  \:.\ \  \ \\. \  \  \ \\::(_)  \ \\:\_\ \ \   
#      \__\/   \__\/\__\/ \__\/ \__\/ \_______\/ \_____\/   
#                                                           
#               Version 3.4.2 Revision 4952                 
#                http://www.yambo-code.org                  
#
# Absorption @ Q(1) [q->0 direction] :0.1000E-4  0.000     0.000   
#
#
# - Energies      are Teter 93(XC)
# - Wavefunctions are Teter 93(XC)
#
# - The Green`s function is causal -
# - Using Shifted Grids -
# - [r,Vnl] *is* included -
#
#   BSK|Identifier              :2766
#      |Dimension               :69
#      |Bands                   :1 - 70
#      |Exchange           [res]: yes
#      |Correlation        [res]: no
#      |Kernel`s coupling       : yes
#      |Exchange           [cpl]: yes
#      |W interaction is bare   : no
#      |Correlation        [cpl]: no
#      |ALDA kernel in R-space  : no
#      |RL vectors    [exchange]:123
#      |E/h energy range    [ev]:-1.000000 - -1.000000
#      |Coupling range     [o/o]: 100.0000 -  100.0000
#
#  E/ev[1]    eps /Im[2] eps /Re[3] eps0/Im[4] eps0/Re[5]
#
  0.00      0.146E-10   1.01       0.00       1.02    
 0.7538E-1  0.1998E-5   1.012     0.3828E-5   1.017   
 0.1508     0.3998E-5   1.012     0.7660E-5   1.017   
 0.2261     0.6001E-5   1.012     0.1150E-4   1.017   
 0.3015     0.8009E-5   1.012     0.1535E-4   1.017   
 0.3769     0.1002E-4   1.012     0.1922E-4   1.017   
 0.4523     0.1204E-4   1.012     0.2311E-4   1.017   
 0.5276     0.1407E-4   1.012     0.2702E-4   1.017   
 0.6030     0.1612E-4   1.012     0.3096E-4   1.017   
 0.6784     0.1817E-4   1.012     0.3494E-4   1.017   
 0.7538     0.2024E-4   1.012     0.3895E-4   1.017   
 0.8291     0.2232E-4   1.012     0.4300E-4   1.017   
 0.9045     0.2443E-4   1.012     0.4710E-4   1.017   
 0.9799     0.2655E-4   1.012     0.5125E-4   1.017   
  1.055     0.2869E-4   1.012     0.5546E-4   1.017   
  1.131     0.3086E-4   1.012     0.5973E-4   1.017   
  1.206     0.3305E-4   1.012     0.6407E-4   1.017   
  1.281     0.3526E-4   1.012     0.6847E-4   1.017   
  1.357     0.3751E-4   1.012     0.7296E-4   1.017   
  1.432     0.3978E-4   1.012     0.7753E-4   1.017   
  1.508     0.4209E-4   1.012     0.8218E-4   1.017   
  1.583     0.4444E-4   1.012     0.8694E-4   1.017   
  1.658     0.4682E-4   1.012     0.9179E-4   1.017   
  1.734     0.4924E-4   1.012     0.9676E-4   1.018   
  1.809     0.5171E-4   1.012     0.1018E-3   1.018   
  1.884     0.5421E-4   1.012     0.1070E-3   1.018   
  1.960     0.5677E-4   1.013     0.1124E-3   1.018   
  2.035     0.5938E-4   1.013     0.1179E-3   1.018   
  2.111     0.6203E-4   1.013     0.1235E-3   1.018   
  2.186     0.6475E-4   1.013     0.1293E-3   1.018   
  2.261     0.6752E-4   1.013     0.1352E-3   1.018   
  2.337     0.7036E-4   1.013     0.1414E-3   1.018   
  2.412     0.7326E-4   1.013     0.1477E-3   1.018   
  2.487     0.7623E-4   1.013     0.1542E-3   1.018   
  2.563     0.7927E-4   1.013     0.1610E-3   1.019   
  2.638     0.8239E-4   1.013     0.1680E-3   1.019   
  2.714     0.8559E-4   1.013     0.1752E-3   1.019   
  2.789     0.8888E-4   1.013     0.1827E-3   1.019   
  2.864     0.9226E-4   1.013     0.1905E-3   1.019   
  2.940     0.9573E-4   1.013     0.1985E-3   1.019   
  3.015     0.9930E-4   1.013     0.2069E-3   1.019   
  3.090     0.1030E-3   1.013     0.2156E-3   1.020   
  3.166     0.1068E-3   1.014     0.2247E-3   1.020   
  3.241     0.1107E-3   1.014     0.2341E-3   1.020   
  3.317     0.1147E-3   1.014     0.2440E-3   1.020   
  3.392     0.1189E-3   1.014     0.2543E-3   1.020   
  3.467     0.1232E-3   1.014     0.2650E-3   1.020   
  3.543     0.1276E-3   1.014     0.2763E-3   1.021   
  3.618     0.1322E-3   1.014     0.2881E-3   1.021   
  3.693     0.1370E-3   1.014     0.3005E-3   1.021   
  3.769     0.1419E-3   1.014     0.3134E-3   1.021   
  3.844     0.1470E-3   1.014     0.3271E-3   1.022   
  3.920     0.1524E-3   1.014     0.3414E-3   1.022   
  3.995     0.1579E-3   1.015     0.3565E-3   1.022   
  4.070     0.1636E-3   1.015     0.3725E-3   1.022   
  4.146     0.1696E-3   1.015     0.3893E-3   1.023   
  4.221     0.1758E-3   1.015     0.4071E-3   1.023   
  4.296     0.1823E-3   1.015     0.4259E-3   1.023   
  4.372     0.1890E-3   1.015     0.4459E-3   1.024   
  4.447     0.1961E-3   1.015     0.4671E-3   1.024   
  4.523     0.2034E-3   1.016     0.4896E-3   1.024   
  4.598     0.2111E-3   1.016     0.5136E-3   1.025   
  4.673     0.2192E-3   1.016     0.5392E-3   1.025   
  4.749     0.2276E-3   1.016     0.5665E-3   1.025   
  4.824     0.2365E-3   1.016     0.5957E-3   1.026   
  4.899     0.2458E-3   1.016     0.6270E-3   1.026   
  4.975     0.2555E-3   1.017     0.6606E-3   1.027   
  5.050     0.2658E-3   1.017     0.6967E-3   1.027   
  5.126     0.2766E-3   1.017     0.7357E-3   1.028   
  5.201     0.2880E-3   1.017     0.7777E-3   1.028   
  5.276     0.3000E-3   1.017     0.8232E-3   1.029   
  5.352     0.3127E-3   1.018     0.8726E-3   1.030   
  5.427     0.3261E-3   1.018     0.9263E-3   1.030   
  5.503     0.3403E-3   1.018     0.9847E-3   1.031   
  5.578     0.3554E-3   1.018     0.1049E-2   1.032   
  5.653     0.3714E-3   1.019     0.1119E-2   1.033   
  5.729     0.3884E-3   1.019     0.1196E-2   1.034   
  5.804     0.4065E-3   1.019     0.1281E-2   1.034   
  5.879     0.4258E-3   1.020     0.1375E-2   1.035   
  5.955     0.4465E-3   1.020     0.1479E-2   1.037   
  6.030     0.4686E-3   1.020     0.1595E-2   1.038   
  6.106     0.4922E-3   1.021     0.1726E-2   1.039   
  6.181     0.5176E-3   1.021     0.1872E-2   1.040   
  6.256     0.5450E-3   1.021     0.2038E-2   1.042   
  6.332     0.5744E-3   1.022     0.2226E-2   1.043   
  6.407     0.6062E-3   1.022     0.2441E-2   1.045   
  6.482     0.6407E-3   1.023     0.2689E-2   1.047   
  6.558     0.6781E-3   1.023     0.2975E-2   1.049   
  6.633     0.7187E-3   1.024     0.3309E-2   1.051   
  6.709     0.7630E-3   1.024     0.3702E-2   1.054   
  6.784     0.8115E-3   1.025     0.4169E-2   1.057   
  6.859     0.8647E-3   1.025     0.4729E-2   1.060   
  6.935     0.9232E-3   1.026     0.5409E-2   1.064   
  7.010     0.9878E-3   1.027     0.6245E-2   1.068   
  7.085     0.1059E-2   1.028     0.7291E-2   1.073   
  7.161     0.1139E-2   1.028     0.8621E-2   1.079   
  7.236     0.1228E-2   1.029     0.1035E-1   1.086   
  7.312     0.1328E-2   1.030     0.1265E-1   1.094   
  7.387     0.1440E-2   1.031     0.1580E-1   1.105   
  7.462     0.1567E-2   1.032     0.2027E-1   1.117   
  7.538     0.1713E-2   1.034     0.2692E-1   1.134   
  7.613     0.1879E-2   1.035     0.3739E-1   1.155   
  7.688     0.2072E-2   1.037     0.5511E-1   1.184   
  7.764     0.2296E-2   1.038     0.8824E-1   1.225   
  7.839     0.2558E-2   1.040     0.1584      1.280   
  7.915     0.2870E-2   1.042     0.3238      1.322   
  7.990     0.3243E-2   1.044     0.6027      1.141   
  8.065     0.3695E-2   1.047     0.4938     0.7442   
  8.141     0.4250E-2   1.050     0.2389     0.6995   
  8.216     0.4943E-2   1.053     0.1228     0.7560   
  8.291     0.5824E-2   1.057     0.7202E-1  0.8054   
  8.367     0.6967E-2   1.062     0.4671E-1  0.8410   
    8.4422     0.0085     1.0673     0.0326     0.8668
   8.51759    0.01058    1.07415    0.02395    0.88599
   8.59297    0.01356    1.08266    0.01834    0.90074
   8.66834    0.01801    1.09355    0.01450    0.91241
   8.74372    0.02506    1.10790    0.01176    0.92185
    8.8191     0.0371     1.1274     0.0097     0.9297
  8.894     0.6008E-1   1.155     0.8229E-2  0.9362   
  8.970     0.1096      1.190     0.7060E-2  0.9418   
  9.045     0.2263      1.209     0.6148E-2  0.9467   
  9.121     0.3881      1.056     0.5433E-2  0.9510   
  9.196     0.2763     0.8385     0.4873E-2  0.9548   
  9.271     0.1332     0.8334     0.4444E-2  0.9582   
  9.347     0.7105E-1  0.8703     0.4133E-2  0.9614   
  9.422     0.4361E-1  0.9008     0.3945E-2  0.9644   
  9.497     0.3006E-1  0.9236     0.3906E-2  0.9672   
  9.573     0.2295E-1  0.9410     0.4090E-2  0.9701   
  9.648     0.1948E-1  0.9554     0.4684E-2  0.9731   
  9.724     0.1879E-1  0.9683     0.6188E-2  0.9763   
    9.7990     0.0215     0.9810     0.0100     0.9792
   9.87437    0.03076    0.99378    0.01724    0.97716
   9.94975    0.05488    0.99998    0.01580    0.96778
  10.03     0.8030E-1  0.9674     0.8678E-2  0.9672   
  10.10     0.5189E-1  0.9366     0.5272E-2  0.9700   
  10.18     0.2713E-1  0.9420     0.3807E-2  0.9727   
  10.25     0.1650E-1  0.9521     0.3127E-2  0.9750   
  10.33     0.1170E-1  0.9606     0.2832E-2  0.9771   
  10.40     0.9363E-2  0.9677     0.2797E-2  0.9791   
  10.48     0.8311E-2  0.9738     0.3030E-2  0.9811   
  10.55     0.8163E-2  0.9795     0.3680E-2  0.9833   
  10.63     0.8960E-2  0.9854     0.5200E-2  0.9859   
  10.70     0.1122E-1  0.9919     0.8891E-2  0.9885   
  10.77890    0.01652    0.99945    0.01682    0.98721
  10.85427    0.02941    1.00709    0.01858    0.97568
  10.93     0.5658E-1   1.001     0.1010E-1  0.9721   
  11.01     0.6054E-1  0.9607     0.5493E-2  0.9743   
  11.08     0.3215E-1  0.9493     0.3539E-2  0.9767   
  11.16     0.1723E-1  0.9560     0.2634E-2  0.9786   
  11.23     0.1101E-1  0.9633     0.2204E-2  0.9802   
  11.31     0.8310E-2  0.9693     0.2062E-2  0.9817   
  11.38     0.7368E-2  0.9744     0.2202E-2  0.9831   
  11.46     0.7842E-2  0.9792     0.2816E-2  0.9846   
  11.53     0.1047E-1  0.9841     0.4519E-2  0.9858   
  11.61     0.1783E-1  0.9876     0.7386E-2  0.9844   
  11.68     0.2904E-1  0.9795     0.5975E-2  0.9808   
  11.76     0.2176E-1  0.9653     0.3256E-2  0.9810   
  11.83     0.1132E-1  0.9659     0.2020E-2  0.9822   
  11.91     0.6685E-2  0.9697     0.1470E-2  0.9833   
  11.98     0.4626E-2  0.9730     0.1202E-2  0.9842   
  12.06     0.3629E-2  0.9757     0.1073E-2  0.9850   
  12.14     0.3179E-2  0.9781     0.1041E-2  0.9857   
  12.21     0.3142E-2  0.9802     0.1121E-2  0.9865   
  12.29     0.3643E-2  0.9823     0.1408E-2  0.9872   
  12.36     0.5264E-2  0.9843     0.2181E-2  0.9878   
  12.44     0.9055E-2  0.9845     0.3460E-2  0.9873   
  12.51     0.1014E-1  0.9793     0.2801E-2  0.9859   
  12.59     0.5814E-2  0.9778     0.1594E-2  0.9861   
  12.66     0.3367E-2  0.9793     0.1047E-2  0.9867   
  12.74     0.2307E-2  0.9809     0.8026E-3  0.9873   
  12.81     0.1797E-2  0.9822     0.6821E-3  0.9878   
  12.89     0.1532E-2  0.9834     0.6218E-3  0.9883   
  12.96     0.1401E-2  0.9845     0.5999E-3  0.9887   
  13.04     0.1367E-2  0.9854     0.6129E-3  0.9892   
  13.12     0.1438E-2  0.9864     0.6729E-3  0.9896   
  13.19     0.1637E-2  0.9874     0.7997E-3  0.9901   
  13.27     0.1989E-2  0.9885     0.1016E-2  0.9906   
  13.34     0.2792E-2  0.9899     0.1532E-2  0.9912   
  13.42     0.4760E-2  0.9913     0.2808E-2  0.9916   
  13.49     0.9163E-2  0.9909     0.4398E-2  0.9900   
  13.57     0.1099E-1  0.9844     0.3032E-2  0.9880   
  13.64     0.6103E-2  0.9816     0.1582E-2  0.9883   
  13.72     0.3207E-2  0.9827     0.9522E-3  0.9888   
  13.79     0.1970E-2  0.9840     0.6646E-3  0.9893   
  13.87     0.1384E-2  0.9851     0.5151E-3  0.9897   
  13.94     0.1083E-2  0.9859     0.4311E-3  0.9900   
  14.02     0.9368E-3  0.9865     0.3851E-3  0.9903   
  14.10     0.8092E-3  0.9870     0.3450E-3  0.9905   
  14.17     0.6602E-3  0.9874     0.3022E-3  0.9908   
  14.25     0.5624E-3  0.9878     0.2726E-3  0.9910   
  14.32     0.4969E-3  0.9882     0.2513E-3  0.9912   
  14.40     0.4486E-3  0.9886     0.2347E-3  0.9913   
  14.47     0.4108E-3  0.9889     0.2211E-3  0.9915   
  14.55     0.3799E-3  0.9892     0.2096E-3  0.9917   
  14.62     0.3541E-3  0.9895     0.1996E-3  0.9918   
  14.70     0.3319E-3  0.9897     0.1908E-3  0.9920   
  14.77     0.3127E-3  0.9900     0.1829E-3  0.9921   
  14.85     0.2958E-3  0.9902     0.1758E-3  0.9923   
  14.92     0.2807E-3  0.9904     0.1694E-3  0.9924   
  15.00     0.2671E-3  0.9906     0.1634E-3  0.9925   
# 
# YAMBO@anomaly x 001 CPUs * 11/19/2015  17:01 [start]
#                            11/19/2015  17:01 [end]
# 
# Cpu Timing [Min/Max/Average]: 02s/02s/02s
#
# .-Input file : yambo.in
# | optics                       # [R OPT] Optics
# | bse                          # [R BSE] Bethe Salpeter Equation.
# | bsk                          # [R BSK] Bethe Salpeter Equation kernel
# | bss                          # [R BSS] Bethe Salpeter Equation solver
# | BoseTemp= 0.000000     eV    # Bosonic Temperature
# | FFTGvecs=  9939        RL    # [FFT] Plane-waves
# | NonPDirs= "XYZ"              # [X/BSS] Non periodic chartesian directions (X,Y,Z,XY...)
# | BSEmod= "coupling"           # [BSE] resonant/causal/coupling
# | BSKmod= "Hartree"            # [BSE] IP/Hartree/HF/ALDA/SEX/BSfxc
# | BSSmod= "dh"                 # [BSS] (h)aydock/(d)iagonalization/(i)nversion/(t)ddft`
# | BSENGexx= 123          RL    # [BSK] Exchange components
# | % BEnRange
# |   0.00000 | 15.00000 | eV    # [BSS] Energy range
# | %
# | % BDmRange
# |   0.10000 |  0.10000 | eV    # [BSS] Damping range
# | %
# | BEnSteps= 200                # [BSS] Energy steps
# | % BLongDir
# | 0.1000E-4 | 0.000    | 0.000    |        # [BSS] [cc] Electric Field
# | %
# | % BSEBands
# |    1 |  70 |                 # [BSK] Bands range
# | %
# | BSHayTrs=   0.0050           # [BSS] [o/o] Haydock treshold. Strict(>0)/Average(<0)
