#                                                           
#  __  __   ________   ___ __ __    _______   ______        
# /_/\/_/\ /_______/\ /__//_//_/\ /_______/\ /_____/\       
# \ \ \ \ \\::: _  \ \\::\| \| \ \\::: _  \ \\:::_ \ \      
#  \:\_\ \ \\::(_)  \ \\:.      \ \\::(_)  \/_\:\ \ \ \     
#   \::::_\/ \:: __  \ \\:.\-/\  \ \\::  _  \ \\:\ \ \ \    
#     \::\ \  \:.\ \  \ \\. \  \  \ \\::(_)  \ \\:\_\ \ \   
#      \__\/   \__\/\__\/ \__\/ \__\/ \_______\/ \_____\/   
#                                                           
#                                                           
#        Version 4.3.0 Revision 15624 Hash 7ed12fb          
#                      MPI+SLK Build                        
#                http://www.yambo-code.org                  
#
# Polarizability ( -<<X>> ) [volume @ Q(1) [q->0 direction]0.1000E-4  0.000     0.000   
#
#
# - Energies      are Teter 93(XC)
# - Wavefunctions are Teter 93(XC)
#
# - The Green`s function is Retarded -
# - Using the Length Gauge -
# - [r,Vnl] *is* included -
#
#   BSK|Identifier              :1210
#      |Dimension               :49
#      |Bands                   :1 - 50
#      |Exchange           [res]: yes
#      |Correlation        [res]: no
#      |Kernel`s coupling       : yes
#      |Exchange           [cpl]: yes
#      |Correlation        [cpl]: no
#      |W interaction is bare   : no
#      |ALDA kernel in R-space  : no
#      |RL vectors    [exchange]:123
#      |E/h energy range    [ev]:-1.000000 - -1.000000
#      |Coupling range     [o/o]: 100.0000 -  100.0000
#  
#   Haydock|Accuracy (requested) [o/o]:   0.0050
#          |Accuracy (reached)   [o/o]:0.6325E-7
#          |Iteration                 :14
#
#    E/ev[1]      ALPHA-Im[2]  ALPHA-Re[3]  ALPHAo-Im[4] ALPHAo-Re[5] ALPHA`-Im[6] ALPHA`-Re[7]
#
    0.000000     0.000000     4.148331     0.000000     5.150704     0.000000     4.148331
   0.7538E-1    0.2509E-3     4.148       0.3746E-3     5.151       0.2509E-3     4.148   
   0.1508       0.5011E-3     4.149       0.7494E-3     5.151       0.5011E-3     4.149   
   0.2261       0.7519E-3     4.149       0.1124E-2     5.152       0.7519E-3     4.149   
   0.3015       0.1003E-2     4.150       0.1500E-2     5.153       0.1003E-2     4.150   
   0.3769       0.1254E-2     4.151       0.1876E-2     5.154       0.1254E-2     4.151   
   0.4523       0.1506E-2     4.152       0.2253E-2     5.156       0.1506E-2     4.152   
   0.5276       0.1758E-2     4.153       0.2630E-2     5.158       0.1758E-2     4.153   
   0.6030       0.2011E-2     4.154       0.3008E-2     5.160       0.2011E-2     4.154   
   0.6784       0.2264E-2     4.156       0.3388E-2     5.162       0.2264E-2     4.156   
   0.7538       0.2518E-2     4.158       0.3768E-2     5.165       0.2518E-2     4.158   
   0.8291       0.2773E-2     4.160       0.4150E-2     5.168       0.2773E-2     4.160   
   0.9045       0.3028E-2     4.162       0.4534E-2     5.171       0.3028E-2     4.162   
   0.9799       0.3285E-2     4.164       0.4919E-2     5.175       0.3285E-2     4.164   
    1.055       0.3542E-2     4.167       0.5306E-2     5.179       0.3542E-2     4.167   
    1.131       0.3801E-2     4.170       0.5695E-2     5.183       0.3801E-2     4.170   
    1.206       0.4061E-2     4.173       0.6086E-2     5.187       0.4061E-2     4.173   
    1.281       0.4322E-2     4.176       0.6479E-2     5.192       0.4322E-2     4.176   
    1.357       0.4584E-2     4.179       0.6874E-2     5.197       0.4584E-2     4.179   
    1.432       0.4848E-2     4.183       0.7272E-2     5.202       0.4848E-2     4.183   
    1.508       0.5114E-2     4.186       0.7673E-2     5.208       0.5114E-2     4.186   
      1.5829       0.0054       4.1904       0.0081       5.2138       0.0054       4.1904
      1.6583       0.0056       4.1946       0.0085       5.2200       0.0056       4.1946
      1.7337       0.0059       4.1990       0.0089       5.2265       0.0059       4.1990
      1.8090       0.0062       4.2035       0.0093       5.2334       0.0062       4.2035
      1.8844       0.0065       4.2083       0.0097       5.2406       0.0065       4.2083
      1.9598       0.0067       4.2133       0.0101       5.2481       0.0067       4.2133
      2.0352       0.0070       4.2184       0.0106       5.2558       0.0070       4.2184
      2.1106       0.0073       4.2238       0.0110       5.2640       0.0073       4.2238
      2.1859       0.0076       4.2295       0.0114       5.2724       0.0076       4.2295
      2.2613       0.0079       4.2353       0.0119       5.2812       0.0079       4.2353
      2.3367       0.0082       4.2413       0.0123       5.2903       0.0082       4.2413
      2.4121       0.0085       4.2476       0.0127       5.2998       0.0085       4.2476
      2.4874       0.0087       4.2540       0.0132       5.3095       0.0087       4.2540
      2.5628       0.0090       4.2608       0.0137       5.3197       0.0090       4.2608
      2.6382       0.0093       4.2677       0.0141       5.3301       0.0093       4.2677
      2.7136       0.0096       4.2749       0.0146       5.3409       0.0096       4.2749
      2.7889       0.0100       4.2822       0.0151       5.3521       0.0100       4.2822
     2.86432      0.01026      4.28986      0.01554      5.36360      0.01026      4.28986
     2.93970      0.01058      4.29770      0.01602      5.37551      0.01058      4.29770
     3.01508      0.01089      4.30580      0.01651      5.38777      0.01089      4.30580
     3.09045      0.01121      4.31413      0.01701      5.40040      0.01121      4.31413
     3.16583      0.01154      4.32269      0.01752      5.41342      0.01154      4.32269
     3.24121      0.01187      4.33153      0.01803      5.42681      0.01187      4.33153
     3.31658      0.01220      4.34057      0.01855      5.44058      0.01220      4.34057
     3.39196      0.01254      4.34991      0.01908      5.45475      0.01254      4.34991
     3.46734      0.01288      4.35948      0.01962      5.46935      0.01288      4.35948
     3.54271      0.01323      4.36933      0.02016      5.48433      0.01323      4.36933
     3.61809      0.01358      4.37943      0.02072      5.49973      0.01358      4.37943
     3.69347      0.01394      4.38977      0.02128      5.51555      0.01394      4.38977
     3.76884      0.01430      4.40043      0.02186      5.53183      0.01430      4.40043
     3.84422      0.01467      4.41133      0.02244      5.54849      0.01467      4.41133
     3.91960      0.01504      4.42252      0.02303      5.56564      0.01504      4.42252
     3.99497      0.01542      4.43400      0.02364      5.58323      0.01542      4.43400
     4.07035      0.01580      4.44576      0.02425      5.60124      0.01580      4.44576
     4.14573      0.01619      4.45782      0.02488      5.61975      0.01619      4.45782
     4.22111      0.01659      4.47018      0.02552      5.63875      0.01659      4.47018
     4.29648      0.01700      4.48284      0.02617      5.65823      0.01700      4.48284
     4.37186      0.01741      4.49581      0.02683      5.67818      0.01741      4.49581
     4.44724      0.01783      4.50905      0.02751      5.69867      0.01783      4.50905
     4.52261      0.01825      4.52267      0.02820      5.71964      0.01825      4.52267
     4.59799      0.01869      4.53656      0.02890      5.74117      0.01869      4.53656
     4.67337      0.01913      4.55083      0.02962      5.76321      0.01913      4.55083
     4.74874      0.01958      4.56539      0.03036      5.78580      0.01958      4.56539
     4.82412      0.02004      4.58035      0.03111      5.80898      0.02004      4.58035
     4.89950      0.02050      4.59562      0.03188      5.83270      0.02050      4.59562
     4.97487      0.02098      4.61124      0.03266      5.85699      0.02098      4.61124
     5.05025      0.02147      4.62723      0.03346      5.88193      0.02147      4.62723
     5.12563      0.02196      4.64358      0.03428      5.90745      0.02196      4.64358
     5.20100      0.02247      4.66034      0.03513      5.93359      0.02247      4.66034
     5.27638      0.02299      4.67747      0.03599      5.96037      0.02299      4.67747
     5.35176      0.02351      4.69497      0.03687      5.98784      0.02351      4.69497
     5.42714      0.02405      4.71289      0.03777      6.01595      0.02405      4.71289
     5.50251      0.02460      4.73121      0.03870      6.04475      0.02460      4.73121
     5.57789      0.02517      4.74997      0.03965      6.07427      0.02517      4.74997
     5.65327      0.02574      4.76915      0.04062      6.10451      0.02574      4.76915
     5.72864      0.02633      4.78876      0.04162      6.13548      0.02633      4.78876
     5.80402      0.02693      4.80883      0.04265      6.16724      0.02693      4.80883
     5.87940      0.02755      4.82937      0.04370      6.19976      0.02755      4.82937
     5.95477      0.02818      4.85036      0.04478      6.23309      0.02818      4.85036
     6.03015      0.02883      4.87184      0.04590      6.26726      0.02883      4.87184
     6.10553      0.02949      4.89382      0.04704      6.30226      0.02949      4.89382
     6.18090      0.03017      4.91628      0.04822      6.33815      0.03017      4.91628
     6.25628      0.03087      4.93927      0.04943      6.37494      0.03087      4.93927
     6.33166      0.03158      4.96282      0.05068      6.41263      0.03158      4.96282
     6.40704      0.03232      4.98689      0.05196      6.45131      0.03232      4.98689
     6.48241      0.03307      5.01153      0.05328      6.49096      0.03307      5.01153
     6.55779      0.03384      5.03673      0.05465      6.53159      0.03384      5.03673
     6.63317      0.03464      5.06251      0.05606      6.57331      0.03464      5.06251
     6.70854      0.03545      5.08893      0.05751      6.61608      0.03545      5.08893
     6.78392      0.03629      5.11595      0.05901      6.65996      0.03629      5.11595
     6.85930      0.03716      5.14361      0.06055      6.70499      0.03716      5.14361
     6.93467      0.03805      5.17195      0.06215      6.75121      0.03805      5.17195
     7.01005      0.03896      5.20095      0.06381      6.79871      0.03896      5.20095
     7.08543      0.03990      5.23067      0.06552      6.84739      0.03990      5.23067
     7.16080      0.04088      5.26110      0.06729      6.89743      0.04088      5.26110
     7.23618      0.04188      5.29228      0.06912      6.94882      0.04188      5.29228
     7.31156      0.04291      5.32420      0.07102      7.00158      0.04291      5.32420
     7.38694      0.04397      5.35694      0.07298      7.05580      0.04397      5.35694
     7.46231      0.04507      5.39048      0.07502      7.11156      0.04507      5.39048
     7.53769      0.04621      5.42488      0.07714      7.16887      0.04621      5.42488
     7.61307      0.04738      5.46013      0.07934      7.22778      0.04738      5.46013
     7.68844      0.04860      5.49629      0.08162      7.28840      0.04860      5.49629
     7.76382      0.04985      5.53337      0.08400      7.35078      0.04985      5.53337
     7.83920      0.05115      5.57140      0.08646      7.41498      0.05115      5.57140
     7.91457      0.05250      5.61043      0.08904      7.48107      0.05250      5.61043
     7.98995      0.05389      5.65050      0.09171      7.54912      0.05389      5.65050
     8.06533      0.05533      5.69164      0.09450      7.61924      0.05533      5.69164
     8.14070      0.05683      5.73387      0.09741      7.69149      0.05683      5.73387
     8.21608      0.05839      5.77728      0.10045      7.76601      0.05839      5.77728
     8.29146      0.06000      5.82188      0.10363      7.84284      0.06000      5.82188
     8.36683      0.06168      5.86768      0.10695      7.92215      0.06168      5.86768
     8.44221      0.06343      5.91484      0.11042      8.00400      0.06343      5.91484
     8.51759      0.06525      5.96332      0.11405      8.08852      0.06525      5.96332
     8.59297      0.06714      6.01316      0.11786      8.17583      0.06714      6.01316
     8.66834      0.06911      6.06447      0.12186      8.26607      0.06911      6.06447
     8.74372      0.07117      6.11728      0.12606      8.35940      0.07117      6.11728
     8.81910      0.07332      6.17169      0.13046      8.45595      0.07332      6.17169
     8.89447      0.07556      6.22777      0.13510      8.55592      0.07556      6.22777
     8.96985      0.07790      6.28556      0.13999      8.65951      0.07790      6.28556
     9.04523      0.08036      6.34511      0.14514      8.76681      0.08036      6.34511
     9.12060      0.08293      6.40660      0.15057      8.87811      0.08293      6.40660
     9.19598      0.08562      6.47007      0.15631      8.99358      0.08562      6.47007
     9.27136      0.08845      6.53558      0.16238      9.11352      0.08845      6.53558
     9.34673      0.09141      6.60333      0.16881      9.23819      0.09141      6.60333
     9.42211      0.09453      6.67330      0.17562      9.36776      0.09453      6.67330
     9.49749      0.09782      6.74570      0.18286      9.50264      0.09782      6.74570
    9.572865     0.101279     6.820669     0.190554     9.643148     0.101279     6.820669
    9.648241     0.104929     6.898277     0.198747     9.789593     0.104929     6.898277
    9.723618     0.108783     6.978703     0.207485     9.942439     0.108783     6.978703
     9.79900      0.11286      7.06215      0.21682     10.10201      0.11286      7.06215
     9.87437      0.11717      7.14873      0.22680     10.26888      0.11717      7.14873
     9.94975      0.12175      7.23860      0.23750     10.44347      0.12175      7.23860
    10.02513      0.12661      7.33205      0.24900     10.62641      0.12661      7.33205
    10.10050      0.13177      7.42929      0.26136     10.81828      0.13177      7.42929
    10.17588      0.13728      7.53051      0.27469     11.01981      0.13728      7.53051
    10.25126      0.14315      7.63602      0.28909     11.23171      0.14315      7.63602
    10.32663      0.14942      7.74607      0.30468     11.45485      0.14942      7.74607
    10.40201      0.15614      7.86098      0.32160     11.69019      0.15614      7.86098
    10.47739      0.16334      7.98112      0.34003     11.93873      0.16334      7.98112
    10.55276      0.17108      8.10687      0.36013     12.20170      0.17108      8.10687
    10.62814      0.17942      8.23863      0.38213     12.48045      0.17942      8.23863
    10.70352      0.18843      8.37694      0.40628     12.77638      0.18843      8.37694
    10.77890      0.19817      8.52225      0.43288     13.09134      0.19817      8.52225
    10.85427      0.20875      8.67518      0.46228     13.42721      0.20875      8.67518
    10.92965      0.22025      8.83635      0.49491     13.78618      0.22025      8.83635
    11.00503      0.23280      9.00653      0.53126     14.17094      0.23280      9.00653
    11.08040      0.24654      9.18656      0.57193     14.58434      0.24654      9.18656
    11.15578      0.26162      9.37733      0.61767     15.02993      0.26162      9.37733
    11.23116      0.27825      9.57998      0.66935     15.51168      0.27825      9.57998
    11.30653      0.29664      9.79566      0.72810     16.03446      0.29664      9.79566
    11.38191      0.31707     10.02587      0.79528     16.60392      0.31707     10.02587
    11.45729      0.33986     10.27218      0.87263     17.22685      0.33986     10.27218
    11.53266      0.36541     10.53647      0.96235     17.91148      0.36541     10.53647
    11.60804      0.39421     10.82097      1.06727     18.66784      0.39421     10.82097
    11.68342      0.42685     11.12828      1.19109     19.50824      0.42685     11.12828
    11.75879      0.46407     11.46154      1.33874     20.44805      0.46407     11.46154
    11.83417      0.50682     11.82435      1.51682     21.50669      0.50682     11.82435
    11.90955      0.55627     12.22125      1.73443     22.70897      0.55627     12.22125
    11.98493      0.61397     12.65766      2.00434     24.08725      0.61397     12.65766
    12.06030      0.68191     13.14025      2.34491     25.68417      0.68191     13.14025
    12.13568      0.76274     13.67731      2.78335     27.55760      0.76274     13.67731
    12.21106      0.86005     14.27938      3.36125     29.78723      0.86005     14.27938
    12.28643      0.97877     14.95994      4.14478     32.48619      0.97877     14.95994
    12.36181      1.12580     15.73645      5.24414     35.81948      1.12580     15.73645
    12.43719      1.31111     16.63195      6.85343     40.03540      1.31111     16.63195
    12.51256      1.54950     17.67789      9.33888     45.51947      1.54950     17.67789
    12.58794      1.86362     18.91740     13.45258     52.88197      1.86362     18.91740
    12.66332      2.28960     20.41192     20.91098     63.05879      2.28960     20.41192
    12.73869      2.88781     22.25106     36.13462     77.04472      2.88781     22.25106
    12.81407      3.76501     24.57006     71.36842     91.75074      3.76501     24.57006
     12.8894       5.1236      27.5789     144.3292      69.5113       5.1236      27.5789
     12.9648       7.3818      31.6106     154.3364     -42.1607       7.3818      31.6106
    13.04020     11.50124     37.17133     78.97845    -76.70074     11.50124     37.17133
    13.11558     19.97808     44.76283     39.38110    -63.15625     19.97808     44.76283
    13.19096     39.70421     52.33873     22.48131    -48.58659     39.70421     52.33873
    13.26633     79.05329     37.63515     14.36975    -37.83558     79.05329     37.63515
    13.34171     79.24865    -21.66778      9.98004    -30.01842     79.24865    -21.66778
    13.41709     39.88650    -36.56971      7.37695    -24.15319     39.88650    -36.56971
    13.49246     20.11308    -28.96876      5.72616    -19.58745     20.11308    -28.96876
    13.56784     11.63854    -21.29748      4.62753    -15.90779     11.63854    -21.29748
    13.64322      7.54119    -15.63229      3.87198    -12.84637      7.54119    -15.63229
    13.71859      5.31415    -11.47241      3.34292    -10.22329      5.31416    -11.47241
    13.79397      3.99247     -8.30867      2.97221     -7.91224      3.99247     -8.30867
    13.86935      3.15715     -5.80504      2.71900     -5.82012      3.15715     -5.80504
    13.94472      2.60620     -3.74801      2.55907     -3.87441      2.60620     -3.74801
    14.02010      2.23379     -1.99821      2.47938     -2.01467      2.23379     -1.99821
    14.09548      1.98094     -0.46091      2.47545     -0.18614      1.98094     -0.46091
    14.17085      1.81343      0.93142      2.55077      1.66529      1.81343      0.93142
    14.24623      1.71117      2.22995      2.71798      3.59867      1.71117      2.22995
    14.32161      1.66286      3.47576      3.00248      5.68458      1.66286      3.47576
    14.39699      1.66330      4.70494      3.45006      8.01479      1.66330      4.70494
    14.47236      1.71225      5.95165      4.14284     10.71677      1.71225      5.95165
    14.54774      1.81437      7.25145      5.23357     13.97852      1.81437      7.25145
    14.62312      1.98022      8.64492      7.02582     18.08984      1.98022      8.64492
    14.69849      2.22870     10.18191     10.17947     23.50238      2.22870     10.18191
    14.77387      2.59193     11.92777     16.30131     30.84075      2.59193     11.92777
    14.84925      3.12491     13.97357     29.77061     40.13972      3.12491     13.97357
    14.92462      3.92548     16.45239     61.43524     43.28656      3.92548     16.45239
    15.00000      5.17805     19.56697     98.62359     -1.21272      5.17805     19.56697
# 
# 07/24/2018 at 09:14 YAMBO @ NewLaptop [start]
# 07/24/2018 at 09:14                   [end]
#
# .-Input file : yambo.in
# | optics                         # [R OPT] Optics
# | bse                            # [R BSE] Bethe Salpeter Equation.
# | bsk                            # [R BSK] Bethe Salpeter Equation kernel
# | bss                            # [R BSS] Bethe Salpeter Equation solver
# | BoseTemp= 0.000000     eV      # Bosonic Temperature
# | FFTGvecs=  4945        RL      # [FFT] Plane-waves
# | NonPDirs= "XYZ"                # [X/BSS] Non periodic chartesian directions (X,Y,Z,XY...)
# | BSEmod= "coupling"             # [BSE] resonant/retarded/coupling
# | BSKmod= "Hartree"              # [BSE] IP/Hartree/HF/ALDA/SEX/BSfxc
# | BSSmod= "dh"                   # [BSS] (h)aydock/(d)iagonalization/(i)nversion/(t)ddft`
# | BSENGexx= 123          RL      # [BSK] Exchange components
# | % BEnRange
# |   0.00000 | 15.00000 | eV      # [BSS] Energy range
# | %
# | % BDmRange
# |   0.10000 |  0.10000 | eV      # [BSS] Damping range
# | %
# | BEnSteps= 200                  # [BSS] Energy steps
# | % BLongDir
# | 0.1000E-4 | 0.000    | 0.000    |        # [BSS] [cc] Electric Field
# | %
# | % BSEBands
# |    1 |  50 |                   # [BSK] Bands range
# | %
# | BSHayTrs=   0.0050             # [BSS] Relative [o/o] Haydock treshold. Strict(>0)/Average(<0)
