#                                                           
#  __  __   ________   ___ __ __    _______   ______        
# /_/\/_/\ /_______/\ /__//_//_/\ /_______/\ /_____/\       
# \ \ \ \ \\::: _  \ \\::\| \| \ \\::: _  \ \\:::_ \ \      
#  \:\_\ \ \\::(_)  \ \\:.      \ \\::(_)  \/_\:\ \ \ \     
#   \::::_\/ \:: __  \ \\:.\-/\  \ \\::  _  \ \\:\ \ \ \    
#     \::\ \  \:.\ \  \ \\. \  \  \ \\::(_)  \ \\:\_\ \ \   
#      \__\/   \__\/\__\/ \__\/ \__\/ \_______\/ \_____\/   
#                                                           
#                                                           
#        Version 4.3.0 Revision 15624 Hash 7ed12fb          
#                      MPI+SLK Build                        
#                http://www.yambo-code.org                  
#
# Polarizability ( -<<X>> ) [volume @ Q(1) [q->0 direction]0.1000E-4  0.000     0.000   
#
#
# - Energies      are Teter 93(XC)
# - Wavefunctions are Teter 93(XC)
#
# - The Green`s function is Retarded -
# - Using the Length Gauge -
# - [r,Vnl] *is* included -
#
#   BSK|Identifier              :1210
#      |Dimension               :49
#      |Bands                   :1 - 50
#      |Exchange           [res]: yes
#      |Correlation        [res]: no
#      |Kernel`s coupling       : yes
#      |Exchange           [cpl]: yes
#      |Correlation        [cpl]: no
#      |W interaction is bare   : no
#      |ALDA kernel in R-space  : no
#      |RL vectors    [exchange]:123
#      |E/h energy range    [ev]:-1.000000 - -1.000000
#      |Coupling range     [o/o]: 100.0000 -  100.0000
#
#    E/ev[1]      ALPHA-Im[2]  ALPHA-Re[3]  ALPHAo-Im[4] ALPHAo-Re[5]
#
    0.000       0.2998E-6     4.148        0.000        5.151   
   0.7538E-1    0.2508E-3     4.148       0.3746E-3     5.151   
   0.1508       0.5014E-3     4.149       0.7494E-3     5.151   
   0.2261       0.7522E-3     4.149       0.1124E-2     5.152   
   0.3015       0.1003E-2     4.150       0.1500E-2     5.153   
   0.3769       0.1254E-2     4.151       0.1876E-2     5.154   
   0.4523       0.1506E-2     4.152       0.2253E-2     5.156   
   0.5276       0.1758E-2     4.153       0.2630E-2     5.158   
   0.6030       0.2011E-2     4.154       0.3008E-2     5.160   
   0.6784       0.2264E-2     4.156       0.3388E-2     5.162   
   0.7538       0.2518E-2     4.158       0.3768E-2     5.165   
   0.8291       0.2773E-2     4.160       0.4150E-2     5.168   
   0.9045       0.3028E-2     4.162       0.4534E-2     5.171   
   0.9799       0.3285E-2     4.164       0.4919E-2     5.175   
    1.055       0.3543E-2     4.167       0.5306E-2     5.179   
    1.131       0.3801E-2     4.170       0.5695E-2     5.183   
    1.206       0.4061E-2     4.173       0.6086E-2     5.187   
    1.281       0.4322E-2     4.176       0.6479E-2     5.192   
    1.357       0.4585E-2     4.179       0.6874E-2     5.197   
    1.432       0.4849E-2     4.183       0.7272E-2     5.202   
    1.508       0.5114E-2     4.186       0.7673E-2     5.208   
      1.5829       0.0054       4.1904       0.0081       5.2138
      1.6583       0.0056       4.1946       0.0085       5.2200
      1.7337       0.0059       4.1989       0.0089       5.2265
      1.8090       0.0062       4.2035       0.0093       5.2334
      1.8844       0.0065       4.2083       0.0097       5.2406
      1.9598       0.0067       4.2133       0.0101       5.2481
      2.0352       0.0070       4.2184       0.0106       5.2558
      2.1106       0.0073       4.2238       0.0110       5.2640
      2.1859       0.0076       4.2295       0.0114       5.2724
      2.2613       0.0079       4.2353       0.0119       5.2812
      2.3367       0.0082       4.2413       0.0123       5.2903
      2.4121       0.0085       4.2476       0.0127       5.2998
      2.4874       0.0087       4.2540       0.0132       5.3095
      2.5628       0.0090       4.2607       0.0137       5.3197
      2.6382       0.0093       4.2677       0.0141       5.3301
      2.7136       0.0096       4.2749       0.0146       5.3409
      2.7889       0.0100       4.2822       0.0151       5.3521
     2.86432      0.01026      4.28983      0.01554      5.36360
     2.93970      0.01058      4.29770      0.01602      5.37551
     3.01508      0.01089      4.30580      0.01651      5.38777
     3.09045      0.01121      4.31410      0.01701      5.40040
     3.16583      0.01154      4.32269      0.01752      5.41342
     3.24121      0.01187      4.33150      0.01803      5.42681
     3.31658      0.01220      4.34057      0.01855      5.44058
     3.39196      0.01254      4.34991      0.01908      5.45475
     3.46734      0.01288      4.35948      0.01962      5.46935
     3.54271      0.01323      4.36929      0.02016      5.48433
     3.61809      0.01358      4.37939      0.02072      5.49973
     3.69347      0.01394      4.38977      0.02128      5.51555
     3.76884      0.01430      4.40040      0.02186      5.53183
     3.84422      0.01467      4.41133      0.02244      5.54849
     3.91960      0.01504      4.42252      0.02303      5.56564
     3.99497      0.01542      4.43397      0.02364      5.58323
     4.07035      0.01580      4.44575      0.02425      5.60124
     4.14573      0.01619      4.45782      0.02488      5.61975
     4.22111      0.01659      4.47018      0.02552      5.63875
     4.29648      0.01700      4.48281      0.02617      5.65823
     4.37186      0.01741      4.49577      0.02683      5.67818
     4.44724      0.01783      4.50905      0.02751      5.69867
     4.52261      0.01825      4.52264      0.02820      5.71964
     4.59799      0.01869      4.53656      0.02890      5.74117
     4.67337      0.01913      4.55079      0.02962      5.76321
     4.74874      0.01958      4.56539      0.03036      5.78580
     4.82412      0.02004      4.58031      0.03111      5.80898
     4.89950      0.02050      4.59559      0.03188      5.83270
     4.97487      0.02098      4.61121      0.03266      5.85699
     5.05025      0.02147      4.62723      0.03346      5.88193
     5.12563      0.02196      4.64358      0.03428      5.90745
     5.20100      0.02247      4.66031      0.03513      5.93359
     5.27638      0.02299      4.67744      0.03599      5.96037
     5.35176      0.02351      4.69497      0.03687      5.98784
     5.42714      0.02405      4.71289      0.03777      6.01595
     5.50251      0.02460      4.73121      0.03870      6.04475
     5.57789      0.02517      4.74997      0.03965      6.07427
     5.65327      0.02574      4.76915      0.04062      6.10451
     5.72864      0.02633      4.78876      0.04162      6.13548
     5.80402      0.02693      4.80883      0.04265      6.16724
     5.87940      0.02755      4.82934      0.04370      6.19976
     5.95477      0.02818      4.85033      0.04478      6.23309
     6.03015      0.02883      4.87182      0.04590      6.26726
     6.10553      0.02949      4.89379      0.04704      6.30226
     6.18090      0.03017      4.91628      0.04822      6.33815
     6.25628      0.03087      4.93927      0.04943      6.37494
     6.33166      0.03158      4.96282      0.05068      6.41263
     6.40704      0.03232      4.98686      0.05196      6.45131
     6.48241      0.03307      5.01150      0.05328      6.49096
     6.55779      0.03384      5.03673      0.05465      6.53159
     6.63317      0.03464      5.06251      0.05606      6.57331
     6.70854      0.03545      5.08890      0.05751      6.61608
     6.78392      0.03629      5.11595      0.05901      6.65996
     6.85930      0.03716      5.14361      0.06055      6.70499
     6.93467      0.03805      5.17195      0.06215      6.75121
     7.01005      0.03896      5.20095      0.06381      6.79871
     7.08543      0.03990      5.23067      0.06552      6.84739
     7.16080      0.04088      5.26108      0.06729      6.89743
     7.23618      0.04188      5.29225      0.06912      6.94882
     7.31156      0.04291      5.32420      0.07102      7.00158
     7.38694      0.04397      5.35694      0.07298      7.05580
     7.46231      0.04507      5.39044      0.07502      7.11156
     7.53769      0.04621      5.42485      0.07714      7.16887
     7.61307      0.04738      5.46010      0.07934      7.22778
     7.68844      0.04860      5.49626      0.08162      7.28840
     7.76382      0.04985      5.53333      0.08400      7.35078
     7.83920      0.05115      5.57137      0.08646      7.41498
     7.91457      0.05250      5.61043      0.08904      7.48107
     7.98995      0.05389      5.65047      0.09171      7.54912
     8.06533      0.05533      5.69161      0.09450      7.61924
     8.14070      0.05683      5.73387      0.09741      7.69149
     8.21608      0.05839      5.77725      0.10045      7.76601
     8.29146      0.06000      5.82185      0.10363      7.84284
     8.36683      0.06168      5.86765      0.10695      7.92215
     8.44221      0.06343      5.91483      0.11042      8.00400
     8.51759      0.06525      5.96328      0.11405      8.08852
     8.59297      0.06714      6.01313      0.11786      8.17583
     8.66834      0.06911      6.06444      0.12186      8.26607
     8.74372      0.07117      6.11725      0.12606      8.35940
     8.81910      0.07332      6.17166      0.13046      8.45595
     8.89447      0.07556      6.22771      0.13510      8.55592
     8.96985      0.07790      6.28550      0.13999      8.65951
     9.04523      0.08036      6.34508      0.14514      8.76681
     9.12060      0.08293      6.40657      0.15057      8.87811
     9.19598      0.08562      6.47001      0.15631      8.99358
     9.27136      0.08845      6.53555      0.16238      9.11352
     9.34673      0.09141      6.60326      0.16881      9.23819
     9.42211      0.09453      6.67326      0.17562      9.36776
     9.49749      0.09782      6.74566      0.18286      9.50264
    9.572865     0.101278     6.820606     0.190554     9.643148
    9.648241     0.104927     6.898213     0.198747     9.789593
    9.723618     0.108782     6.978639     0.207485     9.942439
     9.79900      0.11286      7.06209      0.21682     10.10201
     9.87437      0.11717      7.14866      0.22680     10.26888
     9.94975      0.12175      7.23855      0.23750     10.44347
    10.02513      0.12661      7.33199      0.24900     10.62641
    10.10050      0.13177      7.42919      0.26136     10.81828
    10.17588      0.13727      7.53044      0.27469     11.01981
    10.25126      0.14314      7.63592      0.28909     11.23171
    10.32663      0.14942      7.74598      0.30468     11.45485
    10.40201      0.15613      7.86089      0.32160     11.69019
    10.47739      0.16334      7.98103      0.34003     11.93873
    10.55276      0.17108      8.10680      0.36013     12.20170
    10.62814      0.17942      8.23858      0.38213     12.48045
    10.70352      0.18842      8.37685      0.40628     12.77638
    10.77890      0.19817      8.52215      0.43288     13.09134
    10.85427      0.20874      8.67507      0.46228     13.42721
    10.92965      0.22024      8.83624      0.49491     13.78618
    11.00503      0.23280      9.00642      0.53126     14.17094
    11.08040      0.24653      9.18643      0.57193     14.58434
    11.15578      0.26162      9.37722      0.61767     15.02993
    11.23116      0.27824      9.57984      0.66935     15.51168
    11.30653      0.29663      9.79555      0.72810     16.03446
    11.38191      0.31706     10.02573      0.79528     16.60392
    11.45729      0.33985     10.27200      0.87263     17.22685
    11.53266      0.36540     10.53630      0.96235     17.91148
    11.60804      0.39419     10.82076      1.06727     18.66784
    11.68342      0.42683     11.12807      1.19109     19.50824
    11.75879      0.46405     11.46132      1.33874     20.44805
    11.83417      0.50679     11.82411      1.51682     21.50669
    11.90955      0.55624     12.22096      1.73443     22.70897
    11.98493      0.61393     12.65738      2.00434     24.08725
    12.06030      0.68186     13.13990      2.34491     25.68417
    12.13568      0.76269     13.67693      2.78335     27.55760
    12.21106      0.85999     14.27898      3.36125     29.78723
    12.28643      0.97869     14.95947      4.14478     32.48619
    12.36181      1.12569     15.73589      5.24414     35.81948
    12.43719      1.31098     16.63133      6.85343     40.03540
    12.51256      1.54933     17.67713      9.33888     45.51947
    12.58794      1.86339     18.91652     13.45258     52.88197
    12.66332      2.28929     20.41085     20.91098     63.05879
    12.73869      2.88736     22.24976     36.13462     77.04472
    12.81407      3.76434     24.56837     71.36842     91.75074
     12.8894       5.1225      27.5767     144.3292      69.5113
     12.9648       7.3799      31.6076     154.3364     -42.1607
    13.04020     11.49771     37.16722     78.97845    -76.70074
    13.11558     19.97036     44.75748     39.38110    -63.15625
    13.19096     39.68586     52.33638     22.48131    -48.58659
    13.26633     79.02898     37.66267     14.36975    -37.83558
    13.34171     79.27293    -21.64038      9.98004    -30.01842
    13.41709     39.90460    -36.57220      7.37695    -24.15319
    13.49246     20.12060    -28.97411      5.72616    -19.58745
    13.56784     11.64188    -21.30151      4.62753    -15.90779
    13.64322      7.54291    -15.63526      3.87198    -12.84637
    13.71859      5.31511    -11.47462      3.34292    -10.22329
    13.79397      3.99304     -8.31040      2.97221     -7.91224
    13.86935      3.15750     -5.80645      2.71900     -5.82012
    13.94472      2.60642     -3.74917      2.55907     -3.87441
    14.02010      2.23393     -1.99924      2.47938     -2.01467
    14.09548      1.98102     -0.46187      2.47545     -0.18614
    14.17085      1.81346      0.93053      2.55077      1.66529
    14.24623      1.71116      2.22907      2.71798      3.59867
    14.32161      1.66282      3.47490      3.00248      5.68458
    14.39699      1.66322      4.70404      3.45006      8.01479
    14.47236      1.71213      5.95070      4.14284     10.71677
    14.54774      1.81420      7.25040      5.23357     13.97852
    14.62312      1.97998      8.64379      7.02582     18.08984
    14.69849      2.22837     10.18055     10.17947     23.50238
    14.77387      2.59147     11.92618     16.30131     30.84075
    14.84925      3.12425     13.97164     29.77061     40.13972
    14.92462      3.92449     16.44995     61.43524     43.28656
    15.00000      5.17649     19.56382     98.62359     -1.21272
# 
# 07/24/2018 at 09:14 YAMBO @ NewLaptop [start]
# 07/24/2018 at 09:14                   [end]
#
# .-Input file : yambo.in
# | optics                         # [R OPT] Optics
# | bse                            # [R BSE] Bethe Salpeter Equation.
# | bsk                            # [R BSK] Bethe Salpeter Equation kernel
# | bss                            # [R BSS] Bethe Salpeter Equation solver
# | BoseTemp= 0.000000     eV      # Bosonic Temperature
# | FFTGvecs=  4945        RL      # [FFT] Plane-waves
# | NonPDirs= "XYZ"                # [X/BSS] Non periodic chartesian directions (X,Y,Z,XY...)
# | BSEmod= "coupling"             # [BSE] resonant/retarded/coupling
# | BSKmod= "Hartree"              # [BSE] IP/Hartree/HF/ALDA/SEX/BSfxc
# | BSSmod= "dh"                   # [BSS] (h)aydock/(d)iagonalization/(i)nversion/(t)ddft`
# | BSENGexx= 123          RL      # [BSK] Exchange components
# | % BEnRange
# |   0.00000 | 15.00000 | eV      # [BSS] Energy range
# | %
# | % BDmRange
# |   0.10000 |  0.10000 | eV      # [BSS] Damping range
# | %
# | BEnSteps= 200                  # [BSS] Energy steps
# | % BLongDir
# | 0.1000E-4 | 0.000    | 0.000    |        # [BSS] [cc] Electric Field
# | %
# | % BSEBands
# |    1 |  50 |                   # [BSK] Bands range
# | %
# | BSHayTrs=   0.0050             # [BSS] Relative [o/o] Haydock treshold. Strict(>0)/Average(<0)
