#                                                           
#  __  __   ________   ___ __ __    _______   ______        
# /_/\/_/\ /_______/\ /__//_//_/\ /_______/\ /_____/\       
# \ \ \ \ \\::: _  \ \\::\| \| \ \\::: _  \ \\:::_ \ \      
#  \:\_\ \ \\::(_)  \ \\:.      \ \\::(_)  \/_\:\ \ \ \     
#   \::::_\/ \:: __  \ \\:.\-/\  \ \\::  _  \ \\:\ \ \ \    
#     \::\ \  \:.\ \  \ \\. \  \  \ \\::(_)  \ \\:\_\ \ \   
#      \__\/   \__\/\__\/ \__\/ \__\/ \_______\/ \_____\/   
#                                                           
#                                                           
#        Version 4.1.0 Revision 13844 Hash ba998c6          
#                        MPI Build                          
#                http://www.yambo-code.org                  
#
# EELS @ Q(1)  [q->0 direction]:0.1000E-4  0.000     0.000   
#
#
# - Energies      are Slater exchange(X)+Perdew & Zunger(C)
# - Wavefunctions are Slater exchange(X)+Perdew & Zunger(C)
#
# - The Green`s function is Retarded -
# - Using the Length Gauge -
# - [r,Vnl] *is* included -
#
#   BSK|Identifier              :4626
#      |Dimension               :144
#      |Bands                   :1 - 40
#      |Exchange           [res]: yes
#      |Correlation        [res]: no
#      |Kernel`s coupling       : yes
#      |Exchange           [cpl]: yes
#      |Correlation        [cpl]: no
#      |W interaction is bare   : no
#      |ALDA kernel in R-space  : yes
#      |RL vectors    [exchange]:50301
#      |E/h energy range    [ev]:-1.000000 - -1.000000
#      |Coupling range     [o/o]: 100.0000 -  100.0000
#  
#   Haydock|Accuracy (requested) [o/o]:0.1000E-2
#          |Accuracy (reached)   [o/o]:0.6801E-3
#          |Iteration                 :62
#
#  E/ev[1]    EEL-Im[2]  EEL-Re[3]  EELo-Im[4] EELo-Re[5] EEL`-Im[6] EEL`-Re[7]
#
  6.000     0.2791E-3  -.9862     0.8365E-3  -.9750     0.2791E-3  -.9862   
  6.015     0.2819E-3  -.9861     0.8476E-3  -.9748     0.2819E-3  -.9861   
  6.030     0.2848E-3  -.9861     0.8589E-3  -.9747     0.2848E-3  -.9861   
  6.045     0.2877E-3  -.9860     0.8704E-3  -.9746     0.2877E-3  -.9860   
  6.060     0.2907E-3  -.9860     0.8821E-3  -.9744     0.2907E-3  -.9860   
  6.075     0.2937E-3  -.9860     0.8941E-3  -.9743     0.2937E-3  -.9860   
  6.090     0.2967E-3  -.9859     0.9063E-3  -.9742     0.2967E-3  -.9859   
  6.105     0.2999E-3  -.9859     0.9187E-3  -.9740     0.2999E-3  -.9859   
  6.120     0.3030E-3  -.9858     0.9315E-3  -.9739     0.3030E-3  -.9858   
  6.135     0.3063E-3  -.9858     0.9444E-3  -.9738     0.3063E-3  -.9858   
  6.150     0.3096E-3  -.9857     0.9577E-3  -.9736     0.3096E-3  -.9857   
  6.165     0.3129E-3  -.9857     0.9712E-3  -.9735     0.3129E-3  -.9857   
  6.180     0.3163E-3  -.9856     0.9851E-3  -.9733     0.3163E-3  -.9856   
  6.195     0.3198E-3  -.9856     0.9992E-3  -.9732     0.3198E-3  -.9856   
  6.211     0.3233E-3  -.9855     0.1014E-2  -.9730     0.3233E-3  -.9855   
  6.226     0.3269E-3  -.9855     0.1028E-2  -.9729     0.3269E-3  -.9855   
  6.241     0.3306E-3  -.9854     0.1043E-2  -.9727     0.3306E-3  -.9854   
  6.256     0.3343E-3  -.9854     0.1059E-2  -.9726     0.3343E-3  -.9854   
  6.271     0.3381E-3  -.9853     0.1075E-2  -.9724     0.3381E-3  -.9853   
  6.286     0.3420E-3  -.9853     0.1091E-2  -.9722     0.3420E-3  -.9853   
  6.301     0.3459E-3  -.9852     0.1107E-2  -.9721     0.3459E-3  -.9852   
  6.316     0.3499E-3  -.9852     0.1124E-2  -.9719     0.3499E-3  -.9852   
  6.331     0.3540E-3  -.9851     0.1141E-2  -.9717     0.3540E-3  -.9851   
  6.346     0.3582E-3  -.9851     0.1159E-2  -.9716     0.3582E-3  -.9851   
  6.361     0.3625E-3  -.9850     0.1177E-2  -.9714     0.3625E-3  -.9850   
  6.376     0.3669E-3  -.9850     0.1195E-2  -.9712     0.3669E-3  -.9850   
  6.391     0.3713E-3  -.9849     0.1214E-2  -.9710     0.3713E-3  -.9849   
  6.406     0.3759E-3  -.9849     0.1234E-2  -.9708     0.3759E-3  -.9849   
  6.421     0.3805E-3  -.9848     0.1254E-2  -.9707     0.3805E-3  -.9848   
  6.436     0.3852E-3  -.9847     0.1274E-2  -.9705     0.3852E-3  -.9847   
  6.451     0.3901E-3  -.9847     0.1295E-2  -.9703     0.3901E-3  -.9847   
  6.466     0.3950E-3  -.9846     0.1316E-2  -.9701     0.3950E-3  -.9846   
  6.481     0.4001E-3  -.9846     0.1338E-2  -.9699     0.4001E-3  -.9846   
  6.496     0.4053E-3  -.9845     0.1360E-2  -.9697     0.4053E-3  -.9845   
  6.511     0.4105E-3  -.9844     0.1383E-2  -.9695     0.4105E-3  -.9844   
  6.526     0.4159E-3  -.9844     0.1407E-2  -.9693     0.4159E-3  -.9844   
  6.541     0.4215E-3  -.9843     0.1431E-2  -.9691     0.4215E-3  -.9843   
  6.556     0.4271E-3  -.9843     0.1456E-2  -.9688     0.4271E-3  -.9843   
  6.571     0.4329E-3  -.9842     0.1482E-2  -.9686     0.4329E-3  -.9842   
  6.586     0.4389E-3  -.9841     0.1508E-2  -.9684     0.4389E-3  -.9841   
  6.602     0.4450E-3  -.9841     0.1535E-2  -.9682     0.4450E-3  -.9841   
  6.617     0.4512E-3  -.9840     0.1563E-2  -.9679     0.4512E-3  -.9840   
  6.632     0.4576E-3  -.9839     0.1591E-2  -.9677     0.4576E-3  -.9839   
  6.647     0.4641E-3  -.9839     0.1621E-2  -.9675     0.4641E-3  -.9839   
  6.662     0.4709E-3  -.9838     0.1651E-2  -.9672     0.4709E-3  -.9838   
  6.677     0.4777E-3  -.9837     0.1682E-2  -.9670     0.4777E-3  -.9837   
  6.692     0.4848E-3  -.9836     0.1714E-2  -.9667     0.4848E-3  -.9836   
  6.707     0.4921E-3  -.9836     0.1747E-2  -.9665     0.4921E-3  -.9836   
  6.722     0.4996E-3  -.9835     0.1781E-2  -.9662     0.4996E-3  -.9835   
  6.737     0.5072E-3  -.9834     0.1815E-2  -.9659     0.5072E-3  -.9834   
  6.752     0.5151E-3  -.9833     0.1851E-2  -.9657     0.5151E-3  -.9833   
  6.767     0.5232E-3  -.9833     0.1888E-2  -.9654     0.5232E-3  -.9833   
  6.782     0.5316E-3  -.9832     0.1927E-2  -.9651     0.5316E-3  -.9832   
  6.797     0.5401E-3  -.9831     0.1966E-2  -.9648     0.5401E-3  -.9831   
  6.812     0.5490E-3  -.9830     0.2007E-2  -.9645     0.5490E-3  -.9830   
  6.827     0.5581E-3  -.9829     0.2049E-2  -.9642     0.5581E-3  -.9829   
  6.842     0.5675E-3  -.9829     0.2092E-2  -.9639     0.5675E-3  -.9829   
  6.857     0.5772E-3  -.9828     0.2137E-2  -.9636     0.5772E-3  -.9828   
  6.872     0.5871E-3  -.9827     0.2183E-2  -.9633     0.5871E-3  -.9827   
  6.887     0.5974E-3  -.9826     0.2231E-2  -.9629     0.5974E-3  -.9826   
  6.902     0.6081E-3  -.9825     0.2281E-2  -.9626     0.6081E-3  -.9825   
  6.917     0.6191E-3  -.9824     0.2332E-2  -.9623     0.6191E-3  -.9824   
  6.932     0.6304E-3  -.9823     0.2385E-2  -.9619     0.6304E-3  -.9823   
  6.947     0.6422E-3  -.9822     0.2440E-2  -.9616     0.6422E-3  -.9822   
  6.962     0.6544E-3  -.9821     0.2498E-2  -.9612     0.6544E-3  -.9821   
  6.977     0.6670E-3  -.9820     0.2557E-2  -.9608     0.6670E-3  -.9820   
  6.992     0.6800E-3  -.9819     0.2618E-2  -.9604     0.6800E-3  -.9819   
  7.008     0.6936E-3  -.9818     0.2682E-2  -.9600     0.6936E-3  -.9818   
  7.023     0.7076E-3  -.9817     0.2748E-2  -.9596     0.7076E-3  -.9817   
  7.038     0.7222E-3  -.9816     0.2817E-2  -.9592     0.7222E-3  -.9816   
  7.053     0.7373E-3  -.9815     0.2889E-2  -.9588     0.7373E-3  -.9815   
  7.068     0.7531E-3  -.9814     0.2963E-2  -.9584     0.7531E-3  -.9814   
  7.083     0.7695E-3  -.9813     0.3041E-2  -.9579     0.7695E-3  -.9813   
  7.098     0.7866E-3  -.9812     0.3122E-2  -.9575     0.7866E-3  -.9812   
  7.113     0.8044E-3  -.9811     0.3206E-2  -.9570     0.8044E-3  -.9811   
  7.128     0.8229E-3  -.9809     0.3294E-2  -.9565     0.8229E-3  -.9809   
  7.143     0.8423E-3  -.9808     0.3386E-2  -.9560     0.8423E-3  -.9808   
  7.158     0.8625E-3  -.9807     0.3482E-2  -.9555     0.8625E-3  -.9807   
  7.173     0.8837E-3  -.9806     0.3583E-2  -.9550     0.8837E-3  -.9806   
  7.188     0.9058E-3  -.9804     0.3688E-2  -.9545     0.9058E-3  -.9804   
  7.203     0.9290E-3  -.9803     0.3798E-2  -.9539     0.9290E-3  -.9803   
  7.218     0.9534E-3  -.9802     0.3914E-2  -.9533     0.9534E-3  -.9802   
  7.233     0.9789E-3  -.9800     0.4035E-2  -.9528     0.9789E-3  -.9800   
  7.248     0.1006E-2  -.9799     0.4163E-2  -.9522     0.1006E-2  -.9799   
  7.263     0.1034E-2  -.9797     0.4297E-2  -.9515     0.1034E-2  -.9797   
  7.278     0.1064E-2  -.9796     0.4438E-2  -.9509     0.1064E-2  -.9796   
  7.293     0.1095E-2  -.9794     0.4587E-2  -.9502     0.1095E-2  -.9794   
  7.308     0.1129E-2  -.9792     0.4744E-2  -.9496     0.1129E-2  -.9792   
  7.323     0.1164E-2  -.9791     0.4910E-2  -.9488     0.1164E-2  -.9791   
  7.338     0.1201E-2  -.9789     0.5086E-2  -.9481     0.1201E-2  -.9789   
  7.353     0.1240E-2  -.9787     0.5272E-2  -.9474     0.1240E-2  -.9787   
  7.368     0.1282E-2  -.9785     0.5470E-2  -.9466     0.1282E-2  -.9785   
  7.383     0.1327E-2  -.9783     0.5680E-2  -.9458     0.1327E-2  -.9783   
  7.398     0.1374E-2  -.9782     0.5904E-2  -.9449     0.1374E-2  -.9782   
  7.414     0.1425E-2  -.9779     0.6142E-2  -.9441     0.1425E-2  -.9779   
  7.429     0.1479E-2  -.9777     0.6397E-2  -.9432     0.1479E-2  -.9777   
  7.444     0.1537E-2  -.9775     0.6669E-2  -.9422     0.1537E-2  -.9775   
  7.459     0.1600E-2  -.9773     0.6961E-2  -.9412     0.1600E-2  -.9773   
  7.474     0.1667E-2  -.9771     0.7276E-2  -.9402     0.1667E-2  -.9771   
  7.489     0.1739E-2  -.9768     0.7614E-2  -.9392     0.1739E-2  -.9768   
  7.504     0.1817E-2  -.9766     0.7980E-2  -.9381     0.1817E-2  -.9766   
  7.519     0.1902E-2  -.9763     0.8376E-2  -.9369     0.1902E-2  -.9763   
  7.534     0.1994E-2  -.9760     0.8806E-2  -.9357     0.1994E-2  -.9760   
  7.549     0.2094E-2  -.9757     0.9274E-2  -.9344     0.2094E-2  -.9757   
  7.564     0.2203E-2  -.9754     0.9786E-2  -.9331     0.2203E-2  -.9754   
  7.579     0.2322E-2  -.9751     0.1035E-1  -.9317     0.2322E-2  -.9751   
  7.594     0.2454E-2  -.9748     0.1096E-1  -.9303     0.2454E-2  -.9748   
  7.609     0.2598E-2  -.9745     0.1165E-1  -.9288     0.2598E-2  -.9745   
  7.624     0.2758E-2  -.9741     0.1240E-1  -.9272     0.2758E-2  -.9741   
  7.639     0.2935E-2  -.9737     0.1325E-1  -.9255     0.2935E-2  -.9737   
  7.654     0.3133E-2  -.9733     0.1420E-1  -.9237     0.3133E-2  -.9733   
  7.669     0.3354E-2  -.9729     0.1526E-1  -.9218     0.3354E-2  -.9729   
  7.684     0.3602E-2  -.9724     0.1647E-1  -.9198     0.3602E-2  -.9724   
  7.699     0.3881E-2  -.9720     0.1784E-1  -.9178     0.3881E-2  -.9720   
  7.714     0.4198E-2  -.9714     0.1942E-1  -.9156     0.4198E-2  -.9714   
  7.729     0.4559E-2  -.9709     0.2124E-1  -.9133     0.4559E-2  -.9709   
  7.744     0.4972E-2  -.9703     0.2334E-1  -.9110     0.4972E-2  -.9703   
  7.759     0.5448E-2  -.9698     0.2580E-1  -.9085     0.5448E-2  -.9698   
  7.774     0.5998E-2  -.9691     0.2867E-1  -.9061     0.5998E-2  -.9691   
  7.789     0.6638E-2  -.9685     0.3205E-1  -.9037     0.6638E-2  -.9685   
  7.805     0.7388E-2  -.9678     0.3601E-1  -.9015     0.7388E-2  -.9678   
    7.8195     0.0083    -0.9670     0.0406    -0.8995     0.0083    -0.9670
    7.8346     0.0093    -0.9663     0.0460    -0.8982     0.0093    -0.9663
   7.84962    0.01056   -0.96555    0.05192   -0.89773    0.01056   -0.96555
   7.86466    0.01203   -0.96485    0.05831   -0.89855    0.01203   -0.96485
   7.87970    0.01380   -0.96423    0.06465   -0.90098    0.01380   -0.96423
   7.89474    0.01589   -0.96377    0.07020   -0.90516    0.01589   -0.96377
   7.90977    0.01834   -0.96358    0.07412   -0.91076    0.01834   -0.96358
   7.92481    0.02117   -0.96383    0.07576   -0.91695    0.02117   -0.96383
   7.93985    0.02431   -0.96471    0.07502   -0.92262    0.02431   -0.96471
   7.95489    0.02758   -0.96647    0.07244   -0.92681    0.02758   -0.96647
   7.96992    0.03066   -0.96927    0.06886   -0.92902    0.03066   -0.96927
   7.98496    0.03306   -0.97312    0.06515   -0.92923    0.03306   -0.97312
   8.00000    0.03431   -0.97775    0.06189   -0.92775    0.03431   -0.97775
   8.01504    0.03411   -0.98260    0.05943   -0.92493    0.03411   -0.98260
   8.03008    0.03250   -0.98703    0.05794   -0.92113    0.03250   -0.98703
   8.04511    0.02988   -0.99056    0.05746   -0.91660    0.02988   -0.99056
   8.06015    0.02675   -0.99300    0.05800   -0.91152    0.02675   -0.99300
   8.07519    0.02354   -0.99444    0.05958   -0.90602    0.02354   -0.99444
   8.09023    0.02053   -0.99507    0.06221   -0.90017    0.02053   -0.99507
   8.10526    0.01786   -0.99513    0.06598   -0.89404    0.01786   -0.99513
   8.12030    0.01557   -0.99479    0.07098   -0.88767    0.01557   -0.99479
   8.13534    0.01364   -0.99422    0.07738   -0.88114    0.01364   -0.99422
   8.15038    0.01203   -0.99350    0.08539   -0.87455    0.01203   -0.99350
   8.16541    0.01068   -0.99272    0.09527   -0.86808    0.01068   -0.99272
    8.1805     0.0096    -0.9919     0.1074    -0.8620     0.0096    -0.9919
    8.1955     0.0086    -0.9911     0.1220    -0.8568     0.0086    -0.9911
  8.211     0.7869E-2  -.9903     0.1397     -.8531     0.7869E-2  -.9903   
  8.226     0.7227E-2  -.9895     0.1605     -.8520     0.7227E-2  -.9895   
  8.241     0.6694E-2  -.9887     0.1845     -.8549     0.6694E-2  -.9887   
  8.256     0.6252E-2  -.9880     0.2110     -.8635     0.6252E-2  -.9880   
  8.271     0.5889E-2  -.9873     0.2384     -.8799     0.5889E-2  -.9873   
  8.286     0.5594E-2  -.9866     0.2636     -.9053     0.5594E-2  -.9866   
  8.301     0.5359E-2  -.9859     0.2824     -.9394     0.5359E-2  -.9859   
  8.316     0.5179E-2  -.9852     0.2909     -.9794     0.5179E-2  -.9852   
  8.331     0.5050E-2  -.9846     0.2871     -1.020     0.5050E-2  -.9846   
  8.346     0.4970E-2  -.9840     0.2718     -1.057     0.4970E-2  -.9840   
  8.361     0.4938E-2  -.9834     0.2488     -1.086     0.4938E-2  -.9834   
  8.376     0.4956E-2  -.9828     0.2222     -1.106     0.4956E-2  -.9828   
  8.391     0.5025E-2  -.9822     0.1955     -1.117     0.5025E-2  -.9822   
  8.406     0.5149E-2  -.9817     0.1710     -1.122     0.5149E-2  -.9817   
  8.421     0.5329E-2  -.9812     0.1496     -1.122     0.5329E-2  -.9812   
  8.436     0.5565E-2  -.9807     0.1315     -1.120     0.5565E-2  -.9807   
  8.451     0.5851E-2  -.9804     0.1164     -1.116     0.5851E-2  -.9804   
  8.466     0.6168E-2  -.9801     0.1040     -1.111     0.6168E-2  -.9801   
  8.481     0.6483E-2  -.9799     0.9370E-1  -1.107     0.6483E-2  -.9799   
  8.496     0.6747E-2  -.9798     0.8497E-1  -1.102     0.6747E-2  -.9798   
  8.511     0.6910E-2  -.9799     0.7735E-1  -1.098     0.6910E-2  -.9799   
  8.526     0.6937E-2  -.9799     0.7054E-1  -1.093     0.6938E-2  -.9799   
  8.541     0.6834E-2  -.9799     0.6441E-1  -1.089     0.6835E-2  -.9799   
  8.556     0.6641E-2  -.9798     0.5893E-1  -1.084     0.6641E-2  -.9798   
  8.571     0.6410E-2  -.9796     0.5414E-1  -1.080     0.6410E-2  -.9796   
  8.586     0.6193E-2  -.9793     0.5005E-1  -1.075     0.6193E-2  -.9793   
  8.602     0.6022E-2  -.9789     0.4665E-1  -1.071     0.6021E-2  -.9789   
  8.617     0.5917E-2  -.9784     0.4392E-1  -1.066     0.5916E-2  -.9784   
  8.632     0.5887E-2  -.9779     0.4181E-1  -1.062     0.5885E-2  -.9779   
  8.647     0.5935E-2  -.9773     0.4030E-1  -1.058     0.5933E-2  -.9773   
  8.662     0.6061E-2  -.9768     0.3935E-1  -1.054     0.6059E-2  -.9768   
  8.677     0.6263E-2  -.9763     0.3892E-1  -1.050     0.6261E-2  -.9763   
  8.692     0.6534E-2  -.9758     0.3897E-1  -1.047     0.6535E-2  -.9758   
  8.707     0.6863E-2  -.9753     0.3940E-1  -1.045     0.6868E-2  -.9753   
  8.722     0.7229E-2  -.9749     0.4003E-1  -1.043     0.7238E-2  -.9749   
  8.737     0.7607E-2  -.9746     0.4062E-1  -1.042     0.7620E-2  -.9746   
  8.752     0.7976E-2  -.9743     0.4089E-1  -1.042     0.7990E-2  -.9743   
  8.767     0.8331E-2  -.9740     0.4061E-1  -1.042     0.8337E-2  -.9741   
  8.782     0.8683E-2  -.9738     0.3971E-1  -1.042     0.8672E-2  -.9738   
    8.7970     0.0090    -0.9735     0.0383    -1.0414     0.0090    -0.9736
    8.8120     0.0094    -0.9733     0.0366    -1.0408     0.0094    -0.9733
    8.8271     0.0098    -0.9732     0.0349    -1.0399     0.0097    -0.9732
   8.84210    0.01010   -0.97308    0.03319   -1.03856    0.01008   -0.97303
   8.85714    0.01034   -0.97297    0.03163   -1.03700    0.01035   -0.97291
   8.87218    0.01050   -0.97281    0.03022   -1.03521    0.01055   -0.97276
   8.88722    0.01063   -0.97253    0.02899   -1.03322    0.01070   -0.97252
   8.90226    0.01079   -0.97213    0.02799   -1.03102    0.01086   -0.97216
   8.91729    0.01105   -0.97161    0.02727   -1.02867    0.01110   -0.97168
   8.93233    0.01146   -0.97102    0.02687   -1.02619    0.01148   -0.97111
   8.94737    0.01207   -0.97041    0.02682   -1.02366    0.01204   -0.97050
   8.96241    0.01287   -0.96986    0.02714   -1.02112    0.01280   -0.96993
   8.97744    0.01388   -0.96944    0.02786   -1.01862    0.01377   -0.96947
   8.99248    0.01505   -0.96924    0.02898   -1.01624    0.01492   -0.96921
   9.00752    0.01629   -0.96932    0.03050   -1.01406    0.01618   -0.96923
   9.02256    0.01748   -0.96974    0.03243   -1.01217    0.01743   -0.96958
   9.03759    0.01847   -0.97043    0.03470   -1.01065    0.01851   -0.97025
   9.05263    0.01914   -0.97127    0.03725   -1.00959    0.01928   -0.97113
   9.06767    0.01950   -0.97207    0.04002   -1.00903    0.01971   -0.97202
   9.08271    0.01965   -0.97268    0.04293   -1.00904    0.01987   -0.97275
   9.09774    0.01976   -0.97305    0.04591   -1.00971    0.01992   -0.97323
   9.11278    0.02000   -0.97326    0.04882   -1.01114    0.02005   -0.97350
   9.12782    0.02045   -0.97343    0.05140   -1.01343    0.02037   -0.97367
   9.14286    0.02112   -0.97374    0.05330   -1.01652    0.02092   -0.97392
   9.15790    0.02190   -0.97436    0.05417   -1.02015    0.02163   -0.97442
   9.17293    0.02261   -0.97537    0.05382   -1.02386    0.02233   -0.97528
   9.18797    0.02299   -0.97673    0.05235   -1.02714    0.02280   -0.97651
   9.20301    0.02286   -0.97825    0.05009   -1.02961    0.02281   -0.97796
   9.21805    0.02218   -0.97966    0.04748   -1.03114    0.02228   -0.97939
   9.23308    0.02107   -0.98071    0.04493   -1.03182    0.02128   -0.98053
   9.24812    0.01974   -0.98127    0.04269   -1.03190    0.02000   -0.98121
   9.26316    0.01843   -0.98135    0.04082   -1.03166    0.01867   -0.98141
   9.27820    0.01727   -0.98104    0.03922   -1.03132    0.01745   -0.98119
   9.29323    0.01637   -0.98045    0.03774   -1.03094    0.01647   -0.98066
   9.30827    0.01575   -0.97970    0.03624   -1.03047    0.01577   -0.97993
   9.32331    0.01543   -0.97890    0.03469   -1.02976    0.01535   -0.97912
   9.33835    0.01539   -0.97814    0.03319   -1.02870    0.01522   -0.97831
   9.35338    0.01557   -0.97750    0.03187   -1.02726    0.01534   -0.97759
   9.36842    0.01591   -0.97706    0.03089   -1.02547    0.01565   -0.97705
   9.38346    0.01630   -0.97687    0.03035   -1.02343    0.01606   -0.97674
   9.39850    0.01661   -0.97691    0.03031   -1.02124    0.01645   -0.97668
   9.41353    0.01671   -0.97712    0.03082   -1.01902    0.01667   -0.97683
   9.42857    0.01654   -0.97733    0.03191   -1.01688    0.01665   -0.97705
   9.44361    0.01615   -0.97739    0.03362   -1.01495    0.01636   -0.97720
   9.45865    0.01563   -0.97721    0.03595   -1.01342    0.01590   -0.97714
   9.47368    0.01513   -0.97676    0.03885   -1.01249    0.01540   -0.97681
   9.48872    0.01475   -0.97608    0.04220   -1.01241    0.01496   -0.97623
   9.50376    0.01455   -0.97523    0.04572   -1.01344    0.01469   -0.97544
   9.51880    0.01459   -0.97427    0.04897   -1.01571    0.01464   -0.97452
   9.53384    0.01489   -0.97328    0.05143   -1.01910    0.01483   -0.97353
   9.54887    0.01545   -0.97232    0.05263   -1.02321    0.01529   -0.97255
   9.56391    0.01627   -0.97148    0.05241   -1.02743    0.01603   -0.97164
   9.57895    0.01734   -0.97084    0.05095   -1.03118    0.01703   -0.97089
   9.59398    0.01860   -0.97050    0.04865   -1.03412    0.01827   -0.97040
   9.60902    0.01995   -0.97054    0.04594   -1.03619    0.01966   -0.97028
   9.62406    0.02120   -0.97102    0.04312   -1.03746    0.02105   -0.97061
   9.63910    0.02216   -0.97187    0.04033   -1.03807    0.02225   -0.97139
   9.65414    0.02269   -0.97292    0.03770   -1.03811    0.02304   -0.97252
   9.66917    0.02276   -0.97391    0.03531   -1.03767    0.02329   -0.97375
   9.68421    0.02249   -0.97466    0.03324   -1.03686    0.02306   -0.97481
   9.69925    0.02208   -0.97507    0.03151   -1.03580    0.02250   -0.97551
   9.71429    0.02174   -0.97519    0.03009   -1.03460    0.02186   -0.97580
   9.72932    0.02156   -0.97514    0.02892   -1.03331    0.02134   -0.97573
   9.74436    0.02158   -0.97506    0.02796   -1.03193    0.02107   -0.97545
   9.75940    0.02174   -0.97509    0.02719   -1.03043    0.02109   -0.97513
   9.77444    0.02193   -0.97528    0.02666   -1.02876    0.02136   -0.97493
   9.78947    0.02204   -0.97559    0.02644   -1.02696    0.02178   -0.97498
   9.80451    0.02203   -0.97596    0.02660   -1.02505    0.02218   -0.97534
   9.81955    0.02191   -0.97633    0.02718   -1.02312    0.02238   -0.97595
   9.83459    0.02171   -0.97668    0.02822   -1.02123    0.02227   -0.97668
   9.84962    0.02145   -0.97706    0.02974   -1.01949    0.02184   -0.97736
   9.86466    0.02106   -0.97747    0.03174   -1.01800    0.02116   -0.97788
   9.87970    0.02048   -0.97787    0.03421   -1.01685    0.02033   -0.97819
   9.89474    0.01968   -0.97817    0.03713   -1.01615    0.01942   -0.97830
   9.90977    0.01868   -0.97824    0.04048   -1.01602    0.01846   -0.97821
   9.92481    0.01762   -0.97802    0.04422   -1.01666    0.01749   -0.97791
   9.93985    0.01659   -0.97752    0.04823   -1.01832    0.01656   -0.97739
   9.95489    0.01570   -0.97678    0.05220   -1.02127    0.01573   -0.97669
   9.96992    0.01498   -0.97589    0.05559   -1.02563    0.01503   -0.97585
   9.98496    0.01444   -0.97493    0.05777   -1.03124    0.01450   -0.97492
  10.00000    0.01407   -0.97396    0.05823   -1.03751    0.01411   -0.97397
  10.01504    0.01382   -0.97304    0.05685   -1.04368    0.01384   -0.97306
  10.03008    0.01363   -0.97218    0.05393   -1.04908    0.01363   -0.97220
  10.04511    0.01343   -0.97137    0.05001   -1.05332    0.01342   -0.97139
  10.06015    0.01318   -0.97058    0.04559   -1.05637    0.01317   -0.97059
  10.07519    0.01287   -0.96973    0.04105   -1.05833    0.01286   -0.96974
  10.09023    0.01252   -0.96879    0.03662   -1.05937    0.01252   -0.96879
  10.10526    0.01219   -0.96773    0.03245   -1.05965    0.01218   -0.96773
  10.12030    0.01189   -0.96656    0.02865   -1.05932    0.01189   -0.96656
  10.13534    0.01167   -0.96530    0.02526   -1.05855    0.01167   -0.96529
  10.15038    0.01152   -0.96395    0.02230   -1.05747    0.01152   -0.96395
  10.16541    0.01145   -0.96254    0.01976   -1.05620    0.01145   -0.96254
  10.18045    0.01146   -0.96107    0.01758   -1.05483    0.01146   -0.96107
  10.19549    0.01154   -0.95956    0.01573   -1.05342    0.01154   -0.95956
  10.21053    0.01169   -0.95801    0.01415   -1.05202    0.01169   -0.95801
  10.22556    0.01191   -0.95640    0.01280   -1.05066    0.01191   -0.95640
  10.24060    0.01219   -0.95475    0.01164   -1.04934    0.01219   -0.95475
  10.25564    0.01253   -0.95305    0.01064   -1.04809    0.01253   -0.95305
  10.27     0.1293E-1  -.9513     0.9777E-2  -1.047     0.1293E-1  -.9513   
  10.29     0.1340E-1  -.9495     0.9021E-2  -1.046     0.1340E-1  -.9495   
  10.30     0.1393E-1  -.9476     0.8357E-2  -1.045     0.1393E-1  -.9476   
  10.32     0.1454E-1  -.9456     0.7772E-2  -1.044     0.1454E-1  -.9456   
  10.33     0.1522E-1  -.9436     0.7253E-2  -1.043     0.1522E-1  -.9436   
  10.35     0.1598E-1  -.9414     0.6790E-2  -1.042     0.1598E-1  -.9414   
  10.36     0.1683E-1  -.9392     0.6377E-2  -1.041     0.1683E-1  -.9392   
  10.38     0.1778E-1  -.9368     0.6005E-2  -1.040     0.1778E-1  -.9368   
  10.39     0.1885E-1  -.9343     0.5669E-2  -1.039     0.1885E-1  -.9343   
  10.41     0.2003E-1  -.9317     0.5365E-2  -1.038     0.2003E-1  -.9317   
  10.42     0.2136E-1  -.9290     0.5088E-2  -1.038     0.2136E-1  -.9290   
  10.44     0.2285E-1  -.9261     0.4836E-2  -1.037     0.2285E-1  -.9261   
  10.45     0.2453E-1  -.9230     0.4605E-2  -1.036     0.2453E-1  -.9230   
  10.47     0.2641E-1  -.9197     0.4392E-2  -1.036     0.2641E-1  -.9197   
  10.48     0.2854E-1  -.9163     0.4197E-2  -1.035     0.2854E-1  -.9163   
  10.50     0.3096E-1  -.9126     0.4016E-2  -1.035     0.3096E-1  -.9126   
  10.51     0.3371E-1  -.9086     0.3849E-2  -1.034     0.3371E-1  -.9086   
  10.53     0.3685E-1  -.9044     0.3694E-2  -1.033     0.3685E-1  -.9044   
  10.54     0.4046E-1  -.9000     0.3550E-2  -1.033     0.4046E-1  -.9000   
  10.56     0.4462E-1  -.8952     0.3415E-2  -1.032     0.4462E-1  -.8952   
  10.57     0.4945E-1  -.8901     0.3289E-2  -1.032     0.4945E-1  -.8901   
  10.59     0.5508E-1  -.8847     0.3172E-2  -1.031     0.5508E-1  -.8847   
  10.60     0.6167E-1  -.8791     0.3062E-2  -1.031     0.6167E-1  -.8791   
  10.62     0.6943E-1  -.8731     0.2958E-2  -1.031     0.6943E-1  -.8731   
  10.63     0.7862E-1  -.8670     0.2860E-2  -1.030     0.7862E-1  -.8670   
  10.65     0.8954E-1  -.8609     0.2769E-2  -1.030     0.8954E-1  -.8609   
  10.66     0.1026     -.8549     0.2682E-2  -1.029     0.1026     -.8549   
  10.68     0.1181     -.8495     0.2600E-2  -1.029     0.1181     -.8495   
  10.69     0.1367     -.8454     0.2522E-2  -1.029     0.1367     -.8454   
  10.71     0.1586     -.8433     0.2449E-2  -1.028     0.1586     -.8433   
  10.72     0.1842     -.8448     0.2379E-2  -1.028     0.1842     -.8448   
  10.74     0.2130     -.8515     0.2313E-2  -1.028     0.2130     -.8515   
  10.75     0.2441     -.8656     0.2250E-2  -1.027     0.2441     -.8656   
  10.77     0.2748     -.8893     0.2190E-2  -1.027     0.2748     -.8893   
  10.78     0.3013     -.9233     0.2133E-2  -1.027     0.3013     -.9233   
  10.80     0.3185     -.9664     0.2078E-2  -1.026     0.3185     -.9664   
  10.81     0.3226     -1.014     0.2026E-2  -1.026     0.3226     -1.014   
  10.83     0.3125     -1.061     0.1976E-2  -1.026     0.3125     -1.061   
  10.84     0.2908     -1.100     0.1929E-2  -1.025     0.2908     -1.100   
  10.86     0.2619     -1.130     0.1883E-2  -1.025     0.2619     -1.130   
  10.87     0.2306     -1.149     0.1839E-2  -1.025     0.2306     -1.149   
  10.89     0.2002     -1.160     0.1797E-2  -1.025     0.2002     -1.160   
  10.90     0.1727     -1.164     0.1757E-2  -1.024     0.1727     -1.164   
  10.92     0.1486     -1.164     0.1719E-2  -1.024     0.1486     -1.164   
  10.93     0.1282     -1.161     0.1681E-2  -1.024     0.1282     -1.161   
  10.95     0.1109     -1.156     0.1646E-2  -1.024     0.1109     -1.156   
  10.96     0.9647E-1  -1.151     0.1611E-2  -1.023     0.9647E-1  -1.151   
  10.98     0.8435E-1  -1.145     0.1578E-2  -1.023     0.8435E-1  -1.145   
  10.99     0.7417E-1  -1.138     0.1546E-2  -1.023     0.7417E-1  -1.138   
  11.01     0.6559E-1  -1.132     0.1515E-2  -1.023     0.6559E-1  -1.132   
  11.02     0.5832E-1  -1.127     0.1486E-2  -1.022     0.5832E-1  -1.127   
  11.04     0.5213E-1  -1.121     0.1457E-2  -1.022     0.5213E-1  -1.121   
  11.05     0.4683E-1  -1.116     0.1430E-2  -1.022     0.4683E-1  -1.116   
  11.07     0.4226E-1  -1.111     0.1403E-2  -1.022     0.4226E-1  -1.111   
  11.08     0.3831E-1  -1.107     0.1377E-2  -1.022     0.3831E-1  -1.107   
  11.10     0.3487E-1  -1.102     0.1352E-2  -1.021     0.3487E-1  -1.102   
  11.11     0.3186E-1  -1.098     0.1328E-2  -1.021     0.3186E-1  -1.098   
  11.13     0.2921E-1  -1.095     0.1304E-2  -1.021     0.2921E-1  -1.095   
  11.14     0.2687E-1  -1.091     0.1282E-2  -1.021     0.2687E-1  -1.091   
  11.16     0.2480E-1  -1.088     0.1260E-2  -1.021     0.2480E-1  -1.088   
  11.17     0.2296E-1  -1.085     0.1239E-2  -1.020     0.2296E-1  -1.085   
  11.19     0.2131E-1  -1.082     0.1218E-2  -1.020     0.2131E-1  -1.082   
  11.20     0.1983E-1  -1.079     0.1198E-2  -1.020     0.1983E-1  -1.079   
  11.22     0.1849E-1  -1.077     0.1179E-2  -1.020     0.1849E-1  -1.077   
  11.23     0.1729E-1  -1.074     0.1160E-2  -1.020     0.1729E-1  -1.074   
  11.25     0.1620E-1  -1.072     0.1142E-2  -1.019     0.1620E-1  -1.072   
  11.26     0.1521E-1  -1.070     0.1124E-2  -1.019     0.1521E-1  -1.070   
  11.28     0.1431E-1  -1.068     0.1107E-2  -1.019     0.1431E-1  -1.068   
  11.29     0.1348E-1  -1.066     0.1090E-2  -1.019     0.1348E-1  -1.066   
  11.31     0.1272E-1  -1.064     0.1074E-2  -1.019     0.1272E-1  -1.064   
  11.32     0.1203E-1  -1.062     0.1058E-2  -1.019     0.1203E-1  -1.062   
  11.34     0.1139E-1  -1.061     0.1043E-2  -1.018     0.1139E-1  -1.061   
  11.35     0.1080E-1  -1.059     0.1028E-2  -1.018     0.1080E-1  -1.059   
  11.37     0.1026E-1  -1.058     0.1013E-2  -1.018     0.1026E-1  -1.058   
  11.38     0.9755E-2  -1.056     0.9993E-3  -1.018     0.9755E-2  -1.056   
  11.40     0.9288E-2  -1.055     0.9856E-3  -1.018     0.9288E-2  -1.055   
  11.41     0.8853E-2  -1.054     0.9723E-3  -1.018     0.8853E-2  -1.054   
  11.43     0.8449E-2  -1.052     0.9593E-3  -1.018     0.8449E-2  -1.052   
  11.44     0.8072E-2  -1.051     0.9466E-3  -1.017     0.8072E-2  -1.051   
  11.46     0.7720E-2  -1.050     0.9343E-3  -1.017     0.7720E-2  -1.050   
  11.47     0.7391E-2  -1.049     0.9224E-3  -1.017     0.7391E-2  -1.049   
  11.49     0.7083E-2  -1.048     0.9107E-3  -1.017     0.7083E-2  -1.048   
  11.50     0.6794E-2  -1.047     0.8993E-3  -1.017     0.6794E-2  -1.047   
  11.52     0.6522E-2  -1.046     0.8883E-3  -1.017     0.6522E-2  -1.046   
  11.53     0.6267E-2  -1.045     0.8775E-3  -1.017     0.6267E-2  -1.045   
  11.55     0.6026E-2  -1.044     0.8670E-3  -1.016     0.6026E-2  -1.044   
  11.56     0.5800E-2  -1.043     0.8568E-3  -1.016     0.5800E-2  -1.043   
  11.58     0.5586E-2  -1.042     0.8469E-3  -1.016     0.5586E-2  -1.042   
  11.59     0.5384E-2  -1.042     0.8372E-3  -1.016     0.5384E-2  -1.042   
  11.61     0.5193E-2  -1.041     0.8278E-3  -1.016     0.5193E-2  -1.041   
  11.62     0.5013E-2  -1.040     0.8186E-3  -1.016     0.5013E-2  -1.040   
  11.64     0.4841E-2  -1.039     0.8097E-3  -1.016     0.4841E-2  -1.039   
  11.65     0.4679E-2  -1.039     0.8010E-3  -1.016     0.4679E-2  -1.039   
  11.67     0.4525E-2  -1.038     0.7925E-3  -1.015     0.4525E-2  -1.038   
  11.68     0.4379E-2  -1.037     0.7843E-3  -1.015     0.4379E-2  -1.037   
  11.70     0.4239E-2  -1.037     0.7762E-3  -1.015     0.4239E-2  -1.037   
  11.71     0.4107E-2  -1.036     0.7684E-3  -1.015     0.4107E-2  -1.036   
  11.73     0.3981E-2  -1.036     0.7608E-3  -1.015     0.3981E-2  -1.036   
  11.74     0.3861E-2  -1.035     0.7535E-3  -1.015     0.3861E-2  -1.035   
  11.76     0.3746E-2  -1.034     0.7463E-3  -1.015     0.3746E-2  -1.034   
  11.77     0.3637E-2  -1.034     0.7393E-3  -1.015     0.3637E-2  -1.034   
  11.79     0.3532E-2  -1.033     0.7325E-3  -1.015     0.3532E-2  -1.033   
  11.80     0.3432E-2  -1.033     0.7260E-3  -1.014     0.3432E-2  -1.033   
  11.82     0.3337E-2  -1.032     0.7196E-3  -1.014     0.3337E-2  -1.032   
  11.83     0.3245E-2  -1.032     0.7134E-3  -1.014     0.3245E-2  -1.032   
  11.85     0.3158E-2  -1.031     0.7074E-3  -1.014     0.3158E-2  -1.031   
  11.86     0.3074E-2  -1.031     0.7016E-3  -1.014     0.3074E-2  -1.031   
  11.88     0.2994E-2  -1.030     0.6959E-3  -1.014     0.2994E-2  -1.030   
  11.89     0.2917E-2  -1.030     0.6905E-3  -1.014     0.2917E-2  -1.030   
  11.91     0.2843E-2  -1.030     0.6852E-3  -1.014     0.2843E-2  -1.030   
  11.92     0.2772E-2  -1.029     0.6801E-3  -1.014     0.2772E-2  -1.029   
  11.94     0.2703E-2  -1.029     0.6752E-3  -1.014     0.2703E-2  -1.029   
  11.95     0.2638E-2  -1.028     0.6705E-3  -1.013     0.2638E-2  -1.028   
  11.97     0.2575E-2  -1.028     0.6660E-3  -1.013     0.2575E-2  -1.028   
  11.98     0.2514E-2  -1.028     0.6616E-3  -1.013     0.2514E-2  -1.028   
  12.00     0.2456E-2  -1.027     0.6574E-3  -1.013     0.2456E-2  -1.027   
# 
# 08/26/2016 at 12:04 YAMBO @ narro [start]
# 08/26/2016 at 12:05               [end]
#  
# Timing   [Min/Max/Average]: 48s/48s/48s
#
# .-Input file : yambo.in
# | optics                       # [R OPT] Optics
# | bse                          # [R BSE] Bethe Salpeter Equation.
# | bsk                          # [R BSK] Bethe Salpeter Equation kernel
# | bss                          # [R BSS] Bethe Salpeter Equation solver
# | tddft                        # [R   K] Use TDDFT kernel
# | BoseTemp= 0.000000     eV    # Bosonic Temperature
# | FFTGvecs=  50301       RL    # [FFT] Plane-waves
# | BS_nCPU_invert= 1            # [PARALLEL] CPUs for matrix inversion
# | BS_nCPU_diago= 1             # [PARALLEL] CPUs for matrix diagonalization
# | BSEmod= "coupling"           # [BSE] resonant/retarded/coupling
# | BSKmod= "ALDA"               # [BSE] IP/Hartree/HF/ALDA/SEX/BSfxc
# | BSSmod= "h"                  # [BSS] (h)aydock/(d)iagonalization/(i)nversion/(t)ddft`
# | BSENGexx=  50301       RL    # [BSK] Exchange components
# | % BEnRange
# |   6.00000 | 12.00000 | eV    # [BSS] Energy range
# | %
# | % BDmRange
# |   0.10000 |  0.10000 | eV    # [BSS] Damping range
# | %
# | BEnSteps=  400               # [BSS] Energy steps
# | % BLongDir
# | 0.1000E-4 | 0.000    | 0.000    |        # [BSS] [cc] Electric Field
# | %
# | % BSEBands
# |    1 |  40 |                 # [BSK] Bands range
# | %
# | BSHayTrs=0.1000E-2           # [BSS] Relative [o/o] Haydock treshold. Strict(>0)/Average(<0)
