#                                                           
#   __   __     _        __  __       ____      U  ___  u   
#   \ \ / / U  /"\  U u |" \/ "| u U | __") u    \/"_ \/    
#    \ V /   \/ _ \/   \| |\/| |/   \|  _ \/     | | | |    
#   U_|"|_u  / ___ \    | |  | |     | |_) | .-,_| |_| |    
#     |_|   /_/   \_\   |_|  |_|     |____/   \_)-\___/     
# .-,//|(_   \\    >>  <<,-,,-.     _|| \\_        \\       
#  \_) (__) (__)  (__)  (./  \.)   (__) (__)      (__)      
#                                                           
#                                                           
#        Version 4.1.0 Revision 13844 Hash ba998c6          
#                        MPI Build                          
#                http://www.yambo-code.org                  
#
# Absorption @ Q(1) [q->0 direction] :0.1000E-4  0.000     0.000   
#
#
# - Energies      are Slater exchange(X)+Perdew & Zunger(C)+Scissor
# - Wavefunctions are Slater exchange(X)+Perdew & Zunger(C)
#
# - The Green`s function is Retarded -
# - Using the Length Gauge -
# - [r,Vnl] *is* included -
#
#   BSK|Identifier              :8683
#      |Dimension               :136
#      |Bands                   :1 - 38
#      |Exchange           [res]: yes
#      |Correlation        [res]: yes
#      |Kernel`s coupling       : yes
#      |Exchange           [cpl]: yes
#      |Correlation        [cpl]: no
#      |W interaction is bare   : no
#      |ALDA kernel in R-space  : no
#      |RL vectors    [exchange]:20005
#      |RL vectors [correlation]:437
#      |E/h energy range    [ev]:-1.000000 - -1.000000
#      |Coupling range     [o/o]: 100.0000 -  100.0000
#    W |Interaction is diagonal : no
#      |Matrix size             :437
#      |Bands                   :1 - 40
#      |e/h energy range    [ev]:-1.000000 - -1.000000
#      |Poles              [o/o]: 100.0000
#      |RL vectors in the sum   :50301
#      |[r,Vnl] included        : yes
#      |Field direction         :0.1000E-4  0.000000  0.000000
#      |Coulomb Cutoff          :none
#      |xc-Kernel               :none
#   RIM|RL components      [col]:0
#      |Random points      [col]:0
#  
#   Haydock|Accuracy (requested) [o/o]:0.5000E-3
#          |Accuracy (reached)   [o/o]:0.2002E-3
#          |Iteration                 :122
#
#  E/ev[1]    EPS-Im[2]  EPS-Re[3]  EPSo-Im[4] EPSo-Re[5] EPS`-Im[6] EPS`-Re[7]
#
  6.000     0.3163E-3   1.014     0.7887E-4   1.010     0.3163E-3   1.014   
  6.020     0.3205E-3   1.014     0.7939E-4   1.010     0.3205E-3   1.014   
  6.040     0.3247E-3   1.014     0.7991E-4   1.010     0.3247E-3   1.014   
  6.060     0.3291E-3   1.014     0.8044E-4   1.010     0.3291E-3   1.014   
  6.080     0.3335E-3   1.014     0.8097E-4   1.010     0.3335E-3   1.014   
  6.100     0.3380E-3   1.014     0.8150E-4   1.010     0.3380E-3   1.014   
  6.120     0.3426E-3   1.015     0.8204E-4   1.010     0.3426E-3   1.015   
  6.140     0.3473E-3   1.015     0.8259E-4   1.010     0.3473E-3   1.015   
  6.160     0.3521E-3   1.015     0.8313E-4   1.010     0.3521E-3   1.015   
  6.180     0.3570E-3   1.015     0.8369E-4   1.010     0.3570E-3   1.015   
  6.200     0.3620E-3   1.015     0.8424E-4   1.010     0.3620E-3   1.015   
  6.220     0.3670E-3   1.015     0.8480E-4   1.010     0.3670E-3   1.015   
  6.240     0.3722E-3   1.015     0.8537E-4   1.010     0.3722E-3   1.015   
  6.261     0.3775E-3   1.015     0.8593E-4   1.010     0.3775E-3   1.015   
  6.281     0.3830E-3   1.015     0.8651E-4   1.010     0.3830E-3   1.015   
  6.301     0.3885E-3   1.015     0.8708E-4   1.010     0.3885E-3   1.015   
  6.321     0.3941E-3   1.015     0.8767E-4   1.010     0.3941E-3   1.015   
  6.341     0.3999E-3   1.015     0.8825E-4   1.010     0.3999E-3   1.015   
  6.361     0.4058E-3   1.015     0.8884E-4   1.010     0.4058E-3   1.015   
  6.381     0.4118E-3   1.015     0.8944E-4   1.010     0.4118E-3   1.015   
  6.401     0.4180E-3   1.016     0.9004E-4   1.010     0.4180E-3   1.016   
  6.421     0.4243E-3   1.016     0.9065E-4   1.010     0.4243E-3   1.016   
  6.441     0.4307E-3   1.016     0.9126E-4   1.010     0.4307E-3   1.016   
  6.461     0.4373E-3   1.016     0.9187E-4   1.010     0.4373E-3   1.016   
  6.481     0.4441E-3   1.016     0.9249E-4   1.010     0.4441E-3   1.016   
  6.501     0.4510E-3   1.016     0.9312E-4   1.010     0.4510E-3   1.016   
  6.521     0.4580E-3   1.016     0.9375E-4   1.010     0.4580E-3   1.016   
  6.541     0.4653E-3   1.016     0.9438E-4   1.010     0.4653E-3   1.016   
  6.561     0.4727E-3   1.016     0.9502E-4   1.010     0.4727E-3   1.016   
  6.581     0.4802E-3   1.016     0.9567E-4   1.010     0.4802E-3   1.016   
  6.601     0.4880E-3   1.016     0.9632E-4   1.010     0.4880E-3   1.016   
  6.621     0.4960E-3   1.017     0.9697E-4   1.010     0.4960E-3   1.017   
  6.641     0.5041E-3   1.017     0.9763E-4   1.011     0.5041E-3   1.017   
  6.661     0.5125E-3   1.017     0.9830E-4   1.011     0.5125E-3   1.017   
  6.681     0.5210E-3   1.017     0.9897E-4   1.011     0.5210E-3   1.017   
  6.701     0.5298E-3   1.017     0.9965E-4   1.011     0.5298E-3   1.017   
  6.721     0.5388E-3   1.017     0.1003E-3   1.011     0.5388E-3   1.017   
  6.741     0.5481E-3   1.017     0.1010E-3   1.011     0.5481E-3   1.017   
  6.762     0.5576E-3   1.017     0.1017E-3   1.011     0.5576E-3   1.017   
  6.782     0.5673E-3   1.017     0.1024E-3   1.011     0.5673E-3   1.017   
  6.802     0.5773E-3   1.018     0.1031E-3   1.011     0.5773E-3   1.018   
  6.822     0.5876E-3   1.018     0.1038E-3   1.011     0.5876E-3   1.018   
  6.842     0.5982E-3   1.018     0.1046E-3   1.011     0.5982E-3   1.018   
  6.862     0.6090E-3   1.018     0.1053E-3   1.011     0.6090E-3   1.018   
  6.882     0.6202E-3   1.018     0.1060E-3   1.011     0.6202E-3   1.018   
  6.902     0.6317E-3   1.018     0.1068E-3   1.011     0.6317E-3   1.018   
  6.922     0.6435E-3   1.018     0.1075E-3   1.011     0.6435E-3   1.018   
  6.942     0.6556E-3   1.018     0.1082E-3   1.011     0.6556E-3   1.018   
  6.962     0.6682E-3   1.019     0.1090E-3   1.011     0.6682E-3   1.019   
  6.982     0.6810E-3   1.019     0.1098E-3   1.011     0.6810E-3   1.019   
  7.002     0.6943E-3   1.019     0.1105E-3   1.011     0.6943E-3   1.019   
  7.022     0.7080E-3   1.019     0.1113E-3   1.011     0.7080E-3   1.019   
  7.042     0.7221E-3   1.019     0.1121E-3   1.011     0.7221E-3   1.019   
  7.062     0.7366E-3   1.019     0.1129E-3   1.011     0.7366E-3   1.019   
  7.082     0.7517E-3   1.019     0.1137E-3   1.011     0.7517E-3   1.019   
  7.102     0.7672E-3   1.020     0.1145E-3   1.011     0.7672E-3   1.020   
  7.122     0.7832E-3   1.020     0.1153E-3   1.011     0.7832E-3   1.020   
  7.142     0.7997E-3   1.020     0.1161E-3   1.011     0.7997E-3   1.020   
  7.162     0.8168E-3   1.020     0.1170E-3   1.011     0.8168E-3   1.020   
  7.182     0.8345E-3   1.020     0.1178E-3   1.011     0.8345E-3   1.020   
  7.202     0.8528E-3   1.020     0.1186E-3   1.011     0.8528E-3   1.020   
  7.222     0.8718E-3   1.020     0.1195E-3   1.011     0.8718E-3   1.020   
  7.242     0.8915E-3   1.021     0.1203E-3   1.011     0.8915E-3   1.021   
  7.263     0.9119E-3   1.021     0.1212E-3   1.011     0.9119E-3   1.021   
  7.283     0.9331E-3   1.021     0.1221E-3   1.011     0.9331E-3   1.021   
  7.303     0.9551E-3   1.021     0.1230E-3   1.011     0.9551E-3   1.021   
  7.323     0.9781E-3   1.021     0.1239E-3   1.011     0.9781E-3   1.021   
  7.343     0.1002E-2   1.022     0.1248E-3   1.011     0.1002E-2   1.022   
  7.363     0.1027E-2   1.022     0.1257E-3   1.011     0.1027E-2   1.022   
  7.383     0.1053E-2   1.022     0.1266E-3   1.011     0.1053E-2   1.022   
  7.403     0.1081E-2   1.022     0.1275E-3   1.011     0.1081E-2   1.022   
  7.423     0.1109E-2   1.022     0.1284E-3   1.011     0.1109E-2   1.022   
  7.443     0.1139E-2   1.023     0.1294E-3   1.011     0.1139E-2   1.023   
  7.463     0.1170E-2   1.023     0.1303E-3   1.011     0.1170E-2   1.023   
  7.483     0.1201E-2   1.023     0.1313E-3   1.011     0.1201E-2   1.023   
  7.503     0.1234E-2   1.023     0.1323E-3   1.011     0.1234E-2   1.023   
  7.523     0.1268E-2   1.024     0.1332E-3   1.012     0.1268E-2   1.024   
  7.543     0.1303E-2   1.024     0.1342E-3   1.012     0.1303E-2   1.024   
  7.563     0.1341E-2   1.024     0.1352E-3   1.012     0.1341E-2   1.024   
  7.583     0.1381E-2   1.024     0.1362E-3   1.012     0.1381E-2   1.024   
  7.603     0.1425E-2   1.025     0.1373E-3   1.012     0.1425E-2   1.025   
  7.623     0.1471E-2   1.025     0.1383E-3   1.012     0.1471E-2   1.025   
  7.643     0.1520E-2   1.025     0.1393E-3   1.012     0.1520E-2   1.025   
  7.663     0.1571E-2   1.026     0.1404E-3   1.012     0.1571E-2   1.026   
  7.683     0.1624E-2   1.026     0.1414E-3   1.012     0.1623E-2   1.026   
  7.703     0.1674E-2   1.026     0.1425E-3   1.012     0.1674E-2   1.026   
  7.723     0.1724E-2   1.026     0.1436E-3   1.012     0.1724E-2   1.026   
  7.743     0.1772E-2   1.027     0.1447E-3   1.012     0.1772E-2   1.027   
  7.764     0.1822E-2   1.027     0.1458E-3   1.012     0.1822E-2   1.027   
  7.784     0.1875E-2   1.027     0.1469E-3   1.012     0.1875E-2   1.027   
  7.804     0.1932E-2   1.028     0.1480E-3   1.012     0.1932E-2   1.028   
  7.824     0.1994E-2   1.028     0.1492E-3   1.012     0.1994E-2   1.028   
  7.844     0.2061E-2   1.029     0.1503E-3   1.012     0.2061E-2   1.029   
  7.864     0.2133E-2   1.029     0.1515E-3   1.012     0.2133E-2   1.029   
  7.884     0.2210E-2   1.029     0.1526E-3   1.012     0.2210E-2   1.029   
  7.904     0.2292E-2   1.030     0.1538E-3   1.012     0.2292E-2   1.030   
  7.924     0.2381E-2   1.030     0.1550E-3   1.012     0.2381E-2   1.030   
  7.944     0.2476E-2   1.031     0.1562E-3   1.012     0.2476E-2   1.031   
  7.964     0.2577E-2   1.031     0.1575E-3   1.012     0.2577E-2   1.031   
  7.984     0.2685E-2   1.032     0.1587E-3   1.012     0.2685E-2   1.032   
  8.004     0.2802E-2   1.032     0.1599E-3   1.012     0.2802E-2   1.032   
  8.024     0.2927E-2   1.033     0.1612E-3   1.012     0.2927E-2   1.033   
  8.044     0.3062E-2   1.033     0.1625E-3   1.012     0.3062E-2   1.033   
  8.064     0.3208E-2   1.034     0.1638E-3   1.012     0.3208E-2   1.034   
  8.084     0.3365E-2   1.035     0.1651E-3   1.012     0.3365E-2   1.035   
  8.104     0.3536E-2   1.035     0.1664E-3   1.012     0.3536E-2   1.035   
  8.124     0.3722E-2   1.036     0.1677E-3   1.012     0.3722E-2   1.036   
  8.144     0.3925E-2   1.037     0.1691E-3   1.012     0.3925E-2   1.037   
  8.164     0.4147E-2   1.038     0.1704E-3   1.012     0.4147E-2   1.038   
  8.184     0.4390E-2   1.038     0.1718E-3   1.013     0.4390E-2   1.038   
  8.204     0.4660E-2   1.039     0.1732E-3   1.013     0.4660E-2   1.039   
  8.224     0.4958E-2   1.040     0.1746E-3   1.013     0.4958E-2   1.040   
  8.244     0.5290E-2   1.041     0.1760E-3   1.013     0.5290E-2   1.041   
  8.265     0.5663E-2   1.042     0.1775E-3   1.013     0.5663E-2   1.042   
  8.285     0.6082E-2   1.043     0.1789E-3   1.013     0.6082E-2   1.043   
  8.305     0.6559E-2   1.044     0.1804E-3   1.013     0.6559E-2   1.044   
  8.325     0.7103E-2   1.046     0.1819E-3   1.013     0.7103E-2   1.046   
  8.345     0.7731E-2   1.047     0.1834E-3   1.013     0.7731E-2   1.047   
  8.365     0.8462E-2   1.048     0.1849E-3   1.013     0.8462E-2   1.048   
  8.385     0.9320E-2   1.050     0.1865E-3   1.013     0.9320E-2   1.050   
  8.405     0.1034E-1   1.051     0.1880E-3   1.013     0.1034E-1   1.051   
  8.425     0.1156E-1   1.053     0.1896E-3   1.013     0.1156E-1   1.053   
  8.445     0.1304E-1   1.055     0.1912E-3   1.013     0.1304E-1   1.055   
  8.465     0.1483E-1   1.057     0.1928E-3   1.013     0.1483E-1   1.057   
  8.485     0.1702E-1   1.058     0.1945E-3   1.013     0.1702E-1   1.058   
  8.505     0.1965E-1   1.060     0.1961E-3   1.013     0.1965E-1   1.060   
  8.525     0.2271E-1   1.061     0.1978E-3   1.013     0.2271E-1   1.061   
  8.545     0.2604E-1   1.061     0.1995E-3   1.013     0.2604E-1   1.061   
  8.565     0.2923E-1   1.061     0.2012E-3   1.013     0.2923E-1   1.061   
  8.585     0.3176E-1   1.059     0.2029E-3   1.013     0.3176E-1   1.059   
  8.605     0.3328E-1   1.058     0.2047E-3   1.013     0.3327E-1   1.058   
  8.625     0.3389E-1   1.057     0.2065E-3   1.013     0.3389E-1   1.057   
  8.645     0.3398E-1   1.056     0.2083E-3   1.013     0.3398E-1   1.056   
  8.665     0.3384E-1   1.057     0.2101E-3   1.013     0.3386E-1   1.057   
  8.685     0.3369E-1   1.058     0.2119E-3   1.013     0.3371E-1   1.058   
  8.705     0.3377E-1   1.060     0.2138E-3   1.014     0.3378E-1   1.060   
  8.725     0.3438E-1   1.063     0.2157E-3   1.014     0.3438E-1   1.063   
  8.745     0.3579E-1   1.067     0.2176E-3   1.014     0.3578E-1   1.067   
  8.766     0.3822E-1   1.071     0.2195E-3   1.014     0.3821E-1   1.071   
  8.786     0.4185E-1   1.076     0.2215E-3   1.014     0.4184E-1   1.076   
  8.806     0.4690E-1   1.081     0.2235E-3   1.014     0.4689E-1   1.081   
  8.826     0.5367E-1   1.087     0.2255E-3   1.014     0.5367E-1   1.087   
  8.846     0.6257E-1   1.092     0.2275E-3   1.014     0.6257E-1   1.092   
  8.866     0.7412E-1   1.097     0.2296E-3   1.014     0.7412E-1   1.097   
  8.886     0.8891E-1   1.101     0.2317E-3   1.014     0.8892E-1   1.101   
  8.906     0.1074      1.101     0.2338E-3   1.014     0.1074      1.101   
  8.926     0.1296      1.097     0.2359E-3   1.014     0.1296      1.097   
  8.946     0.1539      1.085     0.2381E-3   1.014     0.1539      1.085   
  8.966     0.1766      1.063     0.2403E-3   1.014     0.1766      1.063   
  8.986     0.1915      1.031     0.2426E-3   1.014     0.1915      1.031   
  9.006     0.1934     0.9938     0.2448E-3   1.014     0.1934     0.9938   
  9.026     0.1814     0.9597     0.2471E-3   1.014     0.1814     0.9597   
  9.046     0.1601     0.9344     0.2494E-3   1.014     0.1601     0.9344   
  9.066     0.1355     0.9195     0.2518E-3   1.014     0.1355     0.9196   
  9.086     0.1122     0.9132     0.2542E-3   1.014     0.1122     0.9132   
  9.106     0.9226E-1  0.9126     0.2566E-3   1.014     0.9226E-1  0.9126   
  9.126     0.7597E-1  0.9152     0.2590E-3   1.015     0.7598E-1  0.9152   
  9.146     0.6301E-1  0.9195     0.2615E-3   1.015     0.6301E-1  0.9195   
  9.166     0.5275E-1  0.9244     0.2641E-3   1.015     0.5275E-1  0.9244   
  9.186     0.4462E-1  0.9295     0.2666E-3   1.015     0.4462E-1  0.9295   
  9.206     0.3814E-1  0.9345     0.2692E-3   1.015     0.3814E-1  0.9345   
  9.226     0.3292E-1  0.9391     0.2718E-3   1.015     0.3292E-1  0.9391   
  9.246     0.2868E-1  0.9435     0.2745E-3   1.015     0.2868E-1  0.9435   
  9.267     0.2521E-1  0.9475     0.2772E-3   1.015     0.2521E-1  0.9475   
  9.287     0.2233E-1  0.9512     0.2799E-3   1.015     0.2233E-1  0.9512   
  9.307     0.1993E-1  0.9547     0.2827E-3   1.015     0.1993E-1  0.9547   
  9.327     0.1791E-1  0.9578     0.2855E-3   1.015     0.1791E-1  0.9578   
  9.347     0.1619E-1  0.9607     0.2884E-3   1.015     0.1619E-1  0.9607   
  9.367     0.1473E-1  0.9634     0.2913E-3   1.015     0.1473E-1  0.9634   
  9.387     0.1348E-1  0.9659     0.2942E-3   1.015     0.1348E-1  0.9659   
  9.407     0.1239E-1  0.9682     0.2972E-3   1.015     0.1239E-1  0.9682   
  9.427     0.1145E-1  0.9703     0.3003E-3   1.015     0.1145E-1  0.9703   
  9.447     0.1062E-1  0.9723     0.3033E-3   1.015     0.1062E-1  0.9723   
  9.467     0.9903E-2  0.9742     0.3065E-3   1.015     0.9903E-2  0.9742   
  9.487     0.9270E-2  0.9760     0.3096E-3   1.016     0.9270E-2  0.9760   
  9.507     0.8712E-2  0.9777     0.3129E-3   1.016     0.8712E-2  0.9777   
  9.527     0.8218E-2  0.9793     0.3161E-3   1.016     0.8218E-2  0.9793   
  9.547     0.7782E-2  0.9808     0.3194E-3   1.016     0.7782E-2  0.9808   
  9.567     0.7395E-2  0.9822     0.3228E-3   1.016     0.7395E-2  0.9822   
  9.587     0.7052E-2  0.9836     0.3262E-3   1.016     0.7052E-2  0.9836   
  9.607     0.6748E-2  0.9849     0.3297E-3   1.016     0.6748E-2  0.9849   
  9.627     0.6479E-2  0.9862     0.3332E-3   1.016     0.6479E-2  0.9862   
  9.647     0.6241E-2  0.9874     0.3368E-3   1.016     0.6241E-2  0.9874   
  9.667     0.6031E-2  0.9886     0.3405E-3   1.016     0.6031E-2  0.9886   
  9.687     0.5848E-2  0.9897     0.3442E-3   1.016     0.5848E-2  0.9897   
  9.707     0.5688E-2  0.9908     0.3479E-3   1.016     0.5688E-2  0.9908   
  9.727     0.5550E-2  0.9919     0.3517E-3   1.016     0.5550E-2  0.9919   
  9.747     0.5434E-2  0.9930     0.3556E-3   1.016     0.5434E-2  0.9930   
  9.768     0.5336E-2  0.9940     0.3596E-3   1.016     0.5336E-2  0.9940   
  9.788     0.5258E-2  0.9951     0.3636E-3   1.017     0.5258E-2  0.9951   
  9.808     0.5197E-2  0.9961     0.3677E-3   1.017     0.5197E-2  0.9961   
  9.828     0.5154E-2  0.9971     0.3718E-3   1.017     0.5154E-2  0.9971   
  9.848     0.5129E-2  0.9981     0.3760E-3   1.017     0.5129E-2  0.9981   
  9.868     0.5121E-2  0.9991     0.3803E-3   1.017     0.5121E-2  0.9991   
  9.888     0.5130E-2   1.000     0.3846E-3   1.017     0.5130E-2   1.000   
  9.908     0.5158E-2   1.001     0.3891E-3   1.017     0.5158E-2   1.001   
  9.928     0.5204E-2   1.002     0.3936E-3   1.017     0.5204E-2   1.002   
  9.948     0.5270E-2   1.003     0.3982E-3   1.017     0.5269E-2   1.003   
  9.968     0.5356E-2   1.004     0.4028E-3   1.017     0.5356E-2   1.004   
  9.988     0.5466E-2   1.005     0.4076E-3   1.017     0.5466E-2   1.005   
  10.01     0.5601E-2   1.006     0.4124E-3   1.017     0.5601E-2   1.006   
  10.03     0.5764E-2   1.007     0.4173E-3   1.017     0.5764E-2   1.007   
  10.05     0.5959E-2   1.008     0.4223E-3   1.018     0.5958E-2   1.008   
  10.07     0.6190E-2   1.010     0.4274E-3   1.018     0.6189E-2   1.010   
  10.09     0.6463E-2   1.011     0.4326E-3   1.018     0.6463E-2   1.011   
  10.11     0.6786E-2   1.012     0.4378E-3   1.018     0.6786E-2   1.012   
  10.13     0.7169E-2   1.013     0.4432E-3   1.018     0.7169E-2   1.013   
  10.15     0.7623E-2   1.015     0.4487E-3   1.018     0.7623E-2   1.015   
  10.17     0.8163E-2   1.016     0.4542E-3   1.018     0.8163E-2   1.016   
  10.19     0.8805E-2   1.017     0.4599E-3   1.018     0.8805E-2   1.017   
  10.21     0.9568E-2   1.019     0.4657E-3   1.018     0.9568E-2   1.019   
  10.23     0.1046E-1   1.020     0.4716E-3   1.018     0.1046E-1   1.020   
  10.25     0.1148E-1   1.021     0.4775E-3   1.018     0.1148E-1   1.021   
  10.27     0.1258E-1   1.023     0.4837E-3   1.019     0.1258E-1   1.023   
  10.29     0.1364E-1   1.024     0.4899E-3   1.019     0.1364E-1   1.024   
  10.31     0.1455E-1   1.025     0.4962E-3   1.019     0.1455E-1   1.025   
  10.33     0.1527E-1   1.026     0.5027E-3   1.019     0.1527E-1   1.026   
  10.35     0.1589E-1   1.027     0.5093E-3   1.019     0.1588E-1   1.027   
  10.37     0.1659E-1   1.029     0.5160E-3   1.019     0.1657E-1   1.029   
  10.39     0.1750E-1   1.031     0.5229E-3   1.019     0.1748E-1   1.031   
  10.41     0.1874E-1   1.034     0.5299E-3   1.019     0.1873E-1   1.034   
  10.43     0.2037E-1   1.037     0.5370E-3   1.019     0.2037E-1   1.037   
  10.45     0.2250E-1   1.040     0.5443E-3   1.019     0.2250E-1   1.040   
  10.47     0.2520E-1   1.043     0.5517E-3   1.020     0.2521E-1   1.043   
  10.49     0.2861E-1   1.047     0.5593E-3   1.020     0.2862E-1   1.047   
  10.51     0.3292E-1   1.051     0.5671E-3   1.020     0.3292E-1   1.051   
  10.53     0.3836E-1   1.055     0.5750E-3   1.020     0.3836E-1   1.055   
  10.55     0.4527E-1   1.059     0.5830E-3   1.020     0.4527E-1   1.059   
  10.57     0.5404E-1   1.063     0.5913E-3   1.020     0.5404E-1   1.063   
  10.59     0.6516E-1   1.066     0.5997E-3   1.020     0.6515E-1   1.066   
  10.61     0.7904E-1   1.067     0.6083E-3   1.020     0.7902E-1   1.067   
  10.63     0.9577E-1   1.065     0.6171E-3   1.021     0.9577E-1   1.065   
  10.65     0.1145      1.057     0.6261E-3   1.021     0.1145      1.057   
  10.67     0.1328      1.042     0.6352E-3   1.021     0.1328      1.042   
  10.69     0.1460      1.019     0.6446E-3   1.021     0.1461      1.019   
  10.71     0.1499     0.9914     0.6542E-3   1.021     0.1500     0.9913   
  10.73     0.1434     0.9652     0.6640E-3   1.021     0.1434     0.9651   
  10.75     0.1295     0.9451     0.6741E-3   1.021     0.1294     0.9450   
  10.77     0.1130     0.9322     0.6843E-3   1.021     0.1128     0.9322   
  10.79     0.9668E-1  0.9252     0.6948E-3   1.022     0.9656E-1  0.9253   
  10.81     0.8199E-1  0.9223     0.7056E-3   1.022     0.8201E-1  0.9225   
  10.83     0.6928E-1  0.9222     0.7166E-3   1.022     0.6941E-1  0.9223   
  10.85     0.5868E-1  0.9240     0.7278E-3   1.022     0.5883E-1  0.9239   
  10.87     0.5014E-1  0.9268     0.7394E-3   1.022     0.5022E-1  0.9267   
  10.89     0.4345E-1  0.9301     0.7512E-3   1.022     0.4344E-1  0.9299   
  10.91     0.3827E-1  0.9333     0.7633E-3   1.022     0.3817E-1  0.9332   
  10.93     0.3416E-1  0.9361     0.7757E-3   1.023     0.3404E-1  0.9361   
  10.95     0.3068E-1  0.9385     0.7884E-3   1.023     0.3061E-1  0.9386   
  10.97     0.2749E-1  0.9406     0.8014E-3   1.023     0.2751E-1  0.9407   
  10.99     0.2448E-1  0.9426     0.8147E-3   1.023     0.2457E-1  0.9426   
  11.01     0.2171E-1  0.9447     0.8284E-3   1.023     0.2181E-1  0.9446   
  11.03     0.1928E-1  0.9468     0.8425E-3   1.023     0.1934E-1  0.9467   
  11.05     0.1720E-1  0.9489     0.8569E-3   1.024     0.1721E-1  0.9488   
  11.07     0.1545E-1  0.9509     0.8716E-3   1.024     0.1541E-1  0.9509   
  11.09     0.1393E-1  0.9528     0.8868E-3   1.024     0.1388E-1  0.9528   
  11.11     0.1258E-1  0.9546     0.9024E-3   1.024     0.1254E-1  0.9546   
  11.13     0.1138E-1  0.9563     0.9184E-3   1.024     0.1135E-1  0.9563   
  11.15     0.1031E-1  0.9579     0.9348E-3   1.024     0.1030E-1  0.9580   
  11.17     0.9371E-2  0.9595     0.9517E-3   1.025     0.9371E-2  0.9595   
  11.19     0.8560E-2  0.9610     0.9691E-3   1.025     0.8563E-2  0.9610   
  11.21     0.7858E-2  0.9624     0.9869E-3   1.025     0.7861E-2  0.9624   
  11.23     0.7250E-2  0.9637     0.1005E-2   1.025     0.7253E-2  0.9637   
  11.25     0.6720E-2  0.9650     0.1024E-2   1.025     0.6723E-2  0.9650   
  11.27     0.6257E-2  0.9662     0.1044E-2   1.026     0.6259E-2  0.9662   
  11.29     0.5849E-2  0.9673     0.1064E-2   1.026     0.5851E-2  0.9673   
  11.31     0.5488E-2  0.9683     0.1084E-2   1.026     0.5490E-2  0.9683   
  11.33     0.5168E-2  0.9693     0.1105E-2   1.026     0.5170E-2  0.9693   
  11.35     0.4882E-2  0.9703     0.1127E-2   1.027     0.4885E-2  0.9703   
  11.37     0.4628E-2  0.9712     0.1150E-2   1.027     0.4630E-2  0.9712   
  11.39     0.4400E-2  0.9721     0.1173E-2   1.027     0.4403E-2  0.9721   
  11.41     0.4197E-2  0.9729     0.1197E-2   1.027     0.4200E-2  0.9729   
  11.43     0.4016E-2  0.9737     0.1222E-2   1.027     0.4019E-2  0.9737   
  11.45     0.3856E-2  0.9744     0.1247E-2   1.028     0.3858E-2  0.9744   
  11.47     0.3714E-2  0.9751     0.1273E-2   1.028     0.3716E-2  0.9751   
  11.49     0.3590E-2  0.9758     0.1301E-2   1.028     0.3592E-2  0.9758   
  11.51     0.3483E-2  0.9765     0.1329E-2   1.028     0.3485E-2  0.9765   
  11.53     0.3394E-2  0.9772     0.1358E-2   1.029     0.3395E-2  0.9772   
  11.55     0.3322E-2  0.9778     0.1388E-2   1.029     0.3324E-2  0.9778   
  11.57     0.3269E-2  0.9784     0.1419E-2   1.029     0.3271E-2  0.9784   
  11.59     0.3237E-2  0.9791     0.1451E-2   1.030     0.3238E-2  0.9791   
  11.61     0.3227E-2  0.9797     0.1484E-2   1.030     0.3229E-2  0.9796   
  11.63     0.3245E-2  0.9802     0.1518E-2   1.030     0.3246E-2  0.9802   
  11.65     0.3294E-2  0.9808     0.1554E-2   1.030     0.3295E-2  0.9808   
  11.67     0.3383E-2  0.9814     0.1591E-2   1.031     0.3380E-2  0.9814   
  11.69     0.3519E-2  0.9819     0.1630E-2   1.031     0.3510E-2  0.9819   
  11.71     0.3713E-2  0.9824     0.1669E-2   1.031     0.3693E-2  0.9824   
  11.73     0.3969E-2  0.9829     0.1711E-2   1.032     0.3937E-2  0.9829   
  11.75     0.4284E-2  0.9832     0.1754E-2   1.032     0.4245E-2  0.9832   
  11.77     0.4629E-2  0.9834     0.1798E-2   1.032     0.4601E-2  0.9835   
  11.79     0.4945E-2  0.9835     0.1845E-2   1.033     0.4956E-2  0.9836   
  11.81     0.5158E-2  0.9835     0.1893E-2   1.033     0.5225E-2  0.9835   
  11.83     0.5229E-2  0.9834     0.1944E-2   1.034     0.5327E-2  0.9834   
  11.85     0.5184E-2  0.9833     0.1996E-2   1.034     0.5253E-2  0.9832   
  11.87     0.5073E-2  0.9833     0.2051E-2   1.034     0.5065E-2  0.9832   
  11.89     0.4911E-2  0.9833     0.2108E-2   1.035     0.4835E-2  0.9832   
  11.91     0.4680E-2  0.9833     0.2167E-2   1.035     0.4592E-2  0.9833   
  11.93     0.4372E-2  0.9834     0.2230E-2   1.036     0.4323E-2  0.9834   
  11.95     0.4021E-2  0.9835     0.2295E-2   1.036     0.4021E-2  0.9836   
  11.97     0.3676E-2  0.9838     0.2363E-2   1.037     0.3708E-2  0.9838   
  11.99     0.3376E-2  0.9841     0.2434E-2   1.037     0.3417E-2  0.9841   
  12.01     0.3136E-2  0.9845     0.2509E-2   1.038     0.3172E-2  0.9845   
  12.03     0.2956E-2  0.9849     0.2587E-2   1.038     0.2982E-2  0.9849   
  12.05     0.2832E-2  0.9854     0.2669E-2   1.039     0.2846E-2  0.9854   
  12.07     0.2760E-2  0.9858     0.2756E-2   1.039     0.2762E-2  0.9858   
  12.09     0.2736E-2  0.9862     0.2847E-2   1.040     0.2725E-2  0.9862   
  12.11     0.2757E-2  0.9866     0.2943E-2   1.040     0.2734E-2  0.9866   
  12.13     0.2822E-2  0.9870     0.3044E-2   1.041     0.2788E-2  0.9870   
  12.15     0.2924E-2  0.9874     0.3150E-2   1.041     0.2883E-2  0.9874   
  12.17     0.3045E-2  0.9877     0.3263E-2   1.042     0.3007E-2  0.9877   
  12.19     0.3155E-2  0.9879     0.3382E-2   1.043     0.3134E-2  0.9879   
  12.21     0.3215E-2  0.9881     0.3508E-2   1.043     0.3226E-2  0.9881   
  12.23     0.3210E-2  0.9882     0.3641E-2   1.044     0.3253E-2  0.9883   
  12.25     0.3158E-2  0.9885     0.3783E-2   1.045     0.3217E-2  0.9885   
  12.27     0.3101E-2  0.9887     0.3934E-2   1.046     0.3154E-2  0.9887   
  12.29     0.3073E-2  0.9891     0.4095E-2   1.046     0.3106E-2  0.9890   
  12.31     0.3099E-2  0.9895     0.4267E-2   1.047     0.3103E-2  0.9894   
  12.33     0.3188E-2  0.9899     0.4450E-2   1.048     0.3161E-2  0.9898   
  12.35     0.3345E-2  0.9902     0.4646E-2   1.049     0.3288E-2  0.9902   
  12.37     0.3568E-2  0.9906     0.4857E-2   1.050     0.3490E-2  0.9906   
  12.39     0.3839E-2  0.9909     0.5083E-2   1.051     0.3763E-2  0.9909   
  12.41     0.4121E-2  0.9910     0.5327E-2   1.052     0.4086E-2  0.9912   
  12.43     0.4369E-2  0.9912     0.5590E-2   1.053     0.4417E-2  0.9913   
  12.45     0.4557E-2  0.9913     0.5875E-2   1.054     0.4692E-2  0.9913   
  12.47     0.4706E-2  0.9914     0.6184E-2   1.055     0.4868E-2  0.9913   
  12.49     0.4870E-2  0.9915     0.6521E-2   1.056     0.4964E-2  0.9914   
  12.51     0.5083E-2  0.9917     0.6889E-2   1.058     0.5044E-2  0.9915   
  12.53     0.5328E-2  0.9917     0.7291E-2   1.059     0.5167E-2  0.9916   
  12.55     0.5537E-2  0.9917     0.7734E-2   1.060     0.5341E-2  0.9918   
  12.57     0.5634E-2  0.9916     0.8223E-2   1.062     0.5515E-2  0.9918   
  12.59     0.5602E-2  0.9916     0.8764E-2   1.064     0.5621E-2  0.9918   
  12.61     0.5506E-2  0.9917     0.9367E-2   1.065     0.5629E-2  0.9918   
  12.63     0.5438E-2  0.9919     0.1004E-1   1.067     0.5581E-2  0.9919   
  12.65     0.5463E-2  0.9922     0.1080E-1   1.069     0.5555E-2  0.9921   
  12.67     0.5593E-2  0.9925     0.1166E-1   1.071     0.5606E-2  0.9924   
  12.69     0.5790E-2  0.9927     0.1264E-1   1.073     0.5736E-2  0.9926   
  12.71     0.5972E-2  0.9928     0.1377E-1   1.076     0.5892E-2  0.9928   
  12.73     0.6057E-2  0.9928     0.1507E-1   1.078     0.5995E-2  0.9929   
  12.75     0.6023E-2  0.9930     0.1659E-1   1.081     0.6002E-2  0.9930   
  12.77     0.5928E-2  0.9932     0.1838E-1   1.084     0.5941E-2  0.9933   
  12.79     0.5865E-2  0.9937     0.2051E-1   1.087     0.5893E-2  0.9937   
  12.81     0.5905E-2  0.9942     0.2307E-1   1.090     0.5934E-2  0.9942   
  12.83     0.6092E-2  0.9949     0.2618E-1   1.094     0.6116E-2  0.9949   
  12.85     0.6456E-2  0.9957     0.2999E-1   1.097     0.6471E-2  0.9957   
  12.87     0.7022E-2  0.9965     0.3471E-1   1.101     0.7028E-2  0.9965   
  12.89     0.7826E-2  0.9973     0.4057E-1   1.104     0.7822E-2  0.9973   
  12.91     0.8914E-2  0.9981     0.4779E-1   1.107     0.8901E-2  0.9981   
  12.93     0.1034E-1  0.9988     0.5648E-1   1.109     0.1032E-1  0.9988   
  12.95     0.1217E-1  0.9993     0.6640E-1   1.108     0.1214E-1  0.9993   
  12.97395    0.01440    0.99935    0.07654    1.10450    0.01438    0.99937
  12.99399    0.01695    0.99874    0.08493    1.09701    0.01694    0.99878
  13.01403    0.01952    0.99720    0.08927    1.08708    0.01955    0.99724
  13.03407    0.02163    0.99469    0.08857    1.07751    0.02169    0.99470
  13.05411    0.02280    0.99150    0.08404    1.07109    0.02284    0.99146
  13.07415    0.02283    0.98816    0.07811    1.06892    0.02281    0.98811
  13.09419    0.02185    0.98518    0.07282    1.07057    0.02180    0.98518
  13.11423    0.02019    0.98289    0.06929    1.07500    0.02016    0.98293
  13.13427    0.01825    0.98141    0.06792    1.08129    0.01827    0.98145
  13.15431    0.01644    0.98064    0.06883    1.08879    0.01647    0.98064
  13.17435    0.01496    0.98028    0.07208    1.09712    0.01498    0.98026
  13.19439    0.01383    0.98005    0.07783    1.10600    0.01383    0.98003
  13.21     0.1289E-1  0.9797     0.8640E-1   1.115     0.1288E-1  0.9797   
  13.23     0.1193E-1  0.9793     0.9830E-1   1.124     0.1192E-1  0.9793   
  13.25     0.1082E-1  0.9789     0.1142      1.133     0.1082E-1  0.9789   
  13.27     0.9585E-2  0.9787     0.1351      1.139     0.9587E-2  0.9787   
  13.29     0.8328E-2  0.9787     0.1616      1.142     0.8329E-2  0.9787   
  13.31     0.7154E-2  0.9790     0.1939      1.139     0.7155E-2  0.9790   
  13.33     0.6129E-2  0.9794     0.2303      1.123     0.6129E-2  0.9794   
  13.35     0.5268E-2  0.9799     0.2656      1.093     0.5268E-2  0.9799   
  13.37     0.4561E-2  0.9804     0.2906      1.047     0.4561E-2  0.9804   
  13.39     0.3984E-2  0.9809     0.2962     0.9913     0.3984E-2  0.9809   
  13.41     0.3512E-2  0.9815     0.2799     0.9390     0.3512E-2  0.9815   
  13.43     0.3123E-2  0.9820     0.2483     0.9001     0.3123E-2  0.9820   
  13.45     0.2801E-2  0.9824     0.2113     0.8774     0.2801E-2  0.9824   
  13.47     0.2530E-2  0.9829     0.1763     0.8681     0.2530E-2  0.9829   
  13.49     0.2301E-2  0.9833     0.1466     0.8676     0.2301E-2  0.9833   
  13.52     0.2106E-2  0.9837     0.1228     0.8721     0.2106E-2  0.9837   
  13.54     0.1937E-2  0.9840     0.1042     0.8788     0.1937E-2  0.9840   
  13.56     0.1791E-2  0.9844     0.8990E-1  0.8863     0.1791E-2  0.9844   
  13.58     0.1664E-2  0.9847     0.7882E-1  0.8936     0.1664E-2  0.9847   
  13.60     0.1552E-2  0.9850     0.6997E-1  0.9002     0.1552E-2  0.9850   
  13.62     0.1452E-2  0.9853     0.6250E-1  0.9062     0.1452E-2  0.9853   
  13.64     0.1364E-2  0.9855     0.5595E-1  0.9120     0.1364E-2  0.9855   
  13.66     0.1285E-2  0.9858     0.5024E-1  0.9176     0.1285E-2  0.9858   
  13.68     0.1214E-2  0.9860     0.4544E-1  0.9233     0.1214E-2  0.9860   
  13.70     0.1150E-2  0.9862     0.4159E-1  0.9290     0.1150E-2  0.9862   
  13.72     0.1092E-2  0.9865     0.3869E-1  0.9345     0.1092E-2  0.9865   
  13.74     0.1039E-2  0.9867     0.3669E-1  0.9397     0.1039E-2  0.9867   
  13.76     0.9905E-3  0.9869     0.3555E-1  0.9446     0.9905E-3  0.9869   
  13.78     0.9463E-3  0.9870     0.3521E-1  0.9489     0.9463E-3  0.9870   
  13.80     0.9058E-3  0.9872     0.3558E-1  0.9525     0.9058E-3  0.9872   
  13.82     0.8684E-3  0.9874     0.3643E-1  0.9552     0.8684E-3  0.9874   
  13.84     0.8339E-3  0.9876     0.3730E-1  0.9566     0.8339E-3  0.9876   
  13.86     0.8020E-3  0.9877     0.3761E-1  0.9571     0.8020E-3  0.9877   
  13.88     0.7724E-3  0.9879     0.3694E-1  0.9571     0.7724E-3  0.9879   
  13.90     0.7450E-3  0.9880     0.3537E-1  0.9574     0.7450E-3  0.9880   
  13.92     0.7195E-3  0.9882     0.3335E-1  0.9583     0.7195E-3  0.9882   
  13.94     0.6959E-3  0.9883     0.3132E-1  0.9598     0.6959E-3  0.9883   
  13.96     0.6739E-3  0.9884     0.2948E-1  0.9617     0.6739E-3  0.9884   
  13.98     0.6534E-3  0.9886     0.2788E-1  0.9641     0.6534E-3  0.9886   
  14.00     0.6342E-3  0.9887     0.2661E-1  0.9668     0.6342E-3  0.9887   
  14.02     0.6159E-3  0.9888     0.2577E-1  0.9697     0.6159E-3  0.9888   
  14.04     0.5983E-3  0.9889     0.2546E-1  0.9728     0.5983E-3  0.9889   
  14.06     0.5812E-3  0.9890     0.2576E-1  0.9761     0.5812E-3  0.9890   
  14.08     0.5645E-3  0.9892     0.2672E-1  0.9792     0.5645E-3  0.9892   
  14.10     0.5486E-3  0.9893     0.2837E-1  0.9822     0.5486E-3  0.9893   
  14.12     0.5334E-3  0.9894     0.3071E-1  0.9847     0.5334E-3  0.9894   
  14.14     0.5191E-3  0.9895     0.3369E-1  0.9866     0.5191E-3  0.9895   
  14.16     0.5056E-3  0.9896     0.3713E-1  0.9877     0.5056E-3  0.9896   
  14.18     0.4928E-3  0.9897     0.4084E-1  0.9878     0.4928E-3  0.9897   
  14.20     0.4807E-3  0.9898     0.4465E-1  0.9869     0.4807E-3  0.9898   
  14.22     0.4692E-3  0.9899     0.4821E-1  0.9846     0.4692E-3  0.9899   
  14.24     0.4583E-3  0.9900     0.5087E-1  0.9809     0.4583E-3  0.9900   
  14.26     0.4478E-3  0.9900     0.5187E-1  0.9762     0.4478E-3  0.9900   
  14.28     0.4379E-3  0.9901     0.5083E-1  0.9716     0.4379E-3  0.9901   
  14.30     0.4284E-3  0.9902     0.4815E-1  0.9681     0.4284E-3  0.9902   
  14.32     0.4193E-3  0.9903     0.4475E-1  0.9662     0.4193E-3  0.9903   
  14.34     0.4106E-3  0.9904     0.4154E-1  0.9657     0.4106E-3  0.9904   
  14.36     0.4022E-3  0.9905     0.3894E-1  0.9660     0.4022E-3  0.9905   
  14.38     0.3942E-3  0.9905     0.3690E-1  0.9665     0.3942E-3  0.9905   
  14.40     0.3865E-3  0.9906     0.3508E-1  0.9671     0.3865E-3  0.9906   
  14.42     0.3791E-3  0.9907     0.3322E-1  0.9679     0.3791E-3  0.9907   
  14.44     0.3720E-3  0.9908     0.3139E-1  0.9693     0.3720E-3  0.9908   
  14.46     0.3651E-3  0.9908     0.2988E-1  0.9712     0.3651E-3  0.9908   
  14.48     0.3585E-3  0.9909     0.2899E-1  0.9736     0.3585E-3  0.9909   
  14.50     0.3521E-3  0.9910     0.2892E-1  0.9764     0.3521E-3  0.9910   
  14.52     0.3460E-3  0.9911     0.2979E-1  0.9791     0.3460E-3  0.9911   
  14.54     0.3401E-3  0.9911     0.3167E-1  0.9817     0.3401E-3  0.9911   
  14.56     0.3343E-3  0.9912     0.3459E-1  0.9836     0.3343E-3  0.9912   
  14.58     0.3288E-3  0.9913     0.3846E-1  0.9844     0.3288E-3  0.9913   
  14.60     0.3234E-3  0.9913     0.4287E-1  0.9836     0.3234E-3  0.9913   
  14.62     0.3182E-3  0.9914     0.4696E-1  0.9807     0.3182E-3  0.9914   
  14.64     0.3132E-3  0.9915     0.4955E-1  0.9760     0.3132E-3  0.9915   
  14.66     0.3084E-3  0.9915     0.4980E-1  0.9705     0.3084E-3  0.9915   
  14.68     0.3037E-3  0.9916     0.4786E-1  0.9658     0.3037E-3  0.9916   
  14.70     0.2991E-3  0.9916     0.4463E-1  0.9624     0.2991E-3  0.9916   
  14.72     0.2947E-3  0.9917     0.4099E-1  0.9606     0.2947E-3  0.9917   
  14.74     0.2905E-3  0.9918     0.3744E-1  0.9598     0.2905E-3  0.9918   
  14.76     0.2863E-3  0.9918     0.3420E-1  0.9600     0.2863E-3  0.9918   
  14.78     0.2823E-3  0.9919     0.3143E-1  0.9609     0.2823E-3  0.9919   
  14.80     0.2784E-3  0.9919     0.2922E-1  0.9622     0.2784E-3  0.9919   
  14.82     0.2746E-3  0.9920     0.2754E-1  0.9638     0.2746E-3  0.9920   
  14.84     0.2710E-3  0.9920     0.2625E-1  0.9655     0.2710E-3  0.9920   
  14.86     0.2674E-3  0.9921     0.2527E-1  0.9673     0.2674E-3  0.9921   
  14.88     0.2640E-3  0.9921     0.2470E-1  0.9694     0.2640E-3  0.9921   
  14.90     0.2607E-3  0.9922     0.2466E-1  0.9716     0.2607E-3  0.9922   
  14.92     0.2574E-3  0.9922     0.2530E-1  0.9740     0.2574E-3  0.9922   
  14.94     0.2543E-3  0.9923     0.2670E-1  0.9762     0.2543E-3  0.9923   
  14.96     0.2512E-3  0.9923     0.2890E-1  0.9781     0.2512E-3  0.9923   
  14.98     0.2483E-3  0.9924     0.3188E-1  0.9794     0.2483E-3  0.9924   
  15.00     0.2455E-3  0.9924     0.3556E-1  0.9799     0.2455E-3  0.9924   
  15.02     0.2427E-3  0.9925     0.3985E-1  0.9792     0.2427E-3  0.9925   
  15.04     0.2401E-3  0.9925     0.4451E-1  0.9770     0.2401E-3  0.9925   
  15.06     0.2375E-3  0.9926     0.4882E-1  0.9725     0.2375E-3  0.9926   
  15.08     0.2350E-3  0.9926     0.5152E-1  0.9660     0.2350E-3  0.9926   
  15.10     0.2326E-3  0.9927     0.5139E-1  0.9583     0.2326E-3  0.9927   
  15.12     0.2304E-3  0.9927     0.4825E-1  0.9513     0.2304E-3  0.9927   
  15.14     0.2282E-3  0.9928     0.4306E-1  0.9461     0.2282E-3  0.9928   
  15.16     0.2261E-3  0.9928     0.3712E-1  0.9432     0.2261E-3  0.9928   
  15.18     0.2241E-3  0.9929     0.3139E-1  0.9422     0.2241E-3  0.9929   
  15.20     0.2223E-3  0.9929     0.2635E-1  0.9425     0.2223E-3  0.9929   
  15.22     0.2205E-3  0.9930     0.2216E-1  0.9437     0.2205E-3  0.9930   
  15.24     0.2189E-3  0.9930     0.1876E-1  0.9452     0.2189E-3  0.9930   
  15.26     0.2175E-3  0.9930     0.1604E-1  0.9470     0.2175E-3  0.9930   
  15.28     0.2162E-3  0.9931     0.1385E-1  0.9487     0.2162E-3  0.9931   
  15.30     0.2150E-3  0.9931     0.1209E-1  0.9504     0.2150E-3  0.9931   
  15.32     0.2141E-3  0.9932     0.1066E-1  0.9521     0.2141E-3  0.9932   
  15.34     0.2134E-3  0.9932     0.9482E-2  0.9536     0.2134E-3  0.9932   
  15.36     0.2129E-3  0.9933     0.8505E-2  0.9551     0.2129E-3  0.9933   
  15.38     0.2128E-3  0.9933     0.7687E-2  0.9564     0.2128E-3  0.9933   
  15.40     0.2130E-3  0.9933     0.6994E-2  0.9577     0.2129E-3  0.9933   
  15.42     0.2132E-3  0.9934     0.6402E-2  0.9588     0.2132E-3  0.9934   
  15.44     0.2134E-3  0.9934     0.5892E-2  0.9599     0.2134E-3  0.9934   
  15.46     0.2130E-3  0.9935     0.5449E-2  0.9609     0.2130E-3  0.9935   
  15.48     0.2120E-3  0.9935     0.5062E-2  0.9619     0.2120E-3  0.9935   
  15.50     0.2105E-3  0.9935     0.4721E-2  0.9628     0.2105E-3  0.9935   
  15.52     0.2090E-3  0.9936     0.4419E-2  0.9637     0.2090E-3  0.9936   
  15.54     0.2076E-3  0.9936     0.4150E-2  0.9645     0.2076E-3  0.9936   
  15.56     0.2067E-3  0.9937     0.3910E-2  0.9652     0.2067E-3  0.9937   
  15.58     0.2061E-3  0.9937     0.3693E-2  0.9659     0.2061E-3  0.9937   
  15.60     0.2060E-3  0.9937     0.3497E-2  0.9666     0.2060E-3  0.9937   
  15.62     0.2063E-3  0.9938     0.3319E-2  0.9673     0.2063E-3  0.9938   
  15.64     0.2071E-3  0.9938     0.3157E-2  0.9679     0.2071E-3  0.9938   
  15.66     0.2084E-3  0.9939     0.3009E-2  0.9685     0.2084E-3  0.9939   
  15.68     0.2102E-3  0.9939     0.2873E-2  0.9691     0.2102E-3  0.9939   
  15.70     0.2125E-3  0.9939     0.2747E-2  0.9696     0.2125E-3  0.9939   
  15.72     0.2154E-3  0.9940     0.2632E-2  0.9701     0.2154E-3  0.9940   
  15.74     0.2191E-3  0.9940     0.2525E-2  0.9706     0.2191E-3  0.9940   
  15.76     0.2236E-3  0.9941     0.2425E-2  0.9711     0.2236E-3  0.9941   
  15.78     0.2291E-3  0.9941     0.2333E-2  0.9716     0.2291E-3  0.9941   
  15.80     0.2358E-3  0.9941     0.2246E-2  0.9720     0.2358E-3  0.9941   
  15.82     0.2439E-3  0.9942     0.2166E-2  0.9725     0.2439E-3  0.9942   
  15.84     0.2538E-3  0.9942     0.2090E-2  0.9729     0.2538E-3  0.9942   
  15.86     0.2659E-3  0.9943     0.2019E-2  0.9733     0.2659E-3  0.9943   
  15.88     0.2806E-3  0.9943     0.1953E-2  0.9737     0.2806E-3  0.9943   
  15.90     0.2987E-3  0.9944     0.1890E-2  0.9741     0.2987E-3  0.9944   
  15.92     0.3212E-3  0.9944     0.1831E-2  0.9744     0.3212E-3  0.9944   
  15.94     0.3493E-3  0.9945     0.1775E-2  0.9748     0.3493E-3  0.9945   
  15.96     0.3845E-3  0.9945     0.1722E-2  0.9751     0.3845E-3  0.9945   
  15.98     0.4290E-3  0.9946     0.1672E-2  0.9755     0.4290E-3  0.9946   
  16.00     0.4854E-3  0.9947     0.1625E-2  0.9758     0.4854E-3  0.9947   
# 
# 08/26/2016 at 12:05 YAMBO @ narro [start]
# 08/26/2016 at 12:05               [end]
#  
# Timing   [Min/Max/Average]: 22s/22s/22s
#
# .-Input file : yambo.in
# | optics                       # [R OPT] Optics
# | bse                          # [R BSE] Bethe Salpeter Equation.
# | bsk                          # [R BSK] Bethe Salpeter Equation kernel
# | bss                          # [R BSS] Bethe Salpeter Equation solver
# | em1s                         # [R Xs] Static Inverse Dielectric Matrix
# | BoseTemp= 0.000000     eV    # Bosonic Temperature
# | FFTGvecs=  50301       RL    # [FFT] Plane-waves
# | X_all_q_nCPU_invert= 1       # [PARALLEL] CPUs for matrix inversion
# | BS_nCPU_invert= 1            # [PARALLEL] CPUs for matrix inversion
# | BS_nCPU_diago= 1             # [PARALLEL] CPUs for matrix diagonalization
# | Chimod= "hartree"            # [X] IP/Hartree/ALDA/LRC/BSfxc
# | BSEmod= "coupling"           # [BSE] resonant/retarded/coupling
# | BSKmod= "SEX"                # [BSE] IP/Hartree/HF/ALDA/SEX/BSfxc
# | BSSmod= "h"                  # [BSS] (h)aydock/(d)iagonalization/(i)nversion/(t)ddft`
# | BSENGexx= 20005        RL    # [BSK] Exchange components
# | BSENGBlk=  437         RL    # [BSK] Screened interaction block size
# | #WehCpl                      # [BSK] eh interaction included also in coupling
# | % KfnQP_E
# |  5.100000 | 1.000000 | 1.000000 |        # [EXTQP BSK BSS] E parameters  (c/v) eV|adim|adim
# | %
# | % BEnRange
# |   6.00000 | 16.00000 | eV    # [BSS] Energy range
# | %
# | % BDmRange
# |   0.10000 |  0.10000 | eV    # [BSS] Damping range
# | %
# | BEnSteps=  500               # [BSS] Energy steps
# | % BLongDir
# | 0.1000E-4 | 0.000    | 0.000    |        # [BSS] [cc] Electric Field
# | %
# | % BSEBands
# |    1 |  38 |                 # [BSK] Bands range
# | %
# | BSHayTrs=0.5000E-3           # [BSS] Relative [o/o] Haydock treshold. Strict(>0)/Average(<0)
# | % BndsRnXs
# |    1 |  40 |                 # [Xs] Polarization function bands
# | %
# | NGsBlkXs=  437         RL    # [Xs] Response block size
# | % DmRngeXs
# |   0.10000 |  0.10000 | eV    # [Xs] Damping range
# | %
# | % LongDrXs
# | 0.1000E-4 | 0.000    | 0.000    |        # [Xs] [cc] Electric Field
# | %
