#                                                           
#   __   __     _        __  __       ____      U  ___  u   
#   \ \ / / U  /"\  U u |" \/ "| u U | __") u    \/"_ \/    
#    \ V /   \/ _ \/   \| |\/| |/   \|  _ \/     | | | |    
#   U_|"|_u  / ___ \    | |  | |     | |_) | .-,_| |_| |    
#     |_|   /_/   \_\   |_|  |_|     |____/   \_)-\___/     
# .-,//|(_   \\    >>  <<,-,,-.     _|| \\_        \\       
#  \_) (__) (__)  (__)  (./  \.)   (__) (__)      (__)      
#                                                           
#                                                           
#        Version 4.1.0 Revision 13945 Hash 8b545ac          
#                        MPI Build                          
#                http://www.yambo-code.org                  
#
# Absorption @ Q(1) [q->0 direction] :0.1000E-4  0.000     0.000   
#
#
# - Energies      are Teter 93(XC)+Scissor
# - Wavefunctions are Teter 93(XC)
#
# - The Green`s function is Retarded -
# - Using the Length Gauge -
# - [r,Vnl] *is* included -
#
#   BSK|Identifier              :1841
#      |Dimension               :2304
#      |Bands                   :2 - 7
#      |Exchange           [res]: yes
#      |Correlation        [res]: yes
#      |Kernel`s coupling       : no
#      |Exchange           [cpl]: no
#      |Correlation        [cpl]: no
#      |W interaction is bare   : no
#      |ALDA kernel in R-space  : no
#      |RL vectors    [exchange]:749
#      |RL vectors [correlation]:51
#      |E/h energy range    [ev]:-1.000000 - -1.000000
#      |Coupling range     [o/o]: 100.0000 -  100.0000
#    W |Interaction is diagonal : no
#      |Matrix size             :51
#      |Bands                   :1 - 10
#      |e/h energy range    [ev]:-1.000000 - -1.000000
#      |Poles              [o/o]: 100.0000
#      |RL vectors in the sum   :749
#      |[r,Vnl] included        : yes
#      |Field direction         :0.1000E-4  0.000000  0.000000
#      |Coulomb Cutoff          :none
#      |xc-Kernel               :none
#   RIM|RL components      [col]:0
#      |Random points      [col]:0
#  
#   Haydock|Accuracy (requested) [o/o]:   0.0050
#          |Accuracy (reached)   [o/o]:   0.0023
#          |Iteration                 :68
#
#  E/ev[1]    EPS-Im[2]  EPS-Re[3]  EPSo-Im[4] EPSo-Re[5] EPS`-Im[6] EPS`-Re[7]
#
  7.500     0.1094E-1   1.989     0.3336E-2   1.659     0.1094E-1   1.989   
  7.559     0.1127E-1   1.996     0.3408E-2   1.661     0.1127E-1   1.996   
  7.617     0.1162E-1   2.002     0.3481E-2   1.663     0.1162E-1   2.002   
  7.676     0.1198E-1   2.009     0.3556E-2   1.665     0.1198E-1   2.009   
  7.734     0.1235E-1   2.016     0.3632E-2   1.667     0.1235E-1   2.016   
  7.793     0.1274E-1   2.023     0.3710E-2   1.669     0.1274E-1   2.023   
  7.851     0.1314E-1   2.030     0.3790E-2   1.672     0.1314E-1   2.030   
  7.910     0.1356E-1   2.038     0.3871E-2   1.674     0.1356E-1   2.038   
  7.968     0.1399E-1   2.046     0.3955E-2   1.676     0.1399E-1   2.046   
  8.027     0.1445E-1   2.053     0.4039E-2   1.678     0.1445E-1   2.053   
  8.085     0.1492E-1   2.062     0.4126E-2   1.680     0.1492E-1   2.062   
  8.144     0.1541E-1   2.070     0.4215E-2   1.683     0.1541E-1   2.070   
  8.202     0.1592E-1   2.078     0.4305E-2   1.685     0.1592E-1   2.078   
  8.261     0.1645E-1   2.087     0.4398E-2   1.687     0.1645E-1   2.087   
  8.319     0.1701E-1   2.096     0.4492E-2   1.690     0.1701E-1   2.096   
  8.378     0.1759E-1   2.105     0.4589E-2   1.692     0.1759E-1   2.105   
  8.436     0.1819E-1   2.115     0.4688E-2   1.695     0.1819E-1   2.115   
  8.495     0.1883E-1   2.124     0.4789E-2   1.697     0.1883E-1   2.124   
  8.554     0.1949E-1   2.134     0.4892E-2   1.700     0.1949E-1   2.134   
  8.612     0.2018E-1   2.145     0.4998E-2   1.702     0.2018E-1   2.145   
  8.671     0.2090E-1   2.155     0.5106E-2   1.705     0.2090E-1   2.155   
  8.729     0.2166E-1   2.166     0.5216E-2   1.707     0.2166E-1   2.166   
  8.788     0.2246E-1   2.178     0.5330E-2   1.710     0.2246E-1   2.178   
  8.846     0.2330E-1   2.189     0.5445E-2   1.713     0.2330E-1   2.189   
  8.905     0.2418E-1   2.201     0.5564E-2   1.716     0.2418E-1   2.201   
  8.963     0.2510E-1   2.213     0.5685E-2   1.718     0.2510E-1   2.213   
  9.022     0.2607E-1   2.226     0.5809E-2   1.721     0.2607E-1   2.226   
  9.080     0.2710E-1   2.239     0.5937E-2   1.724     0.2710E-1   2.239   
  9.139     0.2817E-1   2.253     0.6067E-2   1.727     0.2817E-1   2.253   
  9.197     0.2931E-1   2.267     0.6201E-2   1.730     0.2931E-1   2.267   
  9.256     0.3052E-1   2.282     0.6338E-2   1.733     0.3052E-1   2.282   
  9.314     0.3179E-1   2.297     0.6478E-2   1.736     0.3179E-1   2.297   
  9.373     0.3314E-1   2.312     0.6622E-2   1.740     0.3314E-1   2.312   
  9.431     0.3456E-1   2.329     0.6769E-2   1.743     0.3456E-1   2.329   
  9.490     0.3608E-1   2.345     0.6920E-2   1.746     0.3608E-1   2.345   
  9.548     0.3769E-1   2.363     0.7076E-2   1.749     0.3769E-1   2.363   
  9.607     0.3940E-1   2.381     0.7235E-2   1.753     0.3940E-1   2.381   
  9.666     0.4122E-1   2.400     0.7398E-2   1.756     0.4122E-1   2.400   
  9.724     0.4317E-1   2.419     0.7566E-2   1.760     0.4317E-1   2.419   
  9.783     0.4525E-1   2.440     0.7738E-2   1.763     0.4525E-1   2.440   
  9.841     0.4747E-1   2.461     0.7915E-2   1.767     0.4747E-1   2.461   
  9.900     0.4986E-1   2.484     0.8096E-2   1.771     0.4986E-1   2.484   
  9.958     0.5242E-1   2.507     0.8283E-2   1.774     0.5242E-1   2.507   
  10.02     0.5517E-1   2.531     0.8475E-2   1.778     0.5517E-1   2.531   
  10.08     0.5814E-1   2.557     0.8672E-2   1.782     0.5814E-1   2.557   
  10.13     0.6135E-1   2.583     0.8875E-2   1.786     0.6135E-1   2.583   
  10.19     0.6482E-1   2.612     0.9083E-2   1.790     0.6482E-1   2.612   
  10.25     0.6858E-1   2.641     0.9298E-2   1.794     0.6858E-1   2.641   
  10.31     0.7267E-1   2.672     0.9519E-2   1.798     0.7267E-1   2.672   
  10.37     0.7713E-1   2.705     0.9746E-2   1.802     0.7713E-1   2.705   
  10.43     0.8200E-1   2.740     0.9980E-2   1.807     0.8200E-1   2.740   
  10.48     0.8735E-1   2.776     0.1022E-1   1.811     0.8735E-1   2.776   
  10.54     0.9322E-1   2.815     0.1047E-1   1.816     0.9322E-1   2.815   
  10.60201    0.09969    2.85619    0.01073    1.82031    0.09969    2.85619
  10.66053    0.10685    2.90007    0.01099    1.82498    0.10685    2.90007
  10.71906    0.11481    2.94688    0.01126    1.82975    0.11481    2.94688
  10.77759    0.12368    2.99693    0.01154    1.83461    0.12368    2.99693
  10.83612    0.13362    3.05059    0.01184    1.83956    0.13362    3.05059
  10.89465    0.14479    3.10827    0.01214    1.84462    0.14479    3.10827
  10.95318    0.15742    3.17046    0.01245    1.84979    0.15742    3.17046
  11.01171    0.17177    3.23773    0.01277    1.85504    0.17177    3.23773
  11.07023    0.18818    3.31075    0.01310    1.86043    0.18818    3.31075
  11.12876    0.20705    3.39031    0.01344    1.86592    0.20705    3.39031
  11.18729    0.22892    3.47736    0.01380    1.87153    0.22892    3.47736
  11.24582    0.25443    3.57304    0.01416    1.87725    0.25443    3.57304
  11.30435    0.28447    3.67870    0.01454    1.88311    0.28447    3.67870
  11.36288    0.32015    3.79603    0.01494    1.88910    0.32015    3.79603
  11.42140    0.36298    3.92706    0.01535    1.89522    0.36298    3.92706
  11.47993    0.41500    4.07436    0.01577    1.90148    0.41500    4.07436
  11.53846    0.47901    4.24109    0.01621    1.90787    0.47901    4.24109
  11.59699    0.55893    4.43125    0.01667    1.91444    0.55893    4.43125
  11.65552    0.66043    4.64988    0.01715    1.92114    0.66043    4.64988
  11.71405    0.79180    4.90338    0.01764    1.92801    0.79180    4.90338
  11.77257    0.96566    5.19973    0.01816    1.93505    0.96566    5.19973
  11.83110    1.20165    5.54866    0.01870    1.94226    1.20165    5.54866
  11.88963    1.53140    5.96087    0.01926    1.94965    1.53140    5.96087
  11.94816    2.00746    6.44496    0.01984    1.95722    2.00746    6.44496
  12.00669    2.71909    6.99631    0.02045    1.96500    2.71909    6.99631
  12.06522    3.81671    7.56263    0.02109    1.97298    3.81671    7.56263
  12.12375    5.52671    7.94383    0.02176    1.98117    5.52671    7.94383
  12.18227    8.02535    7.56356    0.02246    1.98959    8.02535    7.56356
  12.24080   10.75788    5.36422    0.02319    1.99824   10.75788    5.36422
  12.29933   11.65107    1.25645    0.02395    2.00712   11.65107    1.25645
  12.35786    9.71657   -2.21402    0.02476    2.01627    9.71657   -2.21402
  12.41639    6.95849   -3.52346    0.02561    2.02569    6.95849   -3.52346
  12.47492    4.82077   -3.49773    0.02650    2.03538    4.82077   -3.49773
  12.53344    3.41303   -3.01540    0.02744    2.04537    3.41303   -3.01540
  12.59197    2.50708   -2.45309    0.02843    2.05568    2.50708   -2.45309
  12.65050    1.91195   -1.92949    0.02947    2.06631    1.91195   -1.92949
  12.70903    1.50874   -1.47105    0.03058    2.07728    1.50874   -1.47105
  12.76756    1.22729   -1.07554    0.03175    2.08863    1.22729   -1.07554
  12.82609    1.02587   -0.73338    0.03300    2.10036    1.02587   -0.73338
  12.88461    0.87907   -0.43437    0.03432    2.11249    0.87907   -0.43437
  12.94314    0.77099   -0.16947    0.03573    2.12506    0.77099   -0.16947
  13.00167    0.69150    0.06883    0.03723    2.13809    0.69150    0.06883
  13.06020    0.63408    0.28679    0.03884    2.15162    0.63408    0.28679
  13.11873    0.59462    0.48965    0.04057    2.16568    0.59462    0.48965
  13.17726    0.57073    0.68192    0.04242    2.18030    0.57073    0.68192
  13.23579    0.56140    0.86766    0.04442    2.19552    0.56140    0.86766
  13.29431    0.56689    1.05066    0.04658    2.21140    0.56689    1.05066
  13.35284    0.58891    1.23460    0.04893    2.22797    0.58891    1.23460
  13.41137    0.63096    1.42316    0.05148    2.24531    0.63096    1.42316
  13.46990    0.69922    1.61995    0.05427    2.26348    0.69922    1.61995
  13.52843    0.80399    1.82794    0.05733    2.28255    0.80399    1.82794
  13.58696    0.96230    2.04785    0.06071    2.30260    0.96230    2.04785
  13.64548    1.20172    2.27328    0.06445    2.32374    1.20172    2.27328
  13.70401    1.56427    2.47792    0.06863    2.34608    1.56427    2.47792
  13.76254    2.09943    2.58562    0.07332    2.36974    2.09943    2.58562
  13.82107    2.80436    2.42597    0.07862    2.39489    2.80436    2.42597
  13.87960    3.45452    1.78907    0.08466    2.42170    3.45452    1.78907
  13.93813    3.58960    0.80270    0.09162    2.45038    3.58960    0.80270
  13.99666    3.13796    0.03641    0.09971    2.48118    3.13796    0.03641
  14.05518    2.54915   -0.26942    0.10924    2.51440    2.54915   -0.26942
  14.11371    2.10421   -0.32270    0.12063    2.55042    2.10421   -0.32270
  14.17224    1.77683   -0.32486    0.13443    2.58967    1.77683   -0.32486
  14.23077    1.47123   -0.29731    0.15149    2.63267    1.47123   -0.29731
  14.28930    1.19138   -0.19687    0.17301    2.67997    1.19139   -0.19687
  14.34783    0.97707   -0.03883    0.20079    2.73219    0.97707   -0.03883
  14.40635    0.83371    0.14065    0.23760    2.78981    0.83371    0.14065
  14.46488    0.74940    0.32073    0.28779    2.85271    0.74940    0.32073
  14.52341    0.71413    0.49297    0.35804    2.91905    0.71413    0.49297
  14.58194    0.72455    0.65204    0.45819    2.98244    0.72455    0.65204
  14.64047    0.78229    0.78744    0.59955    3.02550    0.78229    0.78744
  14.69900    0.88515    0.87595    0.78292    3.01061    0.88515    0.87595
  14.75752    1.00542    0.88650    0.96416    2.88778    1.00542    0.88650
  14.81605    1.08387    0.82098    1.03861    2.66744    1.08387    0.82098
  14.87458    1.08961    0.73172    0.95762    2.47364    1.08962    0.73172
  14.93311    1.03489    0.65659    0.80982    2.39894    1.03488    0.65659
  14.99164    0.93152    0.62395    0.68788    2.42067    0.93153    0.62397
  15.05017    0.81715    0.65821    0.61972    2.48453    0.81718    0.65818
  15.10869    0.73304    0.74467    0.59831    2.55070    0.73297    0.74464
  15.16722    0.69183    0.85493    0.59949    2.59572    0.69183    0.85506
  15.22575    0.69095    0.97056    0.58985    2.62297    0.69116    0.97047
  15.28428    0.72571    1.08184    0.55823    2.66334    0.72545    1.08160
  15.34281    0.79529    1.18518    0.52518    2.73577    0.79511    1.18567
  15.40134    0.91014    1.27243    0.50956    2.83482    0.91089    1.27242
  15.45986    1.07966    1.31202    0.51691    2.95074    1.07924    1.31105
  15.51839    1.27901    1.25277    0.54776    3.07868    1.27806    1.25386
  15.57692    1.42747    1.06989    0.60352    3.21760    1.42920    1.07025
  15.63545    1.43600    0.82601    0.68859    3.36780    1.43546    0.82425
  15.69398    1.30769    0.63858    0.81158    3.52909    1.30645    0.63967
  15.75251    1.12754    0.56001    0.98655    3.69785    1.12864    0.56072
  15.81104    0.95830    0.57128    1.23390    3.86145    0.95874    0.57041
  15.86957    0.82710    0.64369    1.57666    3.98770    0.82646    0.64330
  15.92809    0.74532    0.75072    2.02088    4.01219    0.74486    0.75117
  15.98662    0.71363    0.87065    2.51092    3.85267    0.71391    0.87124
  16.04515    0.72890    0.98747    2.91591    3.49259    0.72966    0.98737
  16.10368    0.78617    1.08614    3.14368    3.03427    0.78627    1.08511
  16.16220    0.87309    1.15270    3.21943    2.57754    0.87163    1.15242
  16.22073    0.97137    1.18625    3.18686    2.14469    0.97108    1.18828
  16.27926    1.07861    1.19772    3.04915    1.73322    1.08118    1.19773
  16.33779    1.20816    1.17895    2.77224    1.37997    1.20768    1.17612
  16.39632    1.35555    1.09741    2.38413    1.18772    1.35279    1.09831
  16.45485    1.47624    0.92011    2.00793    1.19304    1.47733    0.92256
  16.51338    1.48427    0.66690    1.73444    1.33296    1.48636    0.66590
  16.57191    1.34197    0.44729    1.58528    1.53229    1.34129    0.44551
  16.63043    1.12680    0.34886    1.55276    1.73835    1.12523    0.34913
  16.68896    0.93046    0.35899    1.62200    1.91049    0.93031    0.36043
  16.74749    0.78803    0.42662    1.76521    2.01201    0.78938    0.42718
  16.80602    0.69703    0.51312    1.93760    2.02610    0.69796    0.51186
  16.86455    0.64321    0.59917    2.10621    1.96322    0.64206    0.59795
  16.92308    0.61425    0.68003    2.25408    1.82223    0.61280    0.68103
  16.98161    0.60582    0.75509    2.33089    1.60223    0.60662    0.75669
  17.04013    0.61519    0.82029    2.28606    1.37049    0.61687    0.81973
  17.09866    0.63619    0.87428    2.16250    1.21337    0.63589    0.87262
  17.15719    0.66887    0.92104    2.04379    1.12265    0.66731    0.92104
  17.21572    0.72208    0.95504    1.93531    1.03641    0.72176    0.95647
  17.27425    0.79437    0.95422    1.78333    0.95416    0.79564    0.95483
  17.33278    0.85619    0.89974    1.58389    0.93717    0.85700    0.89864
  17.39130    0.86494    0.80988    1.39407    1.01227    0.86406    0.80899
  17.44983    0.81397    0.73342    1.25968    1.15473    0.81310    0.73405
  17.50836    0.73393    0.69554    1.19495    1.33125    0.73430    0.69632
  17.56689    0.64753    0.69226    1.20116    1.51861    0.64816    0.69215
  17.62542    0.56445    0.71871    1.28054    1.69939    0.56454    0.71827
  17.68395    0.49408    0.77013    1.43920    1.85134    0.49384    0.76992
  17.74247    0.44230    0.83771    1.67950    1.93589    0.44205    0.83776
  17.80100    0.40931    0.91330    1.97544    1.89382    0.40920    0.91350
  17.85953    0.39302    0.99211    2.23662    1.67830    0.39308    0.99232
  17.91806    0.39161    1.07175    2.33053    1.34152    0.39184    1.07186
  17.97659    0.40439    1.15078    2.21981    1.04619    0.40468    1.15064
  18.03512    0.43149    1.22739    2.01630    0.90671    0.43156    1.22694
  18.09364    0.47286    1.29888    1.84719    0.90492    0.47231    1.29849
  18.15217    0.52728    1.36246    1.76582    0.96460    0.52646    1.36301
  18.21070    0.59341    1.41630    1.76574    1.02065    0.59387    1.41760
  18.26923    0.67050    1.45751    1.81757    1.04092    0.67229    1.45725
  18.32776    0.75423    1.48254    1.89994    1.01565    0.75427    1.48032
  18.38629    0.83936    1.49483    1.99944    0.92997    0.83684    1.49438
  18.44481    0.93242    1.49927    2.08378    0.76153    0.93146    1.50193
  18.50334    1.04466    1.48266    2.09008    0.51519    1.04735    1.48422
  18.56187    1.16467    1.41764    1.96862    0.25598    1.16678    1.41502
  18.62040    1.25210    1.29680    1.73826    0.06810    1.24964    1.29430
  18.68      1.275      1.153      1.466     -.9096E-2   1.272      1.155   
  18.74      1.238      1.025      1.214     0.1060E-1   1.240      1.027   
  18.79598    1.16033    0.93171    1.01090    0.09005    1.16260    0.93068
  18.85451    1.05989    0.88721    0.86014    0.19644    1.05952    0.88530
  18.91304    0.96556    0.89403    0.75300    0.30911    0.96406    0.89384
  18.97157    0.89998    0.93430    0.67839    0.41664    0.89939    0.93536
  19.03010    0.86565    0.98377    0.62482    0.51425    0.86625    0.98455
  19.08863    0.84942    1.02942    0.58251    0.60364    0.85021    1.02924
  19.14716    0.83941    1.07645    0.54758    0.69064    0.83956    1.07581
  19.20568    0.84018    1.13600    0.52217    0.77907    0.83981    1.13564
  19.26421    0.86748    1.20741    0.50968    0.86833    0.86705    1.20750
  19.32274    0.93422    1.27591    0.51198    0.95534    0.93404    1.27626
  19.38127    1.04333    1.31739    0.52919    1.03584    1.04349    1.31775
  19.43980    1.18099    1.30303    0.55890    1.10494    1.18141    1.30314
  19.49833    1.30907    1.21424    0.59493    1.15927    1.30944    1.21390
  19.55686    1.37943    1.06788    0.62918    1.20109    1.37929    1.06728
  19.61539    1.37323    0.91120    0.65787    1.23898    1.37252    0.91104
  19.67391    1.30618    0.78069    0.68606    1.28216    1.30570    0.78138
  19.73244    1.19893    0.69373    0.72622    1.33295    1.19943    0.69449
  19.79097    1.07498    0.66162    0.79135    1.38233    1.07592    0.66146
  19.84950    0.96290    0.68126    0.88715    1.41067    0.96318    0.68030
  19.90803    0.88158    0.73369    1.00386    1.39198    0.88079    0.73294
  19.96655    0.83364    0.79687    1.10787    1.30726    0.83247    0.79731
  20.02508    0.80974    0.85590    1.15041    1.17084    0.80966    0.85736
  20.08361    0.79726    0.90805    1.10875    1.03685    0.79881    0.90876
  20.14214    0.79101    0.95927    1.01115    0.95470    0.79237    0.95788
  20.20067    0.79484    1.01214    0.90315    0.93241    0.79387    1.01018
  20.25920    0.81090    1.06141    0.81153    0.95146    0.80848    1.06174
  20.31772    0.83367    1.10291    0.74288    0.99136    0.83320    1.10556
  20.37625    0.85784    1.14086    0.69288    1.03846    0.86042    1.14217
  20.43478    0.88741    1.18057    0.65363    1.08823    0.88955    1.17838
  20.49331    0.92926    1.21730    0.62115    1.14334    0.92777    1.21445
  20.55184    0.97987    1.24034    0.59770    1.20616    0.97654    1.24093
  20.61037    1.02507    1.24849    0.58682    1.27492    1.02462    1.25199
  20.66890    1.05700    1.25615    0.58991    1.34625    1.06031    1.25765
  20.72742    1.08637    1.27682    0.60754    1.41716    1.08887    1.27409
  20.78595    1.12924    1.30620    0.64007    1.48382    1.12738    1.30287
  20.84448    1.18776    1.32904    0.68564    1.54157    1.18385    1.32981
  20.90301    1.24908    1.33883    0.74001    1.58788    1.24866    1.34298
  20.96154    1.30375    1.34672    0.80027    1.62323    1.30776    1.34833
  21.02007    1.36092    1.36589    0.86670    1.64665    1.36362    1.36241
  21.07859    1.43686    1.39296    0.93764    1.65241    1.43420    1.38934
  21.13712    1.53587    1.41455    1.00325    1.63429    1.53159    1.41619
  21.19565    1.65295    1.42599    1.04593    1.59639    1.65346    1.43059
  21.25418    1.79372    1.43128    1.05495    1.56007    1.79829    1.43193
  21.31271    1.97880    1.41991    1.04214    1.54915    1.98057    1.41567
  21.37123    2.22027    1.35238    1.03239    1.56838    2.21657    1.34965
  21.42976    2.49296    1.17332    1.04216    1.60392    2.48953    1.17638
  21.48829    2.72236    0.84754    1.07117    1.63858    2.72474    0.85132
  21.54682    2.80783    0.40482    1.10828    1.66508    2.81154    0.40315
  21.60535    2.68987   -0.04739    1.14437    1.68926    2.68896   -0.05069
  21.66388    2.40691   -0.38792    1.18158    1.72163    2.40422   -0.38776
  21.72241    2.06084   -0.56614    1.23124    1.76668    2.06036   -0.56414
  21.78094    1.73720   -0.60632    1.30616    1.81977    1.73851   -0.60540
  21.83946    1.47464   -0.55816    1.41683    1.86946    1.47578   -0.55879
  21.89799    1.27923   -0.46331    1.57028    1.89634    1.27920   -0.46445
  21.95652    1.14412   -0.34839    1.76209    1.87115    1.14316   -0.34884
  22.01505    1.06033   -0.22859    1.96395    1.76426    1.05952   -0.22794
  22.07358    1.02122   -0.11289    2.12417    1.56988    1.02147   -0.11188
  22.13      1.023     -.8936E-2   2.196      1.323      1.025     -.8764E-2
  22.19063    1.06500    0.07284    2.16843    1.07970    1.06558    0.07190
  22.24916    1.14019    0.11716    2.06555    0.88259    1.13948    0.11621
  22.30769    1.23259    0.10650    1.92044    0.75143    1.23134    0.10689
  22.36622    1.31013    0.03277    1.76564    0.68989    1.31014    0.03424
  22.42475    1.33599   -0.08614    1.63020    0.68937    1.33758   -0.08575
  22.48327    1.29579   -0.20840    1.53617    0.73007    1.29655   -0.21001
  22.54180    1.20842   -0.29786    1.49366    0.78454    1.20687   -0.29896
  22.60033    1.10480   -0.34420    1.49803    0.82385    1.10342   -0.34279
  22.65886    1.00763   -0.35545    1.52960    0.82497    1.00884   -0.35385
  22.71739    0.92803   -0.34612    1.55752    0.78017    0.92978   -0.34710
  22.77592    0.86661   -0.33101    1.55230    0.70311    0.86588   -0.33285
  22.83445    0.81585   -0.31935    1.50085    0.62248    0.81400   -0.31885
  22.89297    0.76682   -0.31136    1.41074    0.56602    0.76710   -0.30956
  22.95150    0.71591   -0.30210    1.30200    0.54924    0.71759   -0.30219
  23.01003    0.66438   -0.28776    1.19683    0.57311    0.66448   -0.28928
  23.06856    0.61491   -0.26670    1.11127    0.62715    0.61357   -0.26697
  23.12709    0.57097   -0.23897    1.05063    0.69672    0.57056   -0.23781
  23.18562    0.53588   -0.20739    1.01088    0.77072    0.53687   -0.20687
  23.24415    0.51016   -0.17691    0.98462    0.84628    0.51075   -0.17775
  23.30268    0.49049   -0.15153    0.96857    0.92742    0.48980   -0.15216
  23.36120    0.47197   -0.13124    0.96658    1.01827    0.47133   -0.13067
  23.41973    0.45230   -0.11268    0.98603    1.11807    0.45275   -0.11204
  23.47826    0.43296   -0.09320    1.03360    1.22130    0.43357   -0.09355
  23.53679    0.41611   -0.07328    1.11379    1.31931    0.41585   -0.07387
  23.59532    0.40182   -0.05476    1.22841    1.40079    0.40127   -0.05456
  23.65384    0.38864   -0.03836    1.37507    1.45184    0.38879   -0.03785
  23.71     0.3753     -.2354E-1   1.545      1.457     0.3757     -.2366E-1
  23.77     0.3610     -.9108E-2   1.719      1.404     0.3609     -.9520E-2
  23.83     0.3460     0.6653E-2   1.868      1.288     0.3456     0.6728E-2
  23.88796    0.33207    0.02499    1.96031    1.12557    0.33213    0.02530
  23.94649    0.32176    0.04522    1.97544    0.95669    0.32203    0.04518
  24.00501    0.31622    0.06497    1.92824    0.82677    0.31618    0.06472
  24.06354    0.31472    0.08176    1.85882    0.75770    0.31450    0.08179
  24.12207    0.31541    0.09430    1.80586    0.74051    0.31545    0.09450
  24.18060    0.31646    0.10245    1.79020    0.75002    0.31664    0.10240
  24.23913    0.31632    0.10659    1.81520    0.75906    0.31626    0.10644
  24.29766    0.31364    0.10772    1.87130    0.74524    0.31353    0.10779
  24.35619    0.30784    0.10735    1.93981    0.69518    0.30792    0.10743
  24.41471    0.29907    0.10666    1.99903    0.60765    0.29913    0.10659
  24.47324    0.28750    0.10660    2.03103    0.49271    0.28743    0.10657
  24.53177    0.27365    0.10834    2.02673    0.36725    0.27364    0.10840
  24.59030    0.25897    0.11259    1.98736    0.24892    0.25901    0.11260
  24.64883    0.24482    0.11878    1.92256    0.15028    0.24481    0.11874
  24.70736    0.23148    0.12581    1.84476    0.07518    0.23146    0.12582
  24.77     0.2185     0.1332      1.762     0.2102E-1  0.2185     0.1332   
  24.82     0.2055     0.1412      1.679     -.1478E-1  0.2056     0.1412   
  24.88294    0.19277    0.14998    1.59703   -0.03240    0.19276    0.14998
  24.94147    0.18037    0.15952    1.52169   -0.03207    0.18038    0.15953
  25.00     0.1685     0.1698      1.459     -.1657E-1  0.1685     0.1698   
# 
# 10/16/2016 at 08:04 YAMBO @ narro [start]
# 10/16/2016 at 08:05               [end]
#  
# Timing   [Min/Max/Average]: 30s/30s/30s
#
# .-Input file : INPUTS/11_BSE
# | optics                       # [R OPT] Optics
# | bse                          # [R BSE] Bethe Salpeter Equation.
# | bsk                          # [R BSK] Bethe Salpeter Equation kernel
# | bss                          # [R BSS] Bethe Salpeter Equation solver
# | em1s                         # [R Xs] Static Inverse Dielectric Matrix
# | BoseTemp= 0.000000     eV    # Bosonic Temperature
# | FFTGvecs=  749         RL    # [FFT] Plane-waves
# | Chimod= "Hartree"            # [X] IP/Hartree/ALDA/LRC/BSfxc
# | BSEmod= "retarded"           # [BSE] resonant/retarded/coupling
# | BSKmod= "SEX"                # [BSE] IP/Hartree/HF/ALDA/SEX/BSfxc
# | BSSmod= "h"                  # [BSS] (h)aydock/(d)iagonalization/(i)nversion/(t)ddft`
# | BSENGexx=  749         RL    # [BSK] Exchange components
# | BSENGBlk=  51          RL    # [BSK] Screened interaction block size
# | #WehCpl                      # [BSK] eh interaction included also in coupling
# | % KfnQP_E
# |  5.800000 | 1.000000 | 1.000000 |        # [EXTQP BSK BSS] E parameters  (c/v) eV|adim|adim
# | %
# | % BEnRange
# |   7.50000 | 25.00000 | eV    # [BSS] Energy range
# | %
# | % BDmRange
# |   0.10000 |  0.30000 | eV    # [BSS] Damping range
# | %
# | BEnSteps= 300                # [BSS] Energy steps
# | % BLongDir
# | 0.1000E-4 | 0.000    | 0.000    |        # [BSS] [cc] Electric Field
# | %
# | % BSEBands
# |   2 |  7 |                   # [BSK] Bands range
# | %
# | BSHayTrs=   0.0050           # [BSS] Relative [o/o] Haydock treshold. Strict(>0)/Average(<0)
# | % BndsRnXs
# |   1 | 10 |                   # [Xs] Polarization function bands
# | %
# | NGsBlkXs=  51          RL    # [Xs] Response block size
# | % DmRngeXs
# | 0.1000E-2 |0.1000E-2 | eV    # [Xs] Damping range
# | %
# | % LongDrXs
# | 0.1000E-4 | 0.000    | 0.000    |        # [Xs] [cc] Electric Field
# | %
