#                                                           
#                                                           
# Y88b    /   e           e    e      888~~\    ,88~-_      
#  Y88b  /   d8b         d8b  d8b     888   |  d888   \     
#   Y88b/   /Y88b       d888bdY88b    888 _/  88888    |    
#    Y8Y   /  Y88b     / Y88Y Y888b   888  \  88888    |    
#     Y   /____Y88b   /   YY   Y888b  888   |  Y888   /     
#    /   /      Y88b /          Y888b 888__/    `88_-~      
#                                                           
#                                                           
#       Version 4.3.0 Revision 15746 Hash 61e4334           
#                     MPI+SLK Build                         
#               http://www.yambo-code.org                   
#
# Joint density of states @ Q(1) [q->0 direction] :0.1000E-4  0.000     0.000   
#
# - Energies      are Teter 93(XC)
# - The Green`s function is Retarded -
#
#   BSK|Identifier              :4619
#      |Dimension               :9
#      |Bands                   :1 - 10
#      |Exchange           [res]: yes
#      |Correlation        [res]: no
#      |Kernel`s coupling       : yes
#      |Exchange           [cpl]: yes
#      |Correlation        [cpl]: no
#      |W interaction is bare   : no
#      |ALDA kernel in R-space  : no
#      |RL vectors    [exchange]:4945
#      |E/h energy range    [ev]:-1.000000 - -1.000000
#      |Coupling range     [o/o]: 100.0000 -  100.0000
#
#    E/ev[1]      jdos-Im[2]   jdos-Re[3]   jdoso-Im[4]  jdoso-Re[5]  jdos`-Im[6]  jdos`-Re[7]
#
    6.000       0.3591E-2    0.1437       0.2964E-2    0.3411   
    6.020       0.3607E-2    0.1444       0.2985E-2    0.3416   
    6.040       0.3624E-2    0.1451       0.3006E-2    0.3422   
    6.060       0.3640E-2    0.1459       0.3027E-2    0.3429   
    6.080       0.3657E-2    0.1466       0.3049E-2    0.3435   
    6.100       0.3674E-2    0.1473       0.3070E-2    0.3441   
    6.120       0.3691E-2    0.1481       0.3092E-2    0.3447   
    6.140       0.3708E-2    0.1488       0.3114E-2    0.3453   
    6.160       0.3725E-2    0.1496       0.3136E-2    0.3459   
    6.180       0.3743E-2    0.1503       0.3158E-2    0.3466   
    6.200       0.3761E-2    0.1511       0.3181E-2    0.3472   
    6.220       0.3779E-2    0.1518       0.3204E-2    0.3478   
    6.240       0.3797E-2    0.1526       0.3227E-2    0.3485   
    6.261       0.3815E-2    0.1533       0.3250E-2    0.3491   
    6.281       0.3833E-2    0.1541       0.3273E-2    0.3498   
    6.301       0.3852E-2    0.1549       0.3297E-2    0.3504   
    6.321       0.3870E-2    0.1556       0.3320E-2    0.3511   
    6.341       0.3889E-2    0.1564       0.3344E-2    0.3518   
    6.361       0.3908E-2    0.1572       0.3369E-2    0.3524   
    6.381       0.3928E-2    0.1580       0.3393E-2    0.3531   
    6.401       0.3947E-2    0.1588       0.3418E-2    0.3538   
    6.421       0.3967E-2    0.1596       0.3442E-2    0.3545   
    6.441       0.3987E-2    0.1604       0.3467E-2    0.3552   
    6.461       0.4007E-2    0.1612       0.3493E-2    0.3559   
    6.481       0.4027E-2    0.1620       0.3518E-2    0.3566   
    6.501       0.4047E-2    0.1628       0.3544E-2    0.3573   
    6.521       0.4068E-2    0.1636       0.3570E-2    0.3580   
    6.541       0.4089E-2    0.1644       0.3596E-2    0.3587   
    6.561       0.4110E-2    0.1652       0.3623E-2    0.3594   
    6.581       0.4131E-2    0.1660       0.3649E-2    0.3602   
    6.601       0.4152E-2    0.1669       0.3676E-2    0.3609   
    6.621       0.4174E-2    0.1677       0.3704E-2    0.3616   
    6.641       0.4196E-2    0.1686       0.3731E-2    0.3624   
    6.661       0.4218E-2    0.1694       0.3759E-2    0.3631   
    6.681       0.4240E-2    0.1702       0.3787E-2    0.3639   
    6.701       0.4263E-2    0.1711       0.3815E-2    0.3647   
    6.721       0.4285E-2    0.1719       0.3844E-2    0.3654   
    6.741       0.4308E-2    0.1728       0.3873E-2    0.3662   
    6.762       0.4332E-2    0.1737       0.3902E-2    0.3670   
    6.782       0.4355E-2    0.1745       0.3931E-2    0.3678   
    6.802       0.4379E-2    0.1754       0.3961E-2    0.3686   
    6.822       0.4403E-2    0.1763       0.3991E-2    0.3693   
    6.842       0.4427E-2    0.1772       0.4021E-2    0.3702   
    6.862       0.4451E-2    0.1781       0.4052E-2    0.3710   
    6.882       0.4476E-2    0.1790       0.4083E-2    0.3718   
    6.902       0.4501E-2    0.1799       0.4114E-2    0.3726   
    6.922       0.4526E-2    0.1808       0.4146E-2    0.3734   
    6.942       0.4552E-2    0.1817       0.4178E-2    0.3743   
    6.962       0.4577E-2    0.1826       0.4210E-2    0.3751   
    6.982       0.4603E-2    0.1835       0.4242E-2    0.3759   
    7.002       0.4630E-2    0.1844       0.4275E-2    0.3768   
    7.022       0.4656E-2    0.1854       0.4308E-2    0.3777   
    7.042       0.4683E-2    0.1863       0.4342E-2    0.3785   
    7.062       0.4710E-2    0.1872       0.4376E-2    0.3794   
    7.082       0.4738E-2    0.1882       0.4410E-2    0.3803   
    7.102       0.4765E-2    0.1891       0.4445E-2    0.3812   
    7.122       0.4793E-2    0.1901       0.4480E-2    0.3821   
    7.142       0.4822E-2    0.1911       0.4515E-2    0.3830   
    7.162       0.4850E-2    0.1920       0.4551E-2    0.3839   
    7.182       0.4879E-2    0.1930       0.4587E-2    0.3848   
    7.202       0.4908E-2    0.1940       0.4624E-2    0.3857   
    7.222       0.4938E-2    0.1950       0.4661E-2    0.3866   
    7.242       0.4968E-2    0.1960       0.4698E-2    0.3876   
    7.263       0.4998E-2    0.1970       0.4736E-2    0.3885   
    7.283       0.5029E-2    0.1980       0.4774E-2    0.3895   
    7.303       0.5060E-2    0.1990       0.4813E-2    0.3904   
    7.323       0.5091E-2    0.2000       0.4852E-2    0.3914   
    7.343       0.5122E-2    0.2010       0.4891E-2    0.3924   
    7.363       0.5154E-2    0.2020       0.4931E-2    0.3933   
    7.383       0.5187E-2    0.2031       0.4971E-2    0.3943   
    7.403       0.5219E-2    0.2041       0.5012E-2    0.3953   
    7.423       0.5252E-2    0.2052       0.5054E-2    0.3963   
    7.443       0.5286E-2    0.2062       0.5095E-2    0.3974   
    7.463       0.5320E-2    0.2073       0.5138E-2    0.3984   
    7.483       0.5354E-2    0.2084       0.5180E-2    0.3994   
    7.503       0.5388E-2    0.2094       0.5224E-2    0.4005   
    7.523       0.5423E-2    0.2105       0.5267E-2    0.4015   
    7.543       0.5459E-2    0.2116       0.5312E-2    0.4026   
    7.563       0.5495E-2    0.2127       0.5357E-2    0.4036   
    7.583       0.5531E-2    0.2138       0.5402E-2    0.4047   
    7.603       0.5568E-2    0.2149       0.5448E-2    0.4058   
    7.623       0.5605E-2    0.2160       0.5494E-2    0.4069   
    7.643       0.5642E-2    0.2172       0.5541E-2    0.4080   
    7.663       0.5680E-2    0.2183       0.5589E-2    0.4091   
    7.683       0.5719E-2    0.2194       0.5637E-2    0.4102   
    7.703       0.5758E-2    0.2206       0.5686E-2    0.4114   
    7.723       0.5797E-2    0.2217       0.5735E-2    0.4125   
    7.743       0.5837E-2    0.2229       0.5785E-2    0.4137   
    7.764       0.5877E-2    0.2241       0.5836E-2    0.4148   
    7.784       0.5918E-2    0.2253       0.5887E-2    0.4160   
    7.804       0.5960E-2    0.2265       0.5939E-2    0.4172   
    7.824       0.6001E-2    0.2276       0.5992E-2    0.4184   
    7.844       0.6044E-2    0.2289       0.6045E-2    0.4196   
    7.864       0.6087E-2    0.2301       0.6099E-2    0.4208   
    7.884       0.6130E-2    0.2313       0.6154E-2    0.4220   
    7.904       0.6174E-2    0.2325       0.6209E-2    0.4233   
    7.924       0.6219E-2    0.2338       0.6265E-2    0.4245   
    7.944       0.6264E-2    0.2350       0.6322E-2    0.4258   
    7.964       0.6310E-2    0.2363       0.6380E-2    0.4271   
    7.984       0.6356E-2    0.2375       0.6438E-2    0.4283   
    8.004       0.6403E-2    0.2388       0.6497E-2    0.4296   
    8.024       0.6451E-2    0.2401       0.6557E-2    0.4309   
    8.044       0.6499E-2    0.2414       0.6618E-2    0.4323   
    8.064       0.6548E-2    0.2427       0.6680E-2    0.4336   
    8.084       0.6597E-2    0.2440       0.6742E-2    0.4349   
    8.104       0.6647E-2    0.2454       0.6806E-2    0.4363   
    8.124       0.6698E-2    0.2467       0.6870E-2    0.4377   
    8.144       0.6750E-2    0.2480       0.6935E-2    0.4390   
    8.164       0.6802E-2    0.2494       0.7001E-2    0.4404   
    8.184       0.6855E-2    0.2508       0.7068E-2    0.4418   
    8.204       0.6908E-2    0.2521       0.7136E-2    0.4433   
    8.224       0.6963E-2    0.2535       0.7205E-2    0.4447   
    8.244       0.7018E-2    0.2549       0.7275E-2    0.4461   
    8.265       0.7073E-2    0.2563       0.7346E-2    0.4476   
    8.285       0.7130E-2    0.2578       0.7418E-2    0.4491   
    8.305       0.7188E-2    0.2592       0.7491E-2    0.4506   
    8.325       0.7246E-2    0.2606       0.7566E-2    0.4521   
    8.345       0.7305E-2    0.2621       0.7641E-2    0.4536   
    8.365       0.7365E-2    0.2636       0.7717E-2    0.4551   
    8.385       0.7426E-2    0.2650       0.7795E-2    0.4567   
    8.405       0.7487E-2    0.2665       0.7874E-2    0.4583   
    8.425       0.7550E-2    0.2680       0.7954E-2    0.4598   
    8.445       0.7613E-2    0.2696       0.8035E-2    0.4614   
    8.465       0.7678E-2    0.2711       0.8118E-2    0.4631   
    8.485       0.7743E-2    0.2726       0.8202E-2    0.4647   
    8.505       0.7810E-2    0.2742       0.8287E-2    0.4663   
    8.525       0.7877E-2    0.2758       0.8374E-2    0.4680   
    8.545       0.7945E-2    0.2773       0.8462E-2    0.4697   
    8.565       0.8015E-2    0.2789       0.8551E-2    0.4714   
    8.585       0.8085E-2    0.2805       0.8642E-2    0.4731   
    8.605       0.8157E-2    0.2822       0.8734E-2    0.4749   
    8.625       0.8230E-2    0.2838       0.8828E-2    0.4766   
    8.645       0.8303E-2    0.2855       0.8924E-2    0.4784   
    8.665       0.8378E-2    0.2871       0.9021E-2    0.4802   
    8.685       0.8454E-2    0.2888       0.9120E-2    0.4820   
    8.705       0.8532E-2    0.2905       0.9220E-2    0.4838   
    8.725       0.8610E-2    0.2922       0.9323E-2    0.4857   
    8.745       0.8690E-2    0.2940       0.9427E-2    0.4876   
      8.7655       0.0088       0.2957       0.0095       0.4895
      8.7856       0.0089       0.2975       0.0096       0.4914
      8.8056       0.0089       0.2993       0.0098       0.4933
      8.8257       0.0090       0.3011       0.0099       0.4953
      8.8457       0.0091       0.3029       0.0100       0.4973
      8.8657       0.0092       0.3047       0.0101       0.4993
      8.8858       0.0093       0.3066       0.0102       0.5013
      8.9058       0.0094       0.3084       0.0103       0.5034
      8.9259       0.0095       0.3103       0.0105       0.5054
      8.9459       0.0096       0.3122       0.0106       0.5075
      8.9659       0.0097       0.3141       0.0107       0.5097
      8.9860       0.0098       0.3161       0.0108       0.5118
      9.0060       0.0099       0.3180       0.0110       0.5140
      9.0261       0.0100       0.3200       0.0111       0.5162
     9.04609      0.01006      0.32203      0.01124      0.51845
     9.06613      0.01017      0.32405      0.01138      0.52071
     9.08617      0.01028      0.32610      0.01152      0.52300
     9.10621      0.01038      0.32817      0.01167      0.52532
     9.12625      0.01050      0.33026      0.01182      0.52766
     9.14629      0.01061      0.33237      0.01197      0.53004
     9.16633      0.01072      0.33450      0.01213      0.53245
     9.18637      0.01084      0.33666      0.01228      0.53489
     9.20641      0.01096      0.33884      0.01245      0.53736
     9.22645      0.01108      0.34104      0.01261      0.53987
     9.24649      0.01121      0.34327      0.01278      0.54241
     9.26653      0.01133      0.34553      0.01295      0.54498
     9.28657      0.01146      0.34781      0.01313      0.54759
     9.30661      0.01160      0.35011      0.01331      0.55023
     9.32665      0.01173      0.35245      0.01350      0.55291
     9.34669      0.01187      0.35481      0.01369      0.55562
     9.36673      0.01201      0.35719      0.01388      0.55838
     9.38677      0.01215      0.35961      0.01408      0.56117
     9.40681      0.01230      0.36205      0.01429      0.56401
     9.42685      0.01245      0.36453      0.01449      0.56688
     9.44689      0.01260      0.36703      0.01471      0.56980
     9.46693      0.01276      0.36957      0.01493      0.57276
     9.48697      0.01292      0.37213      0.01515      0.57576
     9.50701      0.01308      0.37473      0.01538      0.57881
     9.52705      0.01325      0.37736      0.01562      0.58191
     9.54709      0.01342      0.38003      0.01586      0.58505
     9.56713      0.01359      0.38273      0.01611      0.58825
     9.58717      0.01377      0.38546      0.01637      0.59149
     9.60721      0.01395      0.38824      0.01663      0.59478
     9.62725      0.01414      0.39104      0.01690      0.59813
     9.64729      0.01433      0.39389      0.01718      0.60153
     9.66733      0.01453      0.39677      0.01746      0.60499
     9.68737      0.01473      0.39970      0.01776      0.60850
     9.70741      0.01494      0.40266      0.01806      0.61208
     9.72746      0.01515      0.40567      0.01837      0.61571
     9.74749      0.01537      0.40871      0.01869      0.61941
     9.76754      0.01559      0.41181      0.01903      0.62317
     9.78758      0.01582      0.41494      0.01937      0.62700
     9.80762      0.01605      0.41813      0.01972      0.63090
     9.82766      0.01629      0.42136      0.02008      0.63487
     9.84770      0.01654      0.42464      0.02046      0.63891
     9.86774      0.01680      0.42796      0.02085      0.64303
     9.88778      0.01706      0.43134      0.02125      0.64722
     9.90782      0.01733      0.43478      0.02166      0.65150
     9.92786      0.01761      0.43826      0.02209      0.65586
     9.94790      0.01789      0.44181      0.02254      0.66031
     9.96794      0.01818      0.44541      0.02300      0.66484
     9.98798      0.01849      0.44907      0.02348      0.66947
    10.00802      0.01880      0.45279      0.02397      0.67419
    10.02806      0.01912      0.45657      0.02449      0.67901
    10.04810      0.01945      0.46042      0.02502      0.68394
    10.06814      0.01979      0.46433      0.02558      0.68897
    10.08818      0.02015      0.46831      0.02616      0.69412
    10.10822      0.02051      0.47237      0.02676      0.69938
    10.12826      0.02089      0.47649      0.02739      0.70476
    10.14830      0.02128      0.48070      0.02804      0.71027
    10.16834      0.02168      0.48498      0.02873      0.71591
    10.18838      0.02210      0.48934      0.02944      0.72168
    10.20842      0.02253      0.49379      0.03019      0.72760
    10.22846      0.02298      0.49832      0.03097      0.73366
    10.24850      0.02345      0.50294      0.03179      0.73989
    10.26854      0.02393      0.50766      0.03264      0.74627
    10.28858      0.02443      0.51248      0.03355      0.75283
    10.30862      0.02496      0.51739      0.03449      0.75956
    10.32866      0.02550      0.52241      0.03549      0.76649
    10.34870      0.02606      0.52754      0.03654      0.77361
    10.36874      0.02665      0.53278      0.03765      0.78094
    10.38878      0.02726      0.53814      0.03882      0.78850
    10.40882      0.02790      0.54362      0.04006      0.79628
    10.42886      0.02857      0.54923      0.04137      0.80431
    10.44890      0.02927      0.55497      0.04276      0.81259
    10.46894      0.03000      0.56085      0.04424      0.82116
    10.48898      0.03077      0.56688      0.04581      0.83001
    10.50902      0.03157      0.57306      0.04748      0.83917
    10.52906      0.03241      0.57940      0.04928      0.84866
    10.54910      0.03329      0.58591      0.05119      0.85850
    10.56914      0.03422      0.59260      0.05324      0.86872
    10.58918      0.03520      0.59947      0.05545      0.87933
    10.60922      0.03623      0.60653      0.05783      0.89038
    10.62926      0.03732      0.61380      0.06039      0.90188
    10.64930      0.03847      0.62128      0.06316      0.91388
    10.66934      0.03968      0.62900      0.06617      0.92641
    10.68938      0.04097      0.63695      0.06944      0.93951
    10.70942      0.04234      0.64515      0.07300      0.95324
    10.72946      0.04379      0.65363      0.07690      0.96764
    10.74950      0.04534      0.66240      0.08118      0.98278
    10.76954      0.04699      0.67146      0.08588      0.99871
    10.78958      0.04876      0.68085      0.09109      1.01551
    10.80962      0.05064      0.69059      0.09686      1.03327
    10.82966      0.05267      0.70070      0.10328      1.05208
    10.84970      0.05485      0.71120      0.11047      1.07204
    10.86974      0.05719      0.72212      0.11855      1.09327
    10.88978      0.05972      0.73349      0.12766      1.11591
    10.90982      0.06246      0.74536      0.13802      1.14010
    10.92986      0.06543      0.75774      0.14983      1.16602
    10.94990      0.06866      0.77070      0.16341      1.19387
    10.96994      0.07218      0.78427      0.17911      1.22386
    10.98998      0.07604      0.79851      0.19738      1.25622
    11.01002      0.08027      0.81347      0.21883      1.29122
    11.03006      0.08494      0.82923      0.24420      1.32914
    11.05010      0.09009      0.84584      0.27447      1.37024
    11.07014      0.09580      0.86340      0.31093      1.41476
    11.09018      0.10217      0.88200      0.35527      1.46284
    11.11022      0.10929      0.90174      0.40973      1.51440
    11.13026      0.11730      0.92274      0.47728      1.56895
    11.15030      0.12634      0.94513      0.56185      1.62517
    11.17034      0.13661      0.96907      0.66849      1.68030
    11.19038      0.14833      0.99472      0.80336      1.72892
    11.21042      0.16180      1.02228      0.97307      1.76115
    11.23046      0.17737      1.05196      1.18236      1.76019
    11.25050      0.19551      1.08401      1.42843      1.70037
    11.27054      0.21679      1.11867      1.69077      1.54994
    11.29058      0.24197      1.15623      1.92101      1.28607
    11.31062      0.27201      1.19695      2.04986      0.92321
    11.33066      0.30818      1.24108      2.02655      0.52895
    11.35070      0.35217      1.28875      1.86126      0.19143
    11.37074      0.40619      1.33990      1.61593     -0.03686
    11.39078      0.47319      1.39405      1.35618     -0.15583
    11.41082      0.55706      1.44994      1.12148     -0.19356
    11.43086      0.66281      1.50483      0.92574     -0.18081
    11.45090      0.79657      1.55344      0.76860     -0.14055
    11.47094      0.96496      1.58607      0.64437     -0.08720
    11.49098      1.17286      1.58619      0.54644     -0.02905
    11.51102      1.41782      1.52841      0.46894      0.02943
    11.53106      1.68014      1.38106      0.40718      0.08601
    11.55110      1.91242      1.12056      0.35756      0.13969
    11.57114      2.04560      0.75971      0.31734      0.19013
    11.59118      2.02744      0.36458      0.28446      0.23734
    11.61122      1.86593      0.02356      0.25738      0.28150
    11.63126      1.62198     -0.20910      0.23490      0.32288
    11.65130      1.36179     -0.33183      0.21614      0.36176
    11.67134      1.12583     -0.37226      0.20039      0.39840
    11.69138      0.92864     -0.36133      0.18712      0.43308
    11.71142      0.77018     -0.32229      0.17589      0.46604
    11.73146      0.64483     -0.26982      0.16638      0.49749
    11.75150      0.54599     -0.21239      0.15831      0.52763
    11.77154      0.46775     -0.15455      0.15147      0.55664
    11.79158      0.40538     -0.09858      0.14569      0.58467
    11.81162      0.35525     -0.04553      0.14082      0.61187
    11.83       0.3146       0.4256E-2    0.1368       0.6384   
    11.85170      0.28130      0.05078      0.13339      0.66426
    11.87174      0.25386      0.09421      0.13066      0.68968
    11.89178      0.23104      0.13481      0.12849      0.71471
    11.91182      0.21195      0.17285      0.12683      0.73944
    11.93186      0.19589      0.20861      0.12565      0.76396
    11.95190      0.18230      0.24236      0.12490      0.78834
    11.97194      0.17075      0.27432      0.12457      0.81265
    11.99198      0.16091      0.30472      0.12462      0.83696
    12.01202      0.15251      0.33375      0.12505      0.86135
    12.03206      0.14532      0.36158      0.12583      0.88587
    12.05210      0.13917      0.38837      0.12698      0.91060
    12.07214      0.13392      0.41426      0.12847      0.93559
    12.09219      0.12945      0.43937      0.13032      0.96091
    12.11223      0.12566      0.46381      0.13253      0.98663
    12.13227      0.12247      0.48768      0.13511      1.01280
    12.15230      0.11981      0.51108      0.13806      1.03951
    12.17235      0.11764      0.53408      0.14142      1.06681
    12.19239      0.11590      0.55676      0.14520      1.09479
    12.21243      0.11455      0.57920      0.14942      1.12352
    12.23246      0.11357      0.60145      0.15413      1.15308
    12.25251      0.11292      0.62359      0.15935      1.18356
    12.27255      0.11260      0.64566      0.16513      1.21505
    12.29259      0.11257      0.66772      0.17154      1.24767
    12.31262      0.11282      0.68982      0.17862      1.28151
    12.33267      0.11335      0.71203      0.18647      1.31670
    12.35271      0.11415      0.73437      0.19515      1.35338
    12.37275      0.11521      0.75691      0.20479      1.39169
    12.39279      0.11652      0.77969      0.21551      1.43179
    12.41283      0.11810      0.80276      0.22745      1.47386
    12.43287      0.11993      0.82616      0.24079      1.51811
    12.45291      0.12203      0.84996      0.25576      1.56475
    12.47295      0.12440      0.87418      0.27262      1.61403
    12.49299      0.12705      0.89890      0.29170      1.66624
    12.51303      0.12998      0.92415      0.31338      1.72168
    12.53307      0.13322      0.95000      0.33818      1.78070
    12.55311      0.13677      0.97650      0.36672      1.84366
    12.57315      0.14065      1.00371      0.39979      1.91099
    12.59319      0.14489      1.03170      0.43842      1.98309
    12.61323      0.14950      1.06053      0.48392      2.06040
    12.63327      0.15453      1.09027      0.53800      2.14328
    12.65331      0.15998      1.12101      0.60291      2.23194
    12.67335      0.16591      1.15282      0.68160      2.32629
    12.69339      0.17236      1.18580      0.77798      2.42558
    12.71343      0.17936      1.22004      0.89705      2.52789
    12.73347      0.18697      1.25565      1.04510      2.62912
    12.75351      0.19526      1.29273      1.22923      2.72136
    12.77355      0.20429      1.33142      1.45580      2.79065
    12.79359      0.21414      1.37186      1.72600      2.81456
    12.81363      0.22490      1.41419      2.02704      2.76287
    12.83367      0.23668      1.45857      2.32088      2.60798
    12.85371      0.24961      1.50520      2.54363      2.35036
    12.87375      0.26382      1.55427      2.63537      2.04279
    12.89379      0.27948      1.60602      2.58836      1.77383
    12.91383      0.29678      1.66069      2.45685      1.61155
    12.93387      0.31596      1.71857      2.31507      1.57038
    12.95391      0.33729      1.77998      2.21805      1.62628
    12.97395      0.36109      1.84526      2.19494      1.74427
    12.99399      0.38776      1.91481      2.25944      1.89189
    13.01403      0.41777      1.98909      2.41974      2.03941
    13.03407      0.45168      2.06860      2.68213      2.15372
    13.05411      0.49019      2.15391      3.04710      2.19091
    13.07415      0.53418      2.24567      3.49621      2.09206
    13.09419      0.58472      2.34459      3.96973      1.79314
    13.11423      0.64314      2.45146      4.35158      1.26364
    13.13427      0.71115      2.56715      4.50129      0.56406
    13.15431      0.79094      2.69261      4.34591     -0.14682
    13.17435      0.88529      2.82878      3.94265     -0.70314
    13.19439      0.99786      2.97653      3.42694     -1.03172
    13.21443      1.13339      3.13652      2.91729     -1.15482
    13.23447      1.29817      3.30888      2.47544     -1.13363
    13.25451      1.50047      3.49265      2.11855     -1.02545
    13.27455      1.75104      3.68474      1.84164     -0.87023
    13.29459      2.06360      3.87819      1.63268     -0.69205
    13.31463      2.45463      4.05919      1.47943     -0.50412
    13.33467      2.94116      4.20249      1.37194     -0.31307
    13.35471      3.53413      4.26588      1.30296     -0.12178
    13.37475      4.22354      4.18796      1.26783      0.06888
    13.39479      4.95599      3.90029      1.26420      0.25912
    13.41483      5.62184      3.36792      1.29185      0.44938
    13.43487      6.09180      2.64230      1.35269      0.63990
    13.45491      6.30296      1.85709      1.45088      0.82999
    13.47495      6.29819      1.13760      1.59307      1.01713
    13.49499      6.16107      0.53378      1.78852      1.19531
    13.51503      5.95057      0.05202      2.04866      1.35243
    13.53507      5.71634     -0.30086      2.38494      1.46649
    13.55511      5.52691     -0.53670      2.80256      1.50101
    13.57515      5.44424     -0.71800      3.28731      1.40376
    13.59519      5.47781     -0.94619      3.78609      1.11833
    13.61523      5.56075     -1.31575      4.19682      0.61914
    13.63527      5.56489     -1.85498      4.39729     -0.04235
    13.65531      5.36695     -2.48774      4.31767     -0.73202
    13.67535      4.93277     -3.06773      3.99351     -1.29922
    13.69539      4.33668     -3.47342      3.53871     -1.65947
    13.71543      3.69674     -3.67035      3.07076     -1.81515
    13.73547      3.10289     -3.69515      2.66293     -1.81734
    13.75551      2.59569     -3.60710      2.34404     -1.72324
    13.77555      2.18049     -3.45693      2.11753     -1.57722
    13.79559      1.84676     -3.27873      1.97780     -1.40959
    13.81563      1.57965     -3.09265      1.91843     -1.24196
    13.83567      1.36518     -2.90953      1.93467     -1.09337
    13.85571      1.19175     -2.73469      2.02163     -0.98581
    13.87575      1.05032     -2.57040      2.16794     -0.94788
    13.89579      0.93397     -2.41721      2.34480     -1.01194
    13.91583      0.83743     -2.27487      2.49627     -1.19781
    13.93587      0.75668     -2.14264      2.54961     -1.48428
    13.95591      0.68868     -2.01967      2.45751     -1.79786
    13.97595      0.63107     -1.90508      2.23651     -2.05147
    13.99599      0.58202     -1.79795      1.95022     -2.19872
    14.01603      0.54010     -1.69748      1.66094     -2.24405
    14.03607      0.50420     -1.60289      1.40370     -2.21646
    14.05611      0.47343     -1.51351      1.18937     -2.14562
    14.07615      0.44711     -1.42867      1.01603     -2.05294
    14.09619      0.42467     -1.34781      0.87727     -1.95162
    14.11623      0.40569     -1.27041      0.76616     -1.84905
    14.13627      0.38983     -1.19598      0.67671     -1.74905
    14.15631      0.37685     -1.12405      0.60412     -1.65340
    14.17635      0.36657     -1.05421      0.54471     -1.56276
    14.19639      0.35890     -0.98605      0.49568     -1.47721
    14.21643      0.35378     -0.91917      0.45492     -1.39652
    14.23647      0.35125     -0.85320      0.42082     -1.32029
    14.25651      0.35142     -0.78775      0.39214     -1.24812
    14.27655      0.35446     -0.72244      0.36796     -1.17957
    14.29659      0.36065     -0.65688      0.34753     -1.11422
    14.31663      0.37040     -0.59068      0.33030     -1.05167
    14.33667      0.38425     -0.52343      0.31582     -0.99155
    14.35671      0.40295     -0.45475      0.30375     -0.93351
    14.37675      0.42749     -0.38426      0.29383     -0.87725
    14.39679      0.45922     -0.31163      0.28586     -0.82246
    14.41683      0.49993     -0.23668      0.27969     -0.76885
    14.43687      0.55200     -0.15952      0.27521     -0.71616
    14.45691      0.61864     -0.08073      0.27236     -0.66413
    14.48       0.7041       -.1911E-2    0.2711       -.6125   
    14.49699      0.81364      0.07359      0.27151     -0.56100
    14.51703      0.95374      0.13930      0.27357     -0.50941
    14.53707      1.13078      0.18363      0.27740     -0.45744
    14.55711      1.34800      0.18728      0.28313     -0.40482
    14.57716      1.59855      0.12212      0.29096     -0.35127
    14.59719      1.85430     -0.04317      0.30115     -0.29650
    14.61723      2.05853     -0.32351      0.31404     -0.24016
    14.63727      2.14207     -0.68841      0.33008     -0.18192
    14.65732      2.06943     -1.05839      0.34983     -0.12142
    14.67735      1.87009     -1.35086      0.37406     -0.05828
    14.70        1.612       -1.530       0.4037       0.7891E-2
    14.71744      1.35484     -1.60662      0.44013      0.07744
    14.73748      1.12913     -1.61232      0.48497      0.15063
    14.75751      0.94345     -1.57575      0.54048      0.22754
    14.77756      0.79510     -1.51712      0.60964      0.30786
    14.79760      0.67783     -1.44874      0.69639      0.39053
    14.81764      0.58515     -1.37750      0.80578      0.47310
    14.83768      0.51155     -1.30704      0.94404      0.55066
    14.85772      0.45266     -1.23911      1.11803      0.61404
    14.87776      0.40517     -1.17444      1.33309      0.64742
    14.89779      0.36656     -1.11322      1.58782      0.62622
    14.91784      0.33495     -1.05532      1.86441      0.51912
    14.93788      0.30893     -1.00051      2.11783      0.30159
    14.95792      0.28740     -0.94848      2.28028     -0.01647
    14.97796      0.26954     -0.89893      2.29778     -0.37170
    14.99800      0.25473     -0.85154      2.17519     -0.67514
    15.01804      0.24246     -0.80601      1.97290     -0.86901
    15.03808      0.23237     -0.76207      1.76011     -0.94883
    15.05812      0.22415     -0.71948      1.58183     -0.94161
    15.07816      0.21757     -0.67798      1.45748     -0.87951
    15.09820      0.21247     -0.63737      1.39228     -0.78850
    15.11824      0.20871     -0.59744      1.38657     -0.68807
    15.13828      0.20619     -0.55798      1.44033     -0.59503
    15.15832      0.20485     -0.51881      1.55342     -0.52817
    15.17836      0.20465     -0.47975      1.72184     -0.51239
    15.19840      0.20557     -0.44061      1.92898     -0.57927
    15.21844      0.20762     -0.40122      2.13411     -0.75793
    15.23848      0.21085     -0.36137      2.27040     -1.05052
    15.25852      0.21530     -0.32089      2.27291     -1.40718
    15.27856      0.22107     -0.27958      2.12676     -1.74011
    15.29860      0.22827     -0.23721      1.87945     -1.97909
    15.31864      0.23706     -0.19356      1.59978     -2.10677
    15.33868      0.24763     -0.14838      1.33710     -2.14452
    15.35872      0.26024     -0.10140      1.11272     -2.12391
    15.37876      0.27520     -0.05233      0.92971     -2.07086
    15.40       0.2929       -.8395E-3    0.7833       -2.002   
    15.41884      0.31385      0.05343      0.66661     -1.92852
    15.43888      0.33868      0.11085      0.57332     -1.85469
    15.45892      0.36822      0.17186      0.49814     -1.78366
    15.47896      0.40351      0.23688      0.43697     -1.71665
    15.49900      0.44591      0.30635      0.38668     -1.65412
    15.51904      0.49720      0.38065      0.34494     -1.59605
    15.53908      0.55974      0.46001      0.30993     -1.54223
    15.55912      0.63660      0.54437      0.28030     -1.49236
    15.57916      0.73186      0.63303      0.25501     -1.44610
    15.59920      0.85078      0.72410      0.23324     -1.40313
    15.61924      1.00004      0.81358      0.21438     -1.36313
    15.63928      1.18734      0.89372      0.19790     -1.32581
    15.65932      1.41997      0.95069      0.18343     -1.29092
    15.67936      1.70068      0.96212      0.17065     -1.25822
    15.69940      2.01930      0.89728      0.15929     -1.22751
    15.71944      2.34140      0.72655      0.14914     -1.19861
    15.73948      2.60679      0.44574      0.14004     -1.17134
    15.75952      2.75763      0.10044      0.13184     -1.14558
    15.77956      2.78652     -0.22920      0.12442     -1.12118
    15.79960      2.74777     -0.48593      0.11769     -1.09803
    15.81964      2.71305     -0.67336      0.11155     -1.07604
    15.83968      2.72251     -0.84258      0.10594     -1.05511
    15.85972      2.76482     -1.05574      0.10079     -1.03515
    15.87976      2.78217     -1.34758      0.09605     -1.01610
    15.89980      2.70319     -1.69470      0.09169     -0.99789
    15.91984      2.49699     -2.02273      0.08765     -0.98046
    15.93988      2.19741     -2.26070      0.08391     -0.96375
    15.95992      1.86896     -2.38561      0.08043     -0.94772
    15.97996      1.56220     -2.41625      0.07719     -0.93232
    16.00000      1.29995     -2.38480      0.07417     -0.91750
# 
# 08/25/2018 at 16:09 YAMBO_RT @ NewLaptop [start]
# 08/25/2018 at 16:09                      [end]
#
# .-Input file : yambo.in
# | optics                         # [R OPT] Optics
# | bse                            # [R BSE] Bethe Salpeter Equation.
# | bsk                            # [R BSK] Bethe Salpeter Equation kernel
# | bss                            # [R BSS] Bethe Salpeter Equation solver
# | BoseTemp= 0.000000     eV      # Bosonic Temperature
# | BSEmod= "coupling"             # [BSE] resonant/retarded/coupling
# | BSKmod= "Hartree"              # [BSE] IP/Hartree/HF/ALDA/SEX/BSfxc
# | BSSmod= "d"                    # [BSS] (h)aydock/(d)iagonalization/(i)nversion/(t)ddft`
# | BSENGexx=  4945        RL      # [BSK] Exchange components
# | % BEnRange
# |   6.00000 | 16.00000 | eV      # [BSS] Energy range
# | %
# | % BDmRange
# |   0.10000 |  0.10000 | eV      # [BSS] Damping range
# | %
# | BEnSteps=  500                 # [BSS] Energy steps
# | % BLongDir
# | 0.1000E-4 | 0.000    | 0.000    |        # [BSS] [cc] Electric Field
# | %
# | % BSEBands
# |   1 | 10 |                     # [BSK] Bands range
# | %
