#                                                           
#                                                           
# Y88b    /   e           e    e      888~~\    ,88~-_      
#  Y88b  /   d8b         d8b  d8b     888   |  d888   \     
#   Y88b/   /Y88b       d888bdY88b    888 _/  88888    |    
#    Y8Y   /  Y88b     / Y88Y Y888b   888  \  88888    |    
#     Y   /____Y88b   /   YY   Y888b  888   |  Y888   /     
#    /   /      Y88b /          Y888b 888__/    `88_-~      
#                                                           
#                                                           
#       Version 4.3.0 Revision 15746 Hash 61e4334           
#                     MPI+SLK Build                         
#               http://www.yambo-code.org                   
#
# Absorption @ Q(1) [q->0 direction] :0.1000E-4  0.000     0.000   
#
#
# - Energies      are Teter 93(XC)
# - Wavefunctions are Teter 93(XC)
#
# - The Green`s function is Retarded -
# - Using the Length Gauge -
# - [r,Vnl] *is* included -
#
#   BSK|Identifier              :4619
#      |Dimension               :9
#      |Bands                   :1 - 10
#      |Exchange           [res]: yes
#      |Correlation        [res]: no
#      |Kernel`s coupling       : yes
#      |Exchange           [cpl]: yes
#      |Correlation        [cpl]: no
#      |W interaction is bare   : no
#      |ALDA kernel in R-space  : no
#      |RL vectors    [exchange]:4945
#      |E/h energy range    [ev]:-1.000000 - -1.000000
#      |Coupling range     [o/o]: 100.0000 -  100.0000
#
#    E/ev[1]      EPS-Im[2]    EPS-Re[3]    EPSo-Im[4]   EPSo-Re[5]
#
    6.000       0.9867E-4     1.015       0.1599E-3     1.019   
    6.020       0.9927E-4     1.015       0.1610E-3     1.019   
    6.040       0.9988E-4     1.015       0.1621E-3     1.019   
    6.060       0.1005E-3     1.015       0.1632E-3     1.019   
    6.080       0.1011E-3     1.015       0.1643E-3     1.019   
    6.100       0.1017E-3     1.015       0.1654E-3     1.019   
    6.120       0.1024E-3     1.015       0.1665E-3     1.019   
    6.140       0.1030E-3     1.015       0.1677E-3     1.019   
    6.160       0.1036E-3     1.015       0.1688E-3     1.019   
    6.180       0.1043E-3     1.015       0.1700E-3     1.019   
    6.200       0.1049E-3     1.015       0.1712E-3     1.019   
    6.220       0.1055E-3     1.015       0.1723E-3     1.019   
    6.240       0.1062E-3     1.015       0.1735E-3     1.019   
    6.261       0.1069E-3     1.015       0.1747E-3     1.019   
    6.281       0.1075E-3     1.015       0.1759E-3     1.019   
    6.301       0.1082E-3     1.015       0.1772E-3     1.020   
    6.321       0.1088E-3     1.015       0.1784E-3     1.020   
    6.341       0.1095E-3     1.015       0.1796E-3     1.020   
    6.361       0.1102E-3     1.015       0.1809E-3     1.020   
    6.381       0.1109E-3     1.015       0.1821E-3     1.020   
    6.401       0.1116E-3     1.015       0.1834E-3     1.020   
    6.421       0.1123E-3     1.015       0.1847E-3     1.020   
    6.441       0.1130E-3     1.015       0.1860E-3     1.020   
    6.461       0.1137E-3     1.015       0.1873E-3     1.020   
    6.481       0.1144E-3     1.015       0.1886E-3     1.020   
    6.501       0.1151E-3     1.015       0.1899E-3     1.020   
    6.521       0.1158E-3     1.015       0.1913E-3     1.020   
    6.541       0.1165E-3     1.015       0.1926E-3     1.020   
    6.561       0.1173E-3     1.015       0.1940E-3     1.020   
    6.581       0.1180E-3     1.015       0.1953E-3     1.020   
    6.601       0.1187E-3     1.016       0.1967E-3     1.020   
    6.621       0.1195E-3     1.016       0.1981E-3     1.020   
    6.641       0.1202E-3     1.016       0.1995E-3     1.020   
    6.661       0.1210E-3     1.016       0.2009E-3     1.020   
    6.681       0.1217E-3     1.016       0.2024E-3     1.020   
    6.701       0.1225E-3     1.016       0.2038E-3     1.020   
    6.721       0.1233E-3     1.016       0.2053E-3     1.020   
    6.741       0.1240E-3     1.016       0.2068E-3     1.020   
    6.762       0.1248E-3     1.016       0.2082E-3     1.020   
    6.782       0.1256E-3     1.016       0.2097E-3     1.020   
    6.802       0.1264E-3     1.016       0.2113E-3     1.020   
    6.822       0.1272E-3     1.016       0.2128E-3     1.021   
    6.842       0.1280E-3     1.016       0.2143E-3     1.021   
    6.862       0.1288E-3     1.016       0.2159E-3     1.021   
    6.882       0.1297E-3     1.016       0.2174E-3     1.021   
    6.902       0.1305E-3     1.016       0.2190E-3     1.021   
    6.922       0.1313E-3     1.016       0.2206E-3     1.021   
    6.942       0.1322E-3     1.016       0.2222E-3     1.021   
    6.962       0.1330E-3     1.016       0.2239E-3     1.021   
    6.982       0.1338E-3     1.016       0.2255E-3     1.021   
    7.002       0.1347E-3     1.016       0.2272E-3     1.021   
    7.022       0.1356E-3     1.016       0.2288E-3     1.021   
    7.042       0.1364E-3     1.016       0.2305E-3     1.021   
    7.062       0.1373E-3     1.016       0.2322E-3     1.021   
    7.082       0.1382E-3     1.016       0.2340E-3     1.021   
    7.102       0.1391E-3     1.016       0.2357E-3     1.021   
    7.122       0.1400E-3     1.016       0.2374E-3     1.021   
    7.142       0.1409E-3     1.016       0.2392E-3     1.021   
    7.162       0.1418E-3     1.016       0.2410E-3     1.021   
    7.182       0.1427E-3     1.016       0.2428E-3     1.021   
    7.202       0.1437E-3     1.016       0.2446E-3     1.021   
    7.222       0.1446E-3     1.016       0.2465E-3     1.021   
    7.242       0.1456E-3     1.016       0.2483E-3     1.022   
    7.263       0.1465E-3     1.016       0.2502E-3     1.022   
    7.283       0.1475E-3     1.016       0.2521E-3     1.022   
    7.303       0.1484E-3     1.016       0.2540E-3     1.022   
    7.323       0.1494E-3     1.016       0.2560E-3     1.022   
    7.343       0.1504E-3     1.017       0.2579E-3     1.022   
    7.363       0.1514E-3     1.017       0.2599E-3     1.022   
    7.383       0.1524E-3     1.017       0.2619E-3     1.022   
    7.403       0.1534E-3     1.017       0.2639E-3     1.022   
    7.423       0.1544E-3     1.017       0.2660E-3     1.022   
    7.443       0.1554E-3     1.017       0.2680E-3     1.022   
    7.463       0.1565E-3     1.017       0.2701E-3     1.022   
    7.483       0.1575E-3     1.017       0.2722E-3     1.022   
    7.503       0.1586E-3     1.017       0.2743E-3     1.022   
    7.523       0.1596E-3     1.017       0.2765E-3     1.022   
    7.543       0.1607E-3     1.017       0.2786E-3     1.022   
    7.563       0.1618E-3     1.017       0.2808E-3     1.022   
    7.583       0.1629E-3     1.017       0.2830E-3     1.022   
    7.603       0.1640E-3     1.017       0.2853E-3     1.022   
    7.623       0.1651E-3     1.017       0.2875E-3     1.023   
    7.643       0.1662E-3     1.017       0.2898E-3     1.023   
    7.663       0.1673E-3     1.017       0.2921E-3     1.023   
    7.683       0.1685E-3     1.017       0.2945E-3     1.023   
    7.703       0.1696E-3     1.017       0.2968E-3     1.023   
    7.723       0.1708E-3     1.017       0.2992E-3     1.023   
    7.743       0.1719E-3     1.017       0.3016E-3     1.023   
    7.764       0.1731E-3     1.017       0.3041E-3     1.023   
    7.784       0.1743E-3     1.017       0.3065E-3     1.023   
    7.804       0.1755E-3     1.017       0.3090E-3     1.023   
    7.824       0.1767E-3     1.017       0.3115E-3     1.023   
    7.844       0.1779E-3     1.017       0.3141E-3     1.023   
    7.864       0.1792E-3     1.017       0.3167E-3     1.023   
    7.884       0.1804E-3     1.017       0.3193E-3     1.023   
    7.904       0.1817E-3     1.017       0.3219E-3     1.023   
    7.924       0.1830E-3     1.017       0.3246E-3     1.023   
    7.944       0.1842E-3     1.018       0.3273E-3     1.024   
    7.964       0.1855E-3     1.018       0.3300E-3     1.024   
    7.984       0.1868E-3     1.018       0.3327E-3     1.024   
    8.004       0.1882E-3     1.018       0.3355E-3     1.024   
    8.024       0.1895E-3     1.018       0.3384E-3     1.024   
    8.044       0.1908E-3     1.018       0.3412E-3     1.024   
    8.064       0.1922E-3     1.018       0.3441E-3     1.024   
    8.084       0.1936E-3     1.018       0.3470E-3     1.024   
    8.104       0.1949E-3     1.018       0.3500E-3     1.024   
    8.124       0.1963E-3     1.018       0.3530E-3     1.024   
    8.144       0.1977E-3     1.018       0.3560E-3     1.024   
    8.164       0.1992E-3     1.018       0.3591E-3     1.024   
    8.184       0.2006E-3     1.018       0.3622E-3     1.024   
    8.204       0.2020E-3     1.018       0.3653E-3     1.024   
    8.224       0.2035E-3     1.018       0.3685E-3     1.024   
    8.244       0.2050E-3     1.018       0.3717E-3     1.025   
    8.265       0.2065E-3     1.018       0.3750E-3     1.025   
    8.285       0.2080E-3     1.018       0.3783E-3     1.025   
    8.305       0.2095E-3     1.018       0.3816E-3     1.025   
    8.325       0.2111E-3     1.018       0.3850E-3     1.025   
    8.345       0.2126E-3     1.018       0.3884E-3     1.025   
    8.365       0.2142E-3     1.018       0.3919E-3     1.025   
    8.385       0.2158E-3     1.018       0.3954E-3     1.025   
    8.405       0.2174E-3     1.018       0.3989E-3     1.025   
    8.425       0.2190E-3     1.018       0.4025E-3     1.025   
    8.445       0.2206E-3     1.019       0.4062E-3     1.025   
    8.465       0.2223E-3     1.019       0.4099E-3     1.025   
    8.485       0.2240E-3     1.019       0.4136E-3     1.025   
    8.505       0.2257E-3     1.019       0.4174E-3     1.026   
    8.525       0.2274E-3     1.019       0.4212E-3     1.026   
    8.545       0.2291E-3     1.019       0.4251E-3     1.026   
    8.565       0.2308E-3     1.019       0.4291E-3     1.026   
    8.585       0.2326E-3     1.019       0.4331E-3     1.026   
    8.605       0.2344E-3     1.019       0.4371E-3     1.026   
    8.625       0.2362E-3     1.019       0.4412E-3     1.026   
    8.645       0.2380E-3     1.019       0.4454E-3     1.026   
    8.665       0.2398E-3     1.019       0.4496E-3     1.026   
    8.685       0.2417E-3     1.019       0.4538E-3     1.026   
    8.705       0.2436E-3     1.019       0.4582E-3     1.026   
    8.725       0.2455E-3     1.019       0.4626E-3     1.027   
    8.745       0.2474E-3     1.019       0.4670E-3     1.027   
    8.766       0.2493E-3     1.019       0.4715E-3     1.027   
    8.786       0.2513E-3     1.019       0.4761E-3     1.027   
    8.806       0.2533E-3     1.019       0.4807E-3     1.027   
    8.826       0.2553E-3     1.019       0.4854E-3     1.027   
    8.846       0.2573E-3     1.019       0.4902E-3     1.027   
    8.866       0.2594E-3     1.020       0.4950E-3     1.027   
    8.886       0.2615E-3     1.020       0.4999E-3     1.027   
    8.906       0.2636E-3     1.020       0.5049E-3     1.027   
    8.926       0.2657E-3     1.020       0.5099E-3     1.028   
    8.946       0.2679E-3     1.020       0.5151E-3     1.028   
    8.966       0.2700E-3     1.020       0.5203E-3     1.028   
    8.986       0.2722E-3     1.020       0.5255E-3     1.028   
    9.006       0.2745E-3     1.020       0.5309E-3     1.028   
    9.026       0.2767E-3     1.020       0.5363E-3     1.028   
    9.046       0.2790E-3     1.020       0.5418E-3     1.028   
    9.066       0.2813E-3     1.020       0.5474E-3     1.028   
    9.086       0.2837E-3     1.020       0.5531E-3     1.028   
    9.106       0.2860E-3     1.020       0.5589E-3     1.028   
    9.126       0.2884E-3     1.020       0.5647E-3     1.029   
    9.146       0.2908E-3     1.020       0.5707E-3     1.029   
    9.166       0.2933E-3     1.020       0.5767E-3     1.029   
    9.186       0.2958E-3     1.020       0.5828E-3     1.029   
    9.206       0.2983E-3     1.020       0.5890E-3     1.029   
    9.226       0.3008E-3     1.021       0.5954E-3     1.029   
    9.246       0.3034E-3     1.021       0.6018E-3     1.029   
    9.267       0.3060E-3     1.021       0.6083E-3     1.029   
    9.287       0.3087E-3     1.021       0.6149E-3     1.030   
    9.307       0.3113E-3     1.021       0.6217E-3     1.030   
    9.327       0.3140E-3     1.021       0.6285E-3     1.030   
    9.347       0.3168E-3     1.021       0.6355E-3     1.030   
    9.367       0.3196E-3     1.021       0.6425E-3     1.030   
    9.387       0.3224E-3     1.021       0.6497E-3     1.030   
    9.407       0.3252E-3     1.021       0.6570E-3     1.030   
    9.427       0.3281E-3     1.021       0.6644E-3     1.030   
    9.447       0.3311E-3     1.021       0.6720E-3     1.031   
    9.467       0.3340E-3     1.021       0.6797E-3     1.031   
    9.487       0.3370E-3     1.021       0.6875E-3     1.031   
    9.507       0.3401E-3     1.021       0.6954E-3     1.031   
    9.527       0.3432E-3     1.021       0.7035E-3     1.031   
    9.547       0.3463E-3     1.022       0.7117E-3     1.031   
    9.567       0.3495E-3     1.022       0.7201E-3     1.031   
    9.587       0.3527E-3     1.022       0.7286E-3     1.032   
    9.607       0.3559E-3     1.022       0.7372E-3     1.032   
    9.627       0.3592E-3     1.022       0.7460E-3     1.032   
    9.647       0.3626E-3     1.022       0.7550E-3     1.032   
    9.667       0.3660E-3     1.022       0.7641E-3     1.032   
    9.687       0.3694E-3     1.022       0.7734E-3     1.032   
    9.707       0.3729E-3     1.022       0.7829E-3     1.032   
    9.727       0.3765E-3     1.022       0.7925E-3     1.033   
    9.747       0.3801E-3     1.022       0.8023E-3     1.033   
    9.768       0.3837E-3     1.022       0.8123E-3     1.033   
    9.788       0.3874E-3     1.022       0.8225E-3     1.033   
    9.808       0.3912E-3     1.023       0.8329E-3     1.033   
    9.828       0.3950E-3     1.023       0.8435E-3     1.033   
    9.848       0.3988E-3     1.023       0.8542E-3     1.034   
    9.868       0.4027E-3     1.023       0.8652E-3     1.034   
    9.888       0.4067E-3     1.023       0.8764E-3     1.034   
    9.908       0.4108E-3     1.023       0.8878E-3     1.034   
    9.928       0.4149E-3     1.023       0.8995E-3     1.034   
    9.948       0.4190E-3     1.023       0.9113E-3     1.034   
    9.968       0.4232E-3     1.023       0.9234E-3     1.035   
    9.988       0.4275E-3     1.023       0.9358E-3     1.035   
    10.01       0.4319E-3     1.023       0.9483E-3     1.035   
    10.03       0.4363E-3     1.023       0.9612E-3     1.035   
    10.05       0.4408E-3     1.024       0.9743E-3     1.035   
    10.07       0.4454E-3     1.024       0.9877E-3     1.036   
    10.09       0.4500E-3     1.024       0.1001E-2     1.036   
    10.11       0.4547E-3     1.024       0.1015E-2     1.036   
    10.13       0.4595E-3     1.024       0.1030E-2     1.036   
    10.15       0.4644E-3     1.024       0.1044E-2     1.036   
    10.17       0.4693E-3     1.024       0.1059E-2     1.037   
    10.19       0.4743E-3     1.024       0.1074E-2     1.037   
    10.21       0.4794E-3     1.024       0.1090E-2     1.037   
    10.23       0.4846E-3     1.024       0.1105E-2     1.037   
    10.25       0.4899E-3     1.024       0.1122E-2     1.038   
    10.27       0.4953E-3     1.025       0.1138E-2     1.038   
    10.29       0.5007E-3     1.025       0.1155E-2     1.038   
    10.31       0.5063E-3     1.025       0.1172E-2     1.038   
    10.33       0.5119E-3     1.025       0.1190E-2     1.038   
    10.35       0.5177E-3     1.025       0.1208E-2     1.039   
    10.37       0.5235E-3     1.025       0.1227E-2     1.039   
    10.39       0.5294E-3     1.025       0.1246E-2     1.039   
    10.41       0.5355E-3     1.025       0.1265E-2     1.039   
    10.43       0.5417E-3     1.025       0.1285E-2     1.040   
    10.45       0.5479E-3     1.025       0.1305E-2     1.040   
    10.47       0.5543E-3     1.026       0.1326E-2     1.040   
    10.49       0.5608E-3     1.026       0.1348E-2     1.040   
    10.51       0.5674E-3     1.026       0.1369E-2     1.041   
    10.53       0.5742E-3     1.026       0.1392E-2     1.041   
    10.55       0.5810E-3     1.026       0.1415E-2     1.041   
    10.57       0.5880E-3     1.026       0.1438E-2     1.042   
    10.59       0.5951E-3     1.026       0.1463E-2     1.042   
    10.61       0.6024E-3     1.026       0.1487E-2     1.042   
    10.63       0.6098E-3     1.027       0.1513E-2     1.042   
    10.65       0.6173E-3     1.027       0.1539E-2     1.043   
    10.67       0.6250E-3     1.027       0.1566E-2     1.043   
    10.69       0.6328E-3     1.027       0.1593E-2     1.043   
    10.71       0.6408E-3     1.027       0.1621E-2     1.044   
    10.73       0.6490E-3     1.027       0.1650E-2     1.044   
    10.75       0.6573E-3     1.027       0.1680E-2     1.044   
    10.77       0.6658E-3     1.027       0.1711E-2     1.045   
    10.79       0.6744E-3     1.028       0.1742E-2     1.045   
    10.81       0.6833E-3     1.028       0.1775E-2     1.045   
    10.83       0.6923E-3     1.028       0.1808E-2     1.046   
    10.85       0.7015E-3     1.028       0.1842E-2     1.046   
    10.87       0.7109E-3     1.028       0.1878E-2     1.046   
    10.89       0.7205E-3     1.028       0.1914E-2     1.047   
    10.91       0.7303E-3     1.028       0.1951E-2     1.047   
    10.93       0.7403E-3     1.029       0.1990E-2     1.048   
    10.95       0.7506E-3     1.029       0.2030E-2     1.048   
    10.97       0.7610E-3     1.029       0.2071E-2     1.048   
    10.99       0.7717E-3     1.029       0.2113E-2     1.049   
    11.01       0.7826E-3     1.029       0.2156E-2     1.049   
    11.03       0.7938E-3     1.029       0.2201E-2     1.050   
    11.05       0.8053E-3     1.029       0.2248E-2     1.050   
    11.07       0.8170E-3     1.030       0.2296E-2     1.051   
    11.09       0.8289E-3     1.030       0.2345E-2     1.051   
    11.11       0.8412E-3     1.030       0.2396E-2     1.052   
    11.13       0.8537E-3     1.030       0.2449E-2     1.052   
    11.15       0.8666E-3     1.030       0.2504E-2     1.053   
    11.17       0.8797E-3     1.030       0.2560E-2     1.053   
    11.19       0.8932E-3     1.031       0.2619E-2     1.054   
    11.21       0.9070E-3     1.031       0.2679E-2     1.054   
    11.23       0.9211E-3     1.031       0.2742E-2     1.055   
    11.25       0.9357E-3     1.031       0.2807E-2     1.055   
    11.27       0.9505E-3     1.031       0.2874E-2     1.056   
    11.29       0.9658E-3     1.032       0.2944E-2     1.056   
    11.31       0.9814E-3     1.032       0.3017E-2     1.057   
    11.33       0.9975E-3     1.032       0.3092E-2     1.058   
    11.35       0.1014E-2     1.032       0.3171E-2     1.058   
    11.37       0.1031E-2     1.032       0.3252E-2     1.059   
    11.39       0.1048E-2     1.033       0.3336E-2     1.059   
    11.41       0.1066E-2     1.033       0.3424E-2     1.060   
    11.43       0.1084E-2     1.033       0.3516E-2     1.061   
    11.45       0.1103E-2     1.033       0.3612E-2     1.061   
    11.47       0.1123E-2     1.033       0.3711E-2     1.062   
    11.49       0.1143E-2     1.034       0.3815E-2     1.063   
    11.51       0.1163E-2     1.034       0.3923E-2     1.064   
    11.53       0.1184E-2     1.034       0.4036E-2     1.065   
    11.55       0.1206E-2     1.034       0.4154E-2     1.065   
    11.57       0.1228E-2     1.035       0.4277E-2     1.066   
    11.59       0.1251E-2     1.035       0.4407E-2     1.067   
    11.61       0.1275E-2     1.035       0.4542E-2     1.068   
    11.63       0.1300E-2     1.035       0.4683E-2     1.069   
    11.65       0.1325E-2     1.036       0.4832E-2     1.070   
    11.67       0.1351E-2     1.036       0.4988E-2     1.071   
    11.69       0.1378E-2     1.036       0.5152E-2     1.072   
    11.71       0.1406E-2     1.036       0.5324E-2     1.073   
    11.73       0.1434E-2     1.037       0.5505E-2     1.074   
    11.75       0.1464E-2     1.037       0.5695E-2     1.075   
    11.77       0.1495E-2     1.037       0.5896E-2     1.076   
    11.79       0.1526E-2     1.038       0.6108E-2     1.077   
    11.81       0.1559E-2     1.038       0.6332E-2     1.079   
    11.83       0.1593E-2     1.038       0.6569E-2     1.080   
    11.85       0.1628E-2     1.039       0.6819E-2     1.081   
    11.87       0.1665E-2     1.039       0.7085E-2     1.082   
    11.89       0.1702E-2     1.039       0.7366E-2     1.084   
    11.91       0.1742E-2     1.040       0.7665E-2     1.085   
    11.93       0.1782E-2     1.040       0.7983E-2     1.087   
    11.95       0.1824E-2     1.040       0.8321E-2     1.088   
    11.97       0.1868E-2     1.041       0.8682E-2     1.090   
    11.99       0.1914E-2     1.041       0.9067E-2     1.092   
    12.01       0.1961E-2     1.041       0.9479E-2     1.094   
    12.03       0.2010E-2     1.042       0.9920E-2     1.096   
    12.05       0.2062E-2     1.042       0.1039E-1     1.098   
    12.07       0.2115E-2     1.043       0.1090E-1     1.100   
    12.09       0.2171E-2     1.043       0.1145E-1     1.102   
    12.11       0.2229E-2     1.043       0.1204E-1     1.104   
    12.13       0.2290E-2     1.044       0.1267E-1     1.106   
    12.15       0.2353E-2     1.044       0.1336E-1     1.109   
    12.17       0.2419E-2     1.045       0.1411E-1     1.112   
    12.19       0.2489E-2     1.045       0.1493E-1     1.114   
    12.21       0.2562E-2     1.046       0.1581E-1     1.117   
    12.23       0.2638E-2     1.046       0.1678E-1     1.120   
    12.25       0.2717E-2     1.047       0.1784E-1     1.124   
    12.27       0.2801E-2     1.047       0.1901E-1     1.127   
    12.29       0.2889E-2     1.048       0.2029E-1     1.131   
    12.31       0.2982E-2     1.049       0.2171E-1     1.135   
    12.33       0.3079E-2     1.049       0.2329E-1     1.139   
    12.35       0.3182E-2     1.050       0.2504E-1     1.144   
    12.37       0.3290E-2     1.050       0.2700E-1     1.149   
    12.39       0.3404E-2     1.051       0.2920E-1     1.154   
    12.41       0.3525E-2     1.052       0.3168E-1     1.159   
    12.43       0.3653E-2     1.052       0.3448E-1     1.165   
    12.45       0.3788E-2     1.053       0.3767E-1     1.172   
    12.47       0.3932E-2     1.054       0.4132E-1     1.179   
    12.49       0.4084E-2     1.055       0.4551E-1     1.186   
    12.51       0.4246E-2     1.056       0.5037E-1     1.195   
    12.53       0.4419E-2     1.056       0.5603E-1     1.204   
    12.55       0.4602E-2     1.057       0.6268E-1     1.213   
    12.57       0.4799E-2     1.058       0.7054E-1     1.224   
    12.59       0.5009E-2     1.059       0.7992E-1     1.236   
    12.61       0.5234E-2     1.060       0.9121E-1     1.249   
    12.63       0.5476E-2     1.061       0.1049        1.263   
    12.65       0.5735E-2     1.062       0.1217        1.278   
    12.67       0.6015E-2     1.063       0.1426        1.294   
    12.69       0.6316E-2     1.065       0.1686        1.311   
    12.71       0.6643E-2     1.066       0.2014        1.328   
    12.73       0.6996E-2     1.067       0.2429        1.343   
    12.75       0.7380E-2     1.069       0.2954        1.354   
    12.77       0.7798E-2     1.070       0.3606        1.356   
    12.79       0.8254E-2     1.072       0.4388        1.341   
    12.81       0.8753E-2     1.073       0.5254        1.300   
    12.83       0.9301E-2     1.075       0.6072        1.222   
    12.85       0.9904E-2     1.077       0.6626        1.108   
    12.87       0.1057E-1     1.079       0.6709       0.9746   
    12.89       0.1131E-1     1.081       0.6285       0.8519   
    12.91       0.1213E-1     1.083       0.5524       0.7620   
    12.93387      0.01304      1.08531      0.46545      0.70992
    12.95391      0.01407      1.08782      0.38386      0.68803
    12.97395      0.01522      1.09050      0.31447      0.68578
    12.99399      0.01653      1.09339      0.25823      0.69464
    13.01403      0.01801      1.09650      0.21356      0.70901
    13.03407      0.01971      1.09986      0.17829      0.72559
    13.05411      0.02165      1.10350      0.15035      0.74259
    13.07415      0.02390      1.10745      0.12807      0.75907
    13.09419      0.02652      1.11174      0.11015      0.77460
    13.11423      0.02959      1.11642      0.09558      0.78900
    13.13427      0.03322      1.12152      0.08364      0.80226
    13.15431      0.03754      1.12709      0.07374      0.81442
    13.17435      0.04274      1.13317      0.06548      0.82556
    13.19439      0.04904      1.13979      0.05852      0.83576
    13.21443      0.05675      1.14695      0.05261      0.84511
    13.23447      0.06629      1.15461      0.04755      0.85371
    13.25451      0.07821      1.16263      0.04320      0.86163
    13.27455      0.09320      1.17070      0.03943      0.86894
    13.29459      0.11217      1.17818      0.03614      0.87571
    13.31463      0.13614      1.18387      0.03326      0.88199
    13.33467      0.16606      1.18567      0.03073      0.88784
    13.35471      0.20217      1.18019      0.02849      0.89329
    13.37475      0.24271      1.16273      0.02650      0.89839
    13.39479      0.28215      1.12863      0.02473      0.90317
    13.41483      0.31064      1.07700      0.02315      0.90766
    13.43487      0.31792      1.01483      0.02173      0.91189
    13.45491      0.30092      0.95564      0.02045      0.91588
    13.47495      0.26654      0.91096      0.01930      0.91966
    13.49499      0.22569      0.88422      0.01826      0.92324
    13.51503      0.18661      0.87238      0.01731      0.92665
    13.53507      0.15305      0.87046      0.01646      0.92989
    13.55511      0.12572      0.87424      0.01568      0.93298
    13.57515      0.10398      0.88091      0.01497      0.93594
    13.59519      0.08682      0.88879      0.01432      0.93877
    13.61523      0.07323      0.89695      0.01373      0.94149
    13.64       0.6241E-1    0.9049       0.1319E-1    0.9441   
    13.66       0.5372E-1    0.9125       0.1269E-1    0.9466   
    13.68       0.4667E-1    0.9195       0.1224E-1    0.9490   
    13.70       0.4090E-1    0.9259       0.1183E-1    0.9514   
    13.72       0.3613E-1    0.9319       0.1146E-1    0.9537   
    13.74       0.3215E-1    0.9374       0.1112E-1    0.9559   
    13.76       0.2880E-1    0.9424       0.1081E-1    0.9580   
    13.78       0.2597E-1    0.9470       0.1052E-1    0.9601   
    13.80       0.2355E-1    0.9513       0.1027E-1    0.9621   
    13.82       0.2147E-1    0.9552       0.1004E-1    0.9641   
    13.84       0.1967E-1    0.9589       0.9833E-2    0.9661   
    13.86       0.1810E-1    0.9623       0.9651E-2    0.9680   
    13.88       0.1674E-1    0.9654       0.9490E-2    0.9699   
    13.90       0.1554E-1    0.9684       0.9350E-2    0.9717   
    13.92       0.1448E-1    0.9712       0.9231E-2    0.9736   
    13.94       0.1354E-1    0.9738       0.9131E-2    0.9754   
    13.96       0.1271E-1    0.9762       0.9051E-2    0.9772   
    13.98       0.1197E-1    0.9786       0.8990E-2    0.9789   
    14.00       0.1131E-1    0.9808       0.8948E-2    0.9807   
    14.02       0.1071E-1    0.9829       0.8925E-2    0.9825   
    14.04       0.1018E-1    0.9849       0.8922E-2    0.9842   
    14.06       0.9699E-2    0.9868       0.8937E-2    0.9860   
    14.08       0.9267E-2    0.9886       0.8973E-2    0.9877   
    14.10       0.8876E-2    0.9903       0.9029E-2    0.9895   
    14.12       0.8523E-2    0.9920       0.9106E-2    0.9913   
    14.14       0.8203E-2    0.9936       0.9205E-2    0.9931   
    14.16       0.7915E-2    0.9952       0.9328E-2    0.9949   
    14.18       0.7653E-2    0.9967       0.9475E-2    0.9967   
    14.20       0.7417E-2    0.9982       0.9648E-2    0.9986   
    14.22       0.7203E-2    0.9996       0.9850E-2     1.001   
    14.24       0.7011E-2     1.001       0.1008E-1     1.002   
    14.26       0.6837E-2     1.002       0.1035E-1     1.004   
    14.28       0.6681E-2     1.004       0.1065E-1     1.006   
    14.30       0.6542E-2     1.005       0.1099E-1     1.009   
    14.32       0.6418E-2     1.006       0.1137E-1     1.011   
    14.34       0.6308E-2     1.008       0.1180E-1     1.013   
    14.36       0.6211E-2     1.009       0.1228E-1     1.015   
    14.38       0.6127E-2     1.010       0.1283E-1     1.018   
    14.40       0.6055E-2     1.011       0.1344E-1     1.020   
    14.42       0.5994E-2     1.012       0.1412E-1     1.023   
    14.44       0.5944E-2     1.014       0.1490E-1     1.026   
    14.46       0.5905E-2     1.015       0.1577E-1     1.028   
    14.48       0.5875E-2     1.016       0.1676E-1     1.031   
    14.50       0.5856E-2     1.017       0.1788E-1     1.035   
    14.52       0.5846E-2     1.018       0.1915E-1     1.038   
    14.54       0.5845E-2     1.019       0.2060E-1     1.042   
    14.56       0.5853E-2     1.020       0.2227E-1     1.046   
    14.58       0.5871E-2     1.022       0.2419E-1     1.050   
    14.60       0.5897E-2     1.023       0.2641E-1     1.054   
    14.62       0.5933E-2     1.024       0.2899E-1     1.059   
    14.64       0.5978E-2     1.025       0.3202E-1     1.064   
    14.66       0.6032E-2     1.026       0.3559E-1     1.070   
    14.68       0.6095E-2     1.028       0.3983E-1     1.076   
    14.70       0.6168E-2     1.029       0.4491E-1     1.083   
    14.72       0.6251E-2     1.030       0.5105E-1     1.090   
    14.74       0.6344E-2     1.031       0.5854E-1     1.098   
    14.76       0.6448E-2     1.032       0.6775E-1     1.106   
    14.78       0.6562E-2     1.034       0.7919E-1     1.115   
    14.80       0.6688E-2     1.035       0.9354E-1     1.124   
    14.82       0.6826E-2     1.036       0.1116        1.133   
    14.84       0.6977E-2     1.038       0.1346        1.141   
    14.86       0.7140E-2     1.039       0.1635        1.146   
    14.88       0.7318E-2     1.041       0.1993        1.146   
    14.90       0.7511E-2     1.042       0.2417        1.136   
    14.92       0.7719E-2     1.044       0.2875        1.111   
    14.94       0.7945E-2     1.045       0.3287        1.066   
    14.96       0.8189E-2     1.047       0.3533        1.003   
    14.98       0.8452E-2     1.048       0.3517       0.9329   
    15.00       0.8737E-2     1.050       0.3247       0.8714   
    15.02       0.9044E-2     1.052       0.2824       0.8286   
    15.04       0.9376E-2     1.054       0.2366       0.8051   
    15.06       0.9735E-2     1.055       0.1948       0.7964   
    15.08       0.1012E-1     1.057       0.1597       0.7969   
    15.10       0.1054E-1     1.059       0.1314       0.8026   
    15.12       0.1100E-1     1.061       0.1090       0.8107   
    15.14       0.1150E-1     1.064       0.9131E-1    0.8197   
    15.16       0.1203E-1     1.066       0.7726E-1    0.8288   
    15.18       0.1262E-1     1.068       0.6602E-1    0.8375   
    15.20       0.1326E-1     1.071       0.5696E-1    0.8457   
    15.22       0.1395E-1     1.073       0.4958E-1    0.8533   
    15.24       0.1471E-1     1.076       0.4350E-1    0.8603   
    15.25852      0.01555      1.07906      0.03846      0.86669
    15.27856      0.01647      1.08212      0.03423      0.87256
    15.29860      0.01748      1.08535      0.03066      0.87795
    15.31864      0.01859      1.08877      0.02761      0.88289
    15.33868      0.01983      1.09239      0.02500      0.88744
    15.35872      0.02120      1.09625      0.02275      0.89163
    15.37876      0.02273      1.10035      0.02079      0.89550
    15.39880      0.02444      1.10474      0.01907      0.89909
    15.41884      0.02636      1.10942      0.01757      0.90242
    15.43888      0.02853      1.11445      0.01623      0.90552
    15.46       0.3098E-1     1.120       0.1505E-1    0.9084   
    15.48       0.3377E-1     1.126       0.1400E-1    0.9111   
    15.50       0.3696E-1     1.132       0.1305E-1    0.9136   
    15.52       0.4063E-1     1.139       0.1220E-1    0.9160   
    15.54       0.4488E-1     1.146       0.1144E-1    0.9182   
    15.56       0.4983E-1     1.154       0.1074E-1    0.9204   
    15.58       0.5563E-1     1.163       0.1011E-1    0.9223   
    15.60       0.6248E-1     1.173       0.9539E-2    0.9242   
    15.62       0.7065E-1     1.183       0.9015E-2    0.9260   
    15.64       0.8046E-1     1.195       0.8535E-2    0.9277   
    15.66       0.9237E-1     1.207       0.8093E-2    0.9293   
    15.68       0.1069        1.220       0.7687E-2    0.9308   
    15.70       0.1250        1.235       0.7312E-2    0.9323   
    15.72       0.1475        1.250       0.6966E-2    0.9336   
    15.74       0.1758        1.265       0.6645E-2    0.9350   
    15.76       0.2116        1.280       0.6346E-2    0.9362   
    15.78       0.2569        1.291       0.6069E-2    0.9374   
    15.80       0.3135        1.295       0.5810E-2    0.9386   
    15.82       0.3820        1.285       0.5569E-2    0.9397   
    15.84       0.4596        1.254       0.5343E-2    0.9408   
    15.86       0.5361        1.190       0.5131E-2    0.9418   
    15.88       0.5932        1.093       0.4933E-2    0.9428   
    15.90       0.6106       0.9738       0.4747E-2    0.9437   
    15.92       0.5811       0.8584       0.4571E-2    0.9447   
    15.94       0.5167       0.7697       0.4406E-2    0.9455   
    15.96       0.4383       0.7155       0.4250E-2    0.9464   
    15.98       0.3626       0.6906       0.4103E-2    0.9472   
    16.00       0.2971       0.6855       0.3964E-2    0.9480   
# 
# 08/25/2018 at 16:09 YAMBO_RT @ NewLaptop [start]
# 08/25/2018 at 16:09                      [end]
#
# .-Input file : yambo.in
# | optics                         # [R OPT] Optics
# | bse                            # [R BSE] Bethe Salpeter Equation.
# | bsk                            # [R BSK] Bethe Salpeter Equation kernel
# | bss                            # [R BSS] Bethe Salpeter Equation solver
# | BoseTemp= 0.000000     eV      # Bosonic Temperature
# | BSEmod= "coupling"             # [BSE] resonant/retarded/coupling
# | BSKmod= "Hartree"              # [BSE] IP/Hartree/HF/ALDA/SEX/BSfxc
# | BSSmod= "d"                    # [BSS] (h)aydock/(d)iagonalization/(i)nversion/(t)ddft`
# | BSENGexx=  4945        RL      # [BSK] Exchange components
# | % BEnRange
# |   6.00000 | 16.00000 | eV      # [BSS] Energy range
# | %
# | % BDmRange
# |   0.10000 |  0.10000 | eV      # [BSS] Damping range
# | %
# | BEnSteps=  500                 # [BSS] Energy steps
# | % BLongDir
# | 0.1000E-4 | 0.000    | 0.000    |        # [BSS] [cc] Electric Field
# | %
# | % BSEBands
# |   1 | 10 |                     # [BSK] Bands range
# | %
