#                                                           
#  __  __   ________   ___ __ __    _______   ______        
# /_/\/_/\ /_______/\ /__//_//_/\ /_______/\ /_____/\       
# \ \ \ \ \\::: _  \ \\::\| \| \ \\::: _  \ \\:::_ \ \      
#  \:\_\ \ \\::(_)  \ \\:.      \ \\::(_)  \/_\:\ \ \ \     
#   \::::_\/ \:: __  \ \\:.\-/\  \ \\::  _  \ \\:\ \ \ \    
#     \::\ \  \:.\ \  \ \\. \  \  \ \\::(_)  \ \\:\_\ \ \   
#      \__\/   \__\/\__\/ \__\/ \__\/ \_______\/ \_____\/   
#                                                           
#                                                           
#        Version 4.3.0 Revision 15624 Hash 7ed12fb          
#                      MPI+SLK Build                        
#                http://www.yambo-code.org                  
#
# Absorption @ Q(1) [q->0 direction] :0.1000E-4  0.000     0.000   
#
#
# - Energies      are  E < ./02_QP_PPA/ndb.QP + E Fit
# - Wavefunctions are Teter 93(XC)
#
# - The Green`s function is Retarded -
# - Using the Length Gauge -
# - [r,Vnl] *is* included -
#
#   BSK|Identifier              :7603
#      |Dimension               :512
#      |Bands                   :3 - 5
#      |Exchange           [res]: yes
#      |Correlation        [res]: yes
#      |Kernel`s coupling       : no
#      |Exchange           [cpl]: no
#      |Correlation        [cpl]: no
#      |W interaction is bare   : no
#      |ALDA kernel in R-space  : no
#      |RL vectors    [exchange]:749
#      |RL vectors [correlation]:51
#      |E/h energy range    [ev]:-1.000000 - -1.000000
#      |Coupling range     [o/o]: 100.0000 -  100.0000
#    W |Interaction is diagonal : no
#      |Matrix size             :51
#      |Bands                   :1 - 10
#      |e/h energy range    [ev]:-1.000000 - -1.000000
#      |Poles              [o/o]: 100.0000
#      |RL vectors in the sum   :749
#      |[r,Vnl] included        : yes
#      |Field direction         :0.1000E-4  0.000000  0.000000
#      |Coulomb Cutoff          :none
#      |xc-Kernel               :none
#   RIM|RL components      [col]:0
#      |Random points      [col]:0
#  
#   Haydock|Accuracy (requested) [o/o]:   0.0050
#          |Accuracy (reached)   [o/o]:   0.0012
#          |Iteration                 :32
#
#    E/ev[1]      EPS-Im[2]    EPS-Re[3]    EPSo-Im[4]   EPSo-Re[5]   EPS`-Im[6]   EPS`-Re[7]
#
    7.500       0.6757E-2     1.549       0.2364E-2     1.369       0.6757E-2     1.549   
    7.559       0.6961E-2     1.553       0.2417E-2     1.370       0.6961E-2     1.553   
    7.617       0.7171E-2     1.557       0.2472E-2     1.372       0.7171E-2     1.557   
    7.676       0.7389E-2     1.561       0.2528E-2     1.373       0.7389E-2     1.561   
    7.734       0.7615E-2     1.565       0.2585E-2     1.375       0.7615E-2     1.565   
    7.793       0.7849E-2     1.570       0.2643E-2     1.376       0.7849E-2     1.570   
    7.851       0.8091E-2     1.574       0.2703E-2     1.378       0.8091E-2     1.574   
    7.910       0.8343E-2     1.579       0.2764E-2     1.379       0.8343E-2     1.579   
    7.968       0.8604E-2     1.583       0.2826E-2     1.381       0.8604E-2     1.583   
    8.027       0.8875E-2     1.588       0.2890E-2     1.382       0.8875E-2     1.588   
    8.085       0.9156E-2     1.593       0.2955E-2     1.384       0.9156E-2     1.593   
    8.144       0.9448E-2     1.598       0.3022E-2     1.386       0.9448E-2     1.598   
    8.202       0.9751E-2     1.603       0.3090E-2     1.387       0.9751E-2     1.603   
    8.261       0.1007E-1     1.609       0.3160E-2     1.389       0.1007E-1     1.609   
    8.319       0.1040E-1     1.614       0.3232E-2     1.391       0.1040E-1     1.614   
    8.378       0.1074E-1     1.620       0.3305E-2     1.392       0.1074E-1     1.620   
    8.436       0.1109E-1     1.626       0.3380E-2     1.394       0.1109E-1     1.626   
    8.495       0.1146E-1     1.632       0.3457E-2     1.396       0.1146E-1     1.632   
    8.554       0.1185E-1     1.638       0.3536E-2     1.398       0.1185E-1     1.638   
    8.612       0.1225E-1     1.644       0.3617E-2     1.400       0.1225E-1     1.644   
    8.671       0.1267E-1     1.650       0.3699E-2     1.402       0.1267E-1     1.650   
    8.729       0.1311E-1     1.657       0.3784E-2     1.403       0.1311E-1     1.657   
    8.788       0.1357E-1     1.664       0.3871E-2     1.405       0.1357E-1     1.664   
    8.846       0.1405E-1     1.671       0.3960E-2     1.407       0.1405E-1     1.671   
    8.905       0.1455E-1     1.678       0.4052E-2     1.409       0.1455E-1     1.678   
    8.963       0.1507E-1     1.685       0.4145E-2     1.412       0.1507E-1     1.685   
    9.022       0.1562E-1     1.693       0.4242E-2     1.414       0.1562E-1     1.693   
    9.080       0.1620E-1     1.701       0.4340E-2     1.416       0.1620E-1     1.701   
    9.139       0.1680E-1     1.709       0.4442E-2     1.418       0.1680E-1     1.709   
    9.197       0.1744E-1     1.718       0.4546E-2     1.420       0.1744E-1     1.718   
    9.256       0.1810E-1     1.726       0.4652E-2     1.422       0.1810E-1     1.726   
    9.314       0.1880E-1     1.735       0.4762E-2     1.425       0.1880E-1     1.735   
    9.373       0.1954E-1     1.744       0.4874E-2     1.427       0.1954E-1     1.744   
    9.431       0.2031E-1     1.754       0.4990E-2     1.429       0.2031E-1     1.754   
    9.490       0.2113E-1     1.764       0.5109E-2     1.432       0.2113E-1     1.764   
    9.548       0.2199E-1     1.774       0.5231E-2     1.434       0.2199E-1     1.774   
    9.607       0.2290E-1     1.785       0.5356E-2     1.437       0.2290E-1     1.785   
    9.666       0.2386E-1     1.796       0.5485E-2     1.439       0.2386E-1     1.796   
    9.724       0.2488E-1     1.807       0.5618E-2     1.442       0.2488E-1     1.807   
    9.783       0.2596E-1     1.819       0.5755E-2     1.444       0.2596E-1     1.819   
    9.841       0.2710E-1     1.831       0.5895E-2     1.447       0.2710E-1     1.831   
    9.900       0.2832E-1     1.844       0.6040E-2     1.450       0.2832E-1     1.844   
    9.958       0.2961E-1     1.857       0.6189E-2     1.453       0.2961E-1     1.857   
    10.02       0.3098E-1     1.871       0.6342E-2     1.456       0.3098E-1     1.871   
    10.08       0.3244E-1     1.885       0.6500E-2     1.458       0.3244E-1     1.885   
    10.13       0.3401E-1     1.900       0.6663E-2     1.461       0.3401E-1     1.900   
    10.19       0.3567E-1     1.915       0.6831E-2     1.464       0.3567E-1     1.915   
    10.25       0.3746E-1     1.932       0.7004E-2     1.468       0.3746E-1     1.932   
    10.31       0.3938E-1     1.948       0.7182E-2     1.471       0.3938E-1     1.948   
    10.37       0.4143E-1     1.966       0.7367E-2     1.474       0.4143E-1     1.966   
    10.43       0.4364E-1     1.985       0.7557E-2     1.477       0.4364E-1     1.985   
    10.48       0.4603E-1     2.004       0.7753E-2     1.481       0.4603E-1     2.004   
    10.54       0.4860E-1     2.025       0.7956E-2     1.484       0.4860E-1     2.025   
    10.60       0.5139E-1     2.046       0.8165E-2     1.487       0.5139E-1     2.046   
    10.66       0.5441E-1     2.069       0.8381E-2     1.491       0.5441E-1     2.069   
    10.72       0.5770E-1     2.093       0.8605E-2     1.495       0.5770E-1     2.093   
    10.78       0.6127E-1     2.118       0.8837E-2     1.498       0.6127E-1     2.118   
    10.84       0.6518E-1     2.144       0.9076E-2     1.502       0.6518E-1     2.144   
    10.89       0.6947E-1     2.172       0.9324E-2     1.506       0.6947E-1     2.172   
    10.95       0.7418E-1     2.202       0.9581E-2     1.510       0.7418E-1     2.202   
    11.01       0.7937E-1     2.234       0.9847E-2     1.514       0.7937E-1     2.234   
    11.07       0.8511E-1     2.268       0.1012E-1     1.518       0.8511E-1     2.268   
    11.13       0.9148E-1     2.304       0.1041E-1     1.522       0.9148E-1     2.304   
    11.19       0.9857E-1     2.342       0.1071E-1     1.527       0.9857E-1     2.342   
    11.25       0.1065        2.383       0.1101E-1     1.531       0.1065        2.383   
    11.30435      0.11545      2.42785      0.01133      1.53580      0.11545      2.42785
    11.36288      0.12553      2.47576      0.01167      1.54046      0.12553      2.47576
    11.42140      0.13699      2.52760      0.01201      1.54525      0.13699      2.52760
    11.47993      0.15007      2.58386      0.01237      1.55015      0.15007      2.58386
    11.53846      0.16511      2.64516      0.01275      1.55518      0.16511      2.64516
    11.59699      0.18251      2.71223      0.01314      1.56033      0.18251      2.71223
    11.65552      0.20281      2.78591      0.01355      1.56563      0.20281      2.78591
    11.71405      0.22668      2.86726      0.01397      1.57105      0.22668      2.86726
    11.77257      0.25502      2.95753      0.01441      1.57663      0.25502      2.95753
    11.83110      0.28901      3.05829      0.01488      1.58236      0.28901      3.05829
    11.88963      0.33027      3.17144      0.01536      1.58824      0.33027      3.17144
    11.94816      0.38099      3.29939      0.01587      1.59429      0.38099      3.29939
    12.00669      0.44430      3.44510      0.01640      1.60052      0.44430      3.44510
    12.06522      0.52466      3.61235      0.01696      1.60692      0.52466      3.61235
    12.12375      0.62863      3.80582      0.01754      1.61351      0.62863      3.80582
    12.18227      0.76618      4.03130      0.01816      1.62030      0.76618      4.03130
    12.24080      0.95281      4.29561      0.01880      1.62730      0.95281      4.29561
    12.29933      1.21343      4.60579      0.01948      1.63451      1.21343      4.60579
    12.35786      1.58914      4.96601      0.02020      1.64196      1.58914      4.96601
    12.41639      2.14891      5.36768      0.02095      1.64964      2.14891      5.36768
    12.47492      3.00567      5.75996      0.02175      1.65758      3.00567      5.75996
    12.53344      4.31689      5.96960      0.02259      1.66579      4.31689      5.96960
    12.59197      6.15674      5.54133      0.02349      1.67428      6.15674      5.54133
    12.65050      7.99132      3.76485      0.02444      1.68307      7.99132      3.76485
    12.70903      8.35726      0.83265      0.02545      1.69218      8.35726      0.83265
    12.76756      6.87283     -1.44662      0.02653      1.70163      6.87283     -1.44662
    12.82609      4.95884     -2.25656      0.02768      1.71143      4.95884     -2.25656
    12.88461      3.49178     -2.19933      0.02890      1.72162      3.49178     -2.19933
    12.94314      2.51938     -1.84158      0.03022      1.73221      2.51938     -1.84158
    13.00167      1.88970     -1.42728      0.03163      1.74324      1.88970     -1.42728
    13.06020      1.47615     -1.03535      0.03316      1.75475      1.47615     -1.03535
    13.11873      1.19899     -0.68401      0.03480      1.76675      1.19899     -0.68401
    13.17726      1.01085     -0.37175      0.03659      1.77929      1.01085     -0.37175
    13.23579      0.88372     -0.09160      0.03853      1.79243      0.88372     -0.09160
    13.29431      0.80113      0.16428      0.04064      1.80620      0.80113      0.16428
    13.35284      0.75376      0.40330      0.04296      1.82066      0.75376      0.40330
    13.41137      0.73725      0.63220      0.04551      1.83589      0.73725      0.63220
    13.46990      0.75125      0.85713      0.04833      1.85194      0.75125      0.85713
    13.52843      0.79947      1.08366      0.05147      1.86891      0.79947      1.08366
    13.58696      0.89074      1.31639      0.05499      1.88689      0.89074      1.31639
    13.64548      1.04137      1.55741      0.05894      1.90600      1.04137      1.55741
    13.70401      1.27907      1.80172      0.06344      1.92637      1.27907      1.80172
    13.76254      1.64736      2.02481      0.06858      1.94816      1.64736      2.02481
    13.82107      2.20138      2.15277      0.07453      1.97157      2.20138      2.15277
    13.87960      2.95540      2.01179      0.08147      1.99679      2.95540      2.01179
    13.93813      3.70926      1.35112      0.08970      2.02413      3.70926      1.35112
    13.99666      3.94515      0.21126      0.09956      2.05388      3.94515      0.21126
    14.05518      3.43438     -0.78898      0.11159      2.08646      3.43438     -0.78898
    14.11371      2.63079     -1.23079      0.12653      2.12232      2.63079     -1.23079
    14.17224      1.94389     -1.25743      0.14547      2.16198      1.94389     -1.25743
    14.23077      1.45958     -1.10416      0.17005      2.20603      1.45958     -1.10416
    14.28930      1.13660     -0.89786      0.20279      2.25491      1.13660     -0.89786
    14.34783      0.92406     -0.68807      0.24764      2.30863      0.92406     -0.68807
    14.40635      0.78654     -0.49045      0.31077      2.36576      0.78654     -0.49045
    14.46488      0.70309     -0.30819      0.40144      2.42093      0.70309     -0.30819
    14.52341      0.66311     -0.14121      0.53119      2.45916      0.66311     -0.14121
    14.58       0.6631       0.9035E-2    0.7045        2.446       0.6631       0.9035E-2
    14.64047      0.70288      0.13538      0.88746      2.32981      0.70287      0.13538
    14.69900      0.77720      0.22284      0.97906      2.10162      0.77720      0.22284
    14.75752      0.86677      0.25971      0.90618      1.87405      0.86677      0.25971
    14.81605      0.95486      0.25137      0.74045      1.76051      0.95486      0.25137
    14.87458      1.03837      0.18979      0.58300      1.75427      1.03837      0.18978
    14.93311      1.07296      0.05640      0.46879      1.80409      1.07294      0.05641
    14.99164      0.99625     -0.09160      0.39434      1.87604      0.99627     -0.09157
    15.05017      0.84026     -0.16270      0.34888      1.95527      0.84029     -0.16273
    15.10869      0.68460     -0.14547      0.32382      2.03666      0.68457     -0.14550
    15.16722      0.56710     -0.07705      0.31371      2.11917      0.56706     -0.07703
    15.23       0.4905       0.1148E-1    0.3155        2.203       0.4905       0.1152E-1
    15.28428      0.44757      0.10394      0.32791      2.29032      0.44761      0.10395
    15.34281      0.43103      0.19306      0.35091      2.38160      0.43106      0.19301
    15.40134      0.43611      0.27650      0.38576      2.47868      0.43606      0.27645
    15.45986      0.46311      0.35383      0.43516      2.58307      0.46304      0.35387
    15.51839      0.51782      0.41930      0.50364      2.69592      0.51784      0.41939
    15.57692      0.60344      0.45518      0.59848      2.81732      0.60355      0.45520
    15.63545      0.70439      0.43407      0.73072      2.94441      0.70446      0.43395
    15.69398      0.77317      0.34623      0.91604      3.06723      0.77306      0.34612
    15.75251      0.76793      0.23604      1.17183      3.16002      0.76778      0.23615
    15.81104      0.70845      0.15729      1.50117      3.17006      0.70853      0.15747
    15.86957      0.63113      0.11479      1.85183      3.02748      0.63130      0.11475
    15.92809      0.54581      0.10161      2.09324      2.72423      0.54582      0.10145
    15.98662      0.46259      0.12059      2.12534      2.39439      0.46247      0.12053
    16.04515      0.39620      0.16544      2.01707      2.20249      0.39610      0.16550
    16.10368      0.35236      0.22348      1.92858      2.17608      0.35235      0.22359
    16.16220      0.32979      0.28517      1.96132      2.22553      0.32987      0.28525
    16.22073      0.32560      0.34474      2.12545      2.23400      0.32573      0.34471
    16.27926      0.33655      0.39835      2.35193      2.11017      0.33658      0.39819
    16.33779      0.35905      0.44480      2.52907      1.83954      0.35889      0.44467
    16.39632      0.39327      0.48589      2.57399      1.47612      0.39306      0.48601
    16.45485      0.44617      0.51892      2.43551      1.10837      0.44620      0.51920
    16.51338      0.52308      0.52846      2.13759      0.86768      0.52340      0.52855
    16.57191      0.61199      0.48911      1.80701      0.81755      0.61224      0.48878
    16.63043      0.67117      0.38868      1.54921      0.91000      0.67085      0.38829
    16.68896      0.65560      0.26366      1.39675      1.07282      0.65509      0.26395
    16.74749      0.57473      0.17525      1.34697      1.25516      0.57497      0.17581
    16.80602      0.47625      0.14321      1.39034      1.42116      0.47681      0.14306
    16.86455      0.39017      0.15078      1.51113      1.53674      0.39012      0.15027
    16.92308      0.32371      0.17952      1.67611      1.57388      0.32328      0.17945
    16.98161      0.27610      0.21794      1.84387      1.53064      0.27593      0.21827
    17.04013      0.24437      0.25906      1.99174      1.41621      0.24459      0.25929
    17.09866      0.22491      0.29910      2.08533      1.22868      0.22516      0.29897
    17.15719      0.21477      0.33687      2.07089      1.01528      0.21473      0.33663
    17.21572      0.21307      0.37242      1.97069      0.86542      0.21287      0.37238
    17.27425      0.22096      0.40456      1.87193      0.79220      0.22086      0.40471
    17.33278      0.23952      0.42918      1.80744      0.73103      0.23962      0.42931
    17.39130      0.26676      0.43916      1.72778      0.64366      0.26691      0.43910
    17.44983      0.29329      0.42747      1.58625      0.57486      0.29326      0.42732
    17.50836      0.30283      0.39678      1.41301      0.58531      0.30270      0.39680
    17.56689      0.28623      0.36421      1.26853      0.67834      0.28625      0.36430
    17.62542      0.25163      0.34651      1.18586      0.82269      0.25169      0.34650
    17.68395      0.21362      0.34690      1.17391      0.98884      0.21362      0.34687
    17.74247      0.18075      0.35958      1.23576      1.15489      0.18074      0.35957
    17.80100      0.15470      0.37847      1.37649      1.29758      0.15469      0.37848
    17.85953      0.13462      0.40025      1.59861      1.38033      0.13462      0.40026
    17.91806      0.11956      0.42321      1.88073      1.34692      0.11957      0.42321
    17.97659      0.10864      0.44633      2.14264      1.14723      0.10864      0.44633
    18.03512      0.10104      0.46909      2.25545      0.81711      0.10104      0.46909
    18.09364      0.09615      0.49132      2.16515      0.50718      0.09615      0.49132
    18.15217      0.09357      0.51306      1.96688      0.34218      0.09357      0.51306
    18.21070      0.09314      0.53442      1.78897      0.31887      0.09314      0.53441
    18.26923      0.09489      0.55552      1.69296      0.36668      0.09489      0.55552
    18.32776      0.09906      0.57642      1.67913      0.41997      0.09906      0.57642
    18.38629      0.10608      0.59703      1.72196      0.44376      0.10608      0.59703
    18.44481      0.11652      0.61693      1.80210      0.42509      0.11651      0.61693
    18.50334      0.13078      0.63532      1.90650      0.34492      0.13079      0.63532
    18.56187      0.14888      0.65128      1.99976      0.17900      0.14888      0.65128
    18.62040      0.17071      0.66442      2.01988     -0.06593      0.17071      0.66442
    18.67893      0.19756      0.67445      1.92142     -0.32973      0.19756      0.67445
    18.73746      0.23206      0.67828      1.71851     -0.53870      0.23206      0.67828
    18.79598      0.27412      0.66819      1.46258     -0.65471      0.27413      0.66819
    18.85451      0.31524      0.63517      1.20666     -0.67750      0.31524      0.63517
    18.91304      0.33760      0.57923      0.98625     -0.63219      0.33760      0.57923
    18.97157      0.32746      0.51764      0.81250     -0.54962      0.32746      0.51764
    19.03010      0.29074      0.47236      0.68118     -0.45212      0.29074      0.47236
    19.08863      0.24528      0.45087      0.58347     -0.35189      0.24528      0.45087
    19.14716      0.20377      0.44738      0.51124     -0.25446      0.20377      0.44738
    19.20568      0.16986      0.45390      0.45837     -0.16184      0.16986      0.45390
    19.26421      0.14297      0.46556      0.42067     -0.07442      0.14297      0.46556
    19.32       0.1221       0.4799       0.3955       0.8030E-2    0.1221       0.4799   
    19.38127      0.10641      0.49538      0.38139      0.08578      0.10641      0.49538
    19.43980      0.09506      0.51076      0.37768      0.15870      0.09506      0.51076
    19.49833      0.08715      0.52535      0.38405      0.22588      0.08715      0.52535
    19.55686      0.08194      0.53881      0.39941      0.28547      0.08194      0.53881
    19.61539      0.07895      0.55088      0.42068      0.33597      0.07895      0.55088
    19.67391      0.07766      0.56121      0.44347      0.37922      0.07766      0.56121
    19.73244      0.07737      0.56961      0.46705      0.42141      0.07737      0.56961
    19.79097      0.07737      0.57616      0.49786      0.46730      0.07737      0.57616
    19.84950      0.07711      0.58130      0.54580      0.51450      0.07711      0.58130
    19.90803      0.07658      0.58554      0.61877      0.55310      0.07658      0.58554
    19.96655      0.07609      0.58878      0.71929      0.56636      0.07609      0.58878
    20.02508      0.07519      0.59036      0.83806      0.53172      0.07519      0.59036
    20.08361      0.07244      0.59044      0.94450      0.43090      0.07244      0.59044
    20.14214      0.06703      0.59073      0.99129      0.27489      0.06703      0.59073
    20.20067      0.05988      0.59293      0.95173      0.11509      0.05988      0.59293
    20.26       0.5263E-1    0.5973       0.8498       0.4454E-2    0.5263E-1    0.5973   
    20.31772      0.04629      0.60328      0.73288     -0.04390      0.04629      0.60328
    20.37625      0.04112      0.60994      0.63256     -0.04825      0.04112      0.60994
    20.43478      0.03700      0.61680      0.55740     -0.03254      0.03700      0.61680
    20.49       0.3371E-1    0.6236       0.5018       -.1335E-1    0.3371E-1    0.6236   
    20.55       0.3106E-1    0.6301       0.4554       0.3763E-2    0.3106E-1    0.6301   
    20.61037      0.02888      0.63640      0.41226      0.02184      0.02888      0.63640
    20.66890      0.02707      0.64240      0.37330      0.04445      0.02707      0.64240
    20.72742      0.02553      0.64813      0.34179      0.07060      0.02553      0.64813
    20.78595      0.02421      0.65360      0.31852      0.09693      0.02421      0.65360
    20.84448      0.02305      0.65885      0.30237      0.12078      0.02305      0.65885
    20.90301      0.02204      0.66387      0.29206      0.14006      0.02204      0.66387
    20.96154      0.02114      0.66870      0.28514      0.15208      0.02114      0.66870
    21.02       0.2032E-1    0.6733       0.2763       0.1557       0.2032E-1    0.6733   
    21.08       0.1959E-1    0.6778       0.2599       0.1545       0.1959E-1    0.6778   
    21.14       0.1892E-1    0.6821       0.2352       0.1559       0.1892E-1    0.6821   
    21.20       0.1831E-1    0.6863       0.2068       0.1643       0.1831E-1    0.6863   
    21.25       0.1774E-1    0.6904       0.1798       0.1795       0.1774E-1    0.6904   
    21.31       0.1722E-1    0.6943       0.1566       0.1987       0.1722E-1    0.6943   
    21.37       0.1673E-1    0.6981       0.1377       0.2197       0.1673E-1    0.6981   
    21.43       0.1628E-1    0.7018       0.1225       0.2409       0.1628E-1    0.7018   
    21.49       0.1585E-1    0.7053       0.1101       0.2616       0.1585E-1    0.7053   
    21.55       0.1545E-1    0.7088       0.1000       0.2813       0.1545E-1    0.7088   
    21.61       0.1508E-1    0.7122       0.9165E-1    0.3000       0.1508E-1    0.7122   
    21.66       0.1472E-1    0.7155       0.8462E-1    0.3176       0.1472E-1    0.7155   
    21.72       0.1438E-1    0.7188       0.7862E-1    0.3342       0.1438E-1    0.7188   
    21.78       0.1406E-1    0.7219       0.7346E-1    0.3499       0.1406E-1    0.7219   
    21.84       0.1376E-1    0.7250       0.6896E-1    0.3648       0.1376E-1    0.7250   
    21.90       0.1347E-1    0.7280       0.6499E-1    0.3788       0.1347E-1    0.7280   
    21.96       0.1319E-1    0.7309       0.6147E-1    0.3921       0.1319E-1    0.7309   
    22.02       0.1292E-1    0.7337       0.5833E-1    0.4048       0.1292E-1    0.7337   
    22.07       0.1267E-1    0.7365       0.5549E-1    0.4168       0.1267E-1    0.7365   
    22.13       0.1243E-1    0.7393       0.5293E-1    0.4283       0.1243E-1    0.7393   
    22.19       0.1219E-1    0.7420       0.5059E-1    0.4393       0.1219E-1    0.7420   
    22.25       0.1197E-1    0.7446       0.4845E-1    0.4498       0.1197E-1    0.7446   
    22.31       0.1175E-1    0.7472       0.4648E-1    0.4599       0.1175E-1    0.7472   
    22.37       0.1155E-1    0.7497       0.4466E-1    0.4696       0.1155E-1    0.7497   
    22.42       0.1134E-1    0.7521       0.4298E-1    0.4789       0.1134E-1    0.7521   
    22.48       0.1115E-1    0.7546       0.4142E-1    0.4878       0.1115E-1    0.7546   
    22.54       0.1096E-1    0.7569       0.3996E-1    0.4965       0.1096E-1    0.7569   
    22.60       0.1078E-1    0.7593       0.3860E-1    0.5048       0.1078E-1    0.7593   
    22.66       0.1061E-1    0.7616       0.3732E-1    0.5128       0.1061E-1    0.7616   
    22.72       0.1044E-1    0.7638       0.3613E-1    0.5205       0.1044E-1    0.7638   
    22.78       0.1028E-1    0.7660       0.3500E-1    0.5280       0.1028E-1    0.7660   
    22.83       0.1012E-1    0.7682       0.3394E-1    0.5352       0.1012E-1    0.7682   
    22.89       0.9962E-2    0.7703       0.3293E-1    0.5423       0.9962E-2    0.7703   
    22.95       0.9813E-2    0.7724       0.3198E-1    0.5491       0.9813E-2    0.7724   
    23.01       0.9667E-2    0.7744       0.3108E-1    0.5557       0.9667E-2    0.7744   
    23.07       0.9526E-2    0.7764       0.3023E-1    0.5620       0.9526E-2    0.7764   
    23.13       0.9389E-2    0.7784       0.2941E-1    0.5683       0.9389E-2    0.7784   
    23.19       0.9256E-2    0.7804       0.2864E-1    0.5743       0.9256E-2    0.7804   
    23.24       0.9126E-2    0.7823       0.2790E-1    0.5802       0.9126E-2    0.7823   
    23.30       0.8999E-2    0.7842       0.2720E-1    0.5859       0.8999E-2    0.7842   
    23.36       0.8876E-2    0.7860       0.2653E-1    0.5914       0.8876E-2    0.7860   
    23.42       0.8756E-2    0.7879       0.2588E-1    0.5968       0.8756E-2    0.7879   
    23.48       0.8639E-2    0.7897       0.2527E-1    0.6021       0.8639E-2    0.7897   
    23.54       0.8525E-2    0.7914       0.2468E-1    0.6072       0.8525E-2    0.7914   
    23.60       0.8413E-2    0.7932       0.2412E-1    0.6122       0.8413E-2    0.7932   
    23.65       0.8305E-2    0.7949       0.2357E-1    0.6171       0.8305E-2    0.7949   
    23.71       0.8199E-2    0.7966       0.2305E-1    0.6218       0.8199E-2    0.7966   
    23.77       0.8095E-2    0.7983       0.2255E-1    0.6265       0.8095E-2    0.7983   
    23.83       0.7994E-2    0.7999       0.2207E-1    0.6310       0.7994E-2    0.7999   
    23.89       0.7895E-2    0.8015       0.2160E-1    0.6354       0.7895E-2    0.8015   
    23.95       0.7798E-2    0.8031       0.2116E-1    0.6398       0.7798E-2    0.8031   
    24.01       0.7704E-2    0.8047       0.2073E-1    0.6440       0.7704E-2    0.8047   
    24.06       0.7612E-2    0.8062       0.2031E-1    0.6481       0.7612E-2    0.8062   
    24.12       0.7521E-2    0.8078       0.1991E-1    0.6522       0.7521E-2    0.8078   
    24.18       0.7433E-2    0.8093       0.1952E-1    0.6561       0.7433E-2    0.8093   
    24.24       0.7346E-2    0.8107       0.1915E-1    0.6600       0.7346E-2    0.8107   
    24.30       0.7261E-2    0.8122       0.1878E-1    0.6638       0.7261E-2    0.8122   
    24.36       0.7178E-2    0.8136       0.1843E-1    0.6675       0.7178E-2    0.8136   
    24.41       0.7097E-2    0.8151       0.1809E-1    0.6711       0.7097E-2    0.8151   
    24.47       0.7017E-2    0.8165       0.1776E-1    0.6747       0.7017E-2    0.8165   
    24.53       0.6939E-2    0.8179       0.1744E-1    0.6782       0.6939E-2    0.8179   
    24.59       0.6862E-2    0.8192       0.1714E-1    0.6816       0.6862E-2    0.8192   
    24.65       0.6787E-2    0.8206       0.1684E-1    0.6849       0.6787E-2    0.8206   
    24.71       0.6713E-2    0.8219       0.1655E-1    0.6882       0.6713E-2    0.8219   
    24.77       0.6641E-2    0.8232       0.1626E-1    0.6914       0.6641E-2    0.8232   
    24.82       0.6570E-2    0.8245       0.1599E-1    0.6946       0.6570E-2    0.8245   
    24.88       0.6501E-2    0.8258       0.1572E-1    0.6977       0.6501E-2    0.8258   
    24.94       0.6433E-2    0.8271       0.1546E-1    0.7007       0.6433E-2    0.8271   
    25.00       0.6366E-2    0.8283       0.1521E-1    0.7037       0.6366E-2    0.8283   
# 
# 07/24/2018 at 11:16 YAMBO @ NewLaptop [start]
# 07/24/2018 at 11:16                   [end]
#  
# Timing   [Min/Max/Average]: 10s/10s/10s
#
# .-Input file : yambo.in
# | optics                         # [R OPT] Optics
# | bse                            # [R BSE] Bethe Salpeter Equation.
# | bsk                            # [R BSK] Bethe Salpeter Equation kernel
# | bss                            # [R BSS] Bethe Salpeter Equation solver
# | em1s                           # [R Xs] Static Inverse Dielectric Matrix
# | BoseTemp= 0.000000     eV      # Bosonic Temperature
# | FFTGvecs=  749         RL      # [FFT] Plane-waves
# | Chimod= "Hartree"              # [X] IP/Hartree/ALDA/LRC/PF/BSfxc
# | BSEmod= "retarded"             # [BSE] resonant/retarded/coupling
# | BSKmod= "SEX"                  # [BSE] IP/Hartree/HF/ALDA/SEX/BSfxc
# | BSSmod= "h"                    # [BSS] (h)aydock/(d)iagonalization/(i)nversion/(t)ddft`
# | BSENGexx=  749         RL      # [BSK] Exchange components
# | BSENGBlk=  51          RL      # [BSK] Screened interaction block size
# | #WehCpl                        # [BSK] eh interaction included also in coupling
# | KfnQPdb= "E < ./02_QP_PPA/ndb.QP" # [EXTQP BSK BSS] Database
# | % BEnRange
# |   7.50000 | 25.00000 | eV      # [BSS] Energy range
# | %
# | % BDmRange
# |   0.10000 |  0.30000 | eV      # [BSS] Damping range
# | %
# | BEnSteps= 300                  # [BSS] Energy steps
# | % BLongDir
# | 0.1000E-4 | 0.000    | 0.000    |        # [BSS] [cc] Electric Field
# | %
# | % BSEBands
# |   3 |  5 |                     # [BSK] Bands range
# | %
# | BSHayTrs=   0.0050             # [BSS] Relative [o/o] Haydock treshold. Strict(>0)/Average(<0)
# | % BndsRnXs
# |   1 | 10 |                     # [Xs] Polarization function bands
# | %
# | NGsBlkXs=  51          RL      # [Xs] Response block size
# | % DmRngeXs
# | 0.1000E-2 |0.1000E-2 | eV      # [Xs] Damping range
# | %
# | % LongDrXs
# | 0.1000E-4 | 0.000    | 0.000    |        # [Xs] [cc] Electric Field
# | %
