#                                                           
#                                                           
# Y88b    /   e           e    e      888~~\    ,88~-_      
#  Y88b  /   d8b         d8b  d8b     888   |  d888   \     
#   Y88b/   /Y88b       d888bdY88b    888 _/  88888    |    
#    Y8Y   /  Y88b     / Y88Y Y888b   888  \  88888    |    
#     Y   /____Y88b   /   YY   Y888b  888   |  Y888   /     
#    /   /      Y88b /          Y888b 888__/    `88_-~      
#                                                           
#                                                           
#       Version 4.3.0 Revision 15624 Hash 7ed12fb           
#                     MPI+SLK Build                         
#               http://www.yambo-code.org                   
#
# Absorption @ Q(1) [q->0 direction] :0.1000E-4  0.000     0.000   
#
#
# - Energies      are  Analyt. E
# - Wavefunctions are Teter 93(XC)
#
# - The Green`s function is Retarded -
# - Using the Length Gauge -
# - [r,Vnl] *is* included -
#
#   BSK|Identifier              :4335
#      |Dimension               :512
#      |Bands                   :3 - 5
#      |Exchange           [res]: yes
#      |Correlation        [res]: yes
#      |Kernel`s coupling       : no
#      |Exchange           [cpl]: no
#      |Correlation        [cpl]: no
#      |W interaction is bare   : no
#      |ALDA kernel in R-space  : no
#      |RL vectors    [exchange]:749
#      |RL vectors [correlation]:51
#      |E/h energy range    [ev]:-1.000000 - -1.000000
#      |Coupling range     [o/o]: 100.0000 -  100.0000
#    W |Interaction is diagonal : no
#      |Matrix size             :51
#      |Bands                   :1 - 10
#      |e/h energy range    [ev]:-1.000000 - -1.000000
#      |Poles              [o/o]: 100.0000
#      |RL vectors in the sum   :749
#      |[r,Vnl] included        : yes
#      |Field direction         :0.1000E-4  0.000000  0.000000
#      |Coulomb Cutoff          :none
#      |xc-Kernel               :none
#   RIM|RL components      [col]:0
#      |Random points      [col]:0
#  
#   Haydock|Accuracy (requested) [o/o]:   0.0050
#          |Accuracy (reached)   [o/o]:   0.0049
#          |Iteration                 :30
#
#    E/ev[1]      EPS-Im[2]    EPS-Re[3]    EPSo-Im[4]   EPSo-Re[5]   EPS`-Im[6]   EPS`-Re[7]
#
    7.500       0.6879E-2     1.553       0.2395E-2     1.371       0.6879E-2     1.553   
    7.559       0.7086E-2     1.558       0.2449E-2     1.373       0.7086E-2     1.558   
    7.617       0.7301E-2     1.562       0.2504E-2     1.374       0.7301E-2     1.562   
    7.676       0.7523E-2     1.566       0.2561E-2     1.375       0.7523E-2     1.566   
    7.734       0.7753E-2     1.570       0.2619E-2     1.377       0.7753E-2     1.570   
    7.793       0.7992E-2     1.575       0.2678E-2     1.378       0.7992E-2     1.575   
    7.851       0.8239E-2     1.579       0.2738E-2     1.380       0.8239E-2     1.579   
    7.910       0.8496E-2     1.584       0.2800E-2     1.382       0.8496E-2     1.584   
    7.968       0.8762E-2     1.589       0.2863E-2     1.383       0.8762E-2     1.589   
    8.027       0.9038E-2     1.594       0.2928E-2     1.385       0.9038E-2     1.594   
    8.085       0.9325E-2     1.599       0.2994E-2     1.386       0.9325E-2     1.599   
    8.144       0.9622E-2     1.604       0.3062E-2     1.388       0.9622E-2     1.604   
    8.202       0.9932E-2     1.609       0.3131E-2     1.390       0.9932E-2     1.609   
    8.261       0.1025E-1     1.615       0.3202E-2     1.391       0.1025E-1     1.615   
    8.319       0.1059E-1     1.620       0.3275E-2     1.393       0.1059E-1     1.620   
    8.378       0.1094E-1     1.626       0.3349E-2     1.395       0.1094E-1     1.626   
    8.436       0.1130E-1     1.632       0.3425E-2     1.397       0.1130E-1     1.632   
    8.495       0.1168E-1     1.638       0.3503E-2     1.399       0.1168E-1     1.638   
    8.554       0.1207E-1     1.644       0.3583E-2     1.400       0.1207E-1     1.644   
    8.612       0.1248E-1     1.651       0.3665E-2     1.402       0.1248E-1     1.651   
    8.671       0.1291E-1     1.657       0.3749E-2     1.404       0.1291E-1     1.657   
    8.729       0.1336E-1     1.664       0.3835E-2     1.406       0.1336E-1     1.664   
    8.788       0.1382E-1     1.671       0.3923E-2     1.408       0.1382E-1     1.671   
    8.846       0.1431E-1     1.678       0.4013E-2     1.410       0.1431E-1     1.678   
    8.905       0.1482E-1     1.685       0.4106E-2     1.412       0.1482E-1     1.685   
    8.963       0.1536E-1     1.693       0.4201E-2     1.414       0.1536E-1     1.693   
    9.022       0.1592E-1     1.701       0.4299E-2     1.416       0.1592E-1     1.701   
    9.080       0.1650E-1     1.709       0.4399E-2     1.419       0.1650E-1     1.709   
    9.139       0.1712E-1     1.717       0.4501E-2     1.421       0.1712E-1     1.717   
    9.197       0.1777E-1     1.726       0.4607E-2     1.423       0.1777E-1     1.726   
    9.256       0.1844E-1     1.734       0.4715E-2     1.425       0.1844E-1     1.734   
    9.314       0.1916E-1     1.744       0.4826E-2     1.428       0.1916E-1     1.744   
    9.373       0.1990E-1     1.753       0.4940E-2     1.430       0.1990E-1     1.753   
    9.431       0.2069E-1     1.763       0.5057E-2     1.432       0.2069E-1     1.763   
    9.490       0.2153E-1     1.773       0.5177E-2     1.435       0.2153E-1     1.773   
    9.548       0.2240E-1     1.783       0.5301E-2     1.437       0.2240E-1     1.783   
    9.607       0.2333E-1     1.794       0.5428E-2     1.440       0.2333E-1     1.794   
    9.666       0.2430E-1     1.805       0.5559E-2     1.442       0.2430E-1     1.805   
    9.724       0.2534E-1     1.817       0.5693E-2     1.445       0.2534E-1     1.817   
    9.783       0.2643E-1     1.829       0.5831E-2     1.448       0.2643E-1     1.829   
    9.841       0.2759E-1     1.841       0.5974E-2     1.450       0.2759E-1     1.841   
    9.900       0.2883E-1     1.854       0.6120E-2     1.453       0.2883E-1     1.854   
    9.958       0.3013E-1     1.867       0.6271E-2     1.456       0.3013E-1     1.867   
    10.02       0.3153E-1     1.881       0.6426E-2     1.459       0.3153E-1     1.881   
    10.08       0.3301E-1     1.896       0.6586E-2     1.462       0.3301E-1     1.896   
    10.13       0.3459E-1     1.911       0.6751E-2     1.465       0.3459E-1     1.911   
    10.19       0.3628E-1     1.927       0.6920E-2     1.468       0.3628E-1     1.927   
    10.25       0.3808E-1     1.943       0.7095E-2     1.471       0.3808E-1     1.943   
    10.31       0.4002E-1     1.961       0.7276E-2     1.474       0.4002E-1     1.961   
    10.37       0.4209E-1     1.979       0.7462E-2     1.478       0.4209E-1     1.979   
    10.43       0.4432E-1     1.998       0.7654E-2     1.481       0.4432E-1     1.998   
    10.48       0.4673E-1     2.017       0.7852E-2     1.484       0.4673E-1     2.017   
    10.54       0.4932E-1     2.038       0.8057E-2     1.488       0.4932E-1     2.038   
    10.60       0.5212E-1     2.060       0.8268E-2     1.491       0.5212E-1     2.060   
    10.66       0.5515E-1     2.083       0.8487E-2     1.495       0.5515E-1     2.083   
    10.72       0.5844E-1     2.107       0.8712E-2     1.498       0.5844E-1     2.107   
    10.78       0.6202E-1     2.132       0.8946E-2     1.502       0.6202E-1     2.132   
    10.84       0.6593E-1     2.159       0.9187E-2     1.506       0.6593E-1     2.159   
    10.89       0.7020E-1     2.188       0.9437E-2     1.510       0.7020E-1     2.188   
    10.95       0.7489E-1     2.218       0.9696E-2     1.514       0.7489E-1     2.218   
    11.01       0.8004E-1     2.250       0.9964E-2     1.518       0.8004E-1     2.250   
    11.07       0.8573E-1     2.284       0.1024E-1     1.522       0.8573E-1     2.284   
    11.13       0.9203E-1     2.320       0.1053E-1     1.527       0.9203E-1     2.320   
    11.19       0.9903E-1     2.359       0.1083E-1     1.531       0.9903E-1     2.359   
    11.25       0.1068        2.400       0.1114E-1     1.536       0.1068        2.400   
    11.30435      0.11558      2.44487      0.01146      1.54014      0.11558      2.44487
    11.36288      0.12542      2.49285      0.01179      1.54486      0.12542      2.49285
    11.42140      0.13654      2.54465      0.01214      1.54970      0.13654      2.54465
    11.47993      0.14920      2.60075      0.01250      1.55465      0.14920      2.60075
    11.53846      0.16367      2.66174      0.01288      1.55973      0.16367      2.66174
    11.59699      0.18032      2.72827      0.01327      1.56494      0.18032      2.72827
    11.65552      0.19962      2.80115      0.01367      1.57028      0.19962      2.80115
    11.71405      0.22216      2.88133      0.01410      1.57576      0.22216      2.88133
    11.77257      0.24871      2.96998      0.01454      1.58139      0.24871      2.96998
    11.83110      0.28027      3.06851      0.01500      1.58717      0.28027      3.06851
    11.88963      0.31818      3.17864      0.01549      1.59310      0.31818      3.17864
    11.94816      0.36427      3.30251      0.01599      1.59920      0.36427      3.30251
    12.00669      0.42104      3.44279      0.01652      1.60547      0.42104      3.44279
    12.06522      0.49203      3.60281      0.01707      1.61191      0.49203      3.60281
    12.12375      0.58230      3.78674      0.01765      1.61855      0.58230      3.78674
    12.18227      0.69935      3.99982      0.01826      1.62539      0.69935      3.99982
    12.24080      0.85455      4.24845      0.01889      1.63242      0.85455      4.24845
    12.29933      1.06564      4.54011      0.01956      1.63967      1.06564      4.54011
    12.35786      1.36116      4.88231      0.02027      1.64715      1.36116      4.88231
    12.41639      1.78828      5.27877      0.02101      1.65486      1.78828      5.27877
    12.47492      2.42595      5.71737      0.02179      1.66282      2.42595      5.71737
    12.53344      3.40230      6.13469      0.02262      1.67104      3.40230      6.13469
    12.59197      4.88968      6.32139      0.02349      1.67954      4.88968      6.32139
    12.65050      6.93866      5.74599      0.02441      1.68833      6.93866      5.74599
    12.70903      8.86854      3.65098      0.02539      1.69743      8.86854      3.65098
    12.76756      9.06997      0.42227      0.02643      1.70685      9.06997      0.42227
    12.82609      7.34528     -1.93761      0.02754      1.71662      7.34528     -1.93761
    12.88461      5.27647     -2.72019      0.02871      1.72675      5.27647     -2.72019
    12.94314      3.71943     -2.62066      0.02997      1.73728      3.71943     -2.62066
    13.00167      2.69003     -2.22429      0.03131      1.74822      2.69003     -2.22429
    13.06020      2.02190     -1.77663      0.03275      1.75960      2.02190     -1.77663
    13.11873      1.58160     -1.35613      0.03430      1.77146      1.58160     -1.35613
    13.17726      1.28560     -0.98027      0.03596      1.78383      1.28560     -0.98027
    13.23579      1.08427     -0.64682      0.03776      1.79674      1.08427     -0.64682
    13.29431      0.94826     -0.34808      0.03971      1.81025      0.94826     -0.34808
    13.35284      0.86044     -0.07556      0.04183      1.82439      0.86044     -0.07556
    13.41137      0.81134      0.17870      0.04414      1.83922      0.81134      0.17870
    13.46990      0.79700      0.42190      0.04667      1.85480      0.79700      0.42190
    13.52843      0.81814      0.66047      0.04945      1.87121      0.81814      0.66047
    13.58696      0.88061      0.89983      0.05253      1.88851      0.88061      0.89983
    13.64548      0.99700      1.14334      0.05595      1.90681      0.99700      1.14334
    13.70401      1.18994      1.38883      0.05977      1.92619      1.18994      1.38883
    13.76254      1.49623      1.61920      0.06407      1.94680      1.49623      1.61920
    13.82107      1.96614      1.77885      0.06894      1.96877      1.96614      1.77885
    13.87960      2.62917      1.72895      0.07452      1.99226      2.62917      1.72895
    13.93813      3.35808      1.23727      0.08095      2.01748      3.35808      1.23727
    13.99666      3.71255      0.24209      0.08846      2.04467      3.71255      0.24209
    14.05518      3.35588     -0.76219      0.09734      2.07410      3.35588     -0.76219
    14.11371      2.61721     -1.27748      0.10798      2.10613      2.61721     -1.27748
    14.17224      1.93579     -1.35904      0.12093      2.14116      1.93579     -1.35904
    14.23077      1.44163     -1.23636      0.13701      2.17967      1.44163     -1.23636
    14.28930      1.10739     -1.04869      0.15738      2.22221      1.10739     -1.04869
    14.34783      0.88362     -0.85321      0.18382      2.26933      0.88362     -0.85321
    14.40635      0.73350     -0.66892      0.21903      2.32145      0.73350     -0.66892
    14.46488      0.63404     -0.50019      0.26728      2.37840      0.63404     -0.50019
    14.52341      0.57219     -0.34663      0.33516      2.43828      0.57219     -0.34663
    14.58194      0.54168     -0.20729      0.43234      2.49458      0.54168     -0.20729
    14.64047      0.54101     -0.08351      0.56994      2.52983      0.54101     -0.08351
    14.69900      0.57062      0.01755      0.74841      2.50627      0.57062      0.01755
    14.75752      0.62494      0.08029      0.92316      2.37385      0.62494      0.08028
    14.81605      0.67932      0.09038      0.98880      2.14290      0.67930      0.09038
    14.87458      0.69923      0.06123      0.89549      1.93764      0.69922      0.06125
    14.93311      0.67513      0.02544      0.73015      1.85136      0.67515      0.02544
    14.99       0.6147       0.7303E-2    0.5830        1.863       0.6147       0.7275E-2
    15.05017      0.53754      0.02619      0.47953      1.92466      0.53752      0.02617
    15.10869      0.47189      0.08080      0.41411      2.00542      0.47187      0.08081
    15.16722      0.43168      0.15431      0.37642      2.09321      0.43168      0.15433
    15.22575      0.41731      0.23256      0.35869      2.18395      0.41733      0.23259
    15.28428      0.42530      0.30843      0.35619      2.27712      0.42535      0.30842
    15.34281      0.45525      0.37934      0.36647      2.37358      0.45527      0.37927
    15.40134      0.51262      0.43901      0.38882      2.47481      0.51255      0.43895
    15.45986      0.60050      0.46886      0.42396      2.58255      0.60037      0.46891
    15.51839      0.70174      0.44090      0.47405      2.69869      0.70175      0.44111
    15.57692      0.76746      0.34811      0.54304      2.82509      0.76774      0.34817
    15.63545      0.75993      0.23688      0.63728      2.96318      0.76005      0.23656
    15.69398      0.70045      0.15561      0.76668      3.11303      0.70012      0.15541
    15.75251      0.61900      0.10931      0.94615      3.27102      0.61874      0.10958
    15.81104      0.52736      0.09823      1.19664      3.42444      0.52751      0.09852
    15.86957      0.44253      0.12303      1.54152      3.54095      0.44281      0.12303
    15.92809      0.37846      0.17200      1.98705      3.55605      0.37861      0.17179
    15.98662      0.33766      0.23162      2.47775      3.38732      0.33758      0.23137
    16.04515      0.31735      0.29349      2.88280      3.01811      0.31706      0.29338
    16.10368      0.31427      0.35294      3.11007      2.55062      0.31396      0.35316
    16.16220      0.32538      0.40744      3.18478      2.08459      0.32542      0.40791
    16.22073      0.34880      0.45695      3.15053      1.64219      0.34935      0.45715
    16.27926      0.38759      0.50188      3.01042      1.22080      0.38808      0.50140
    16.33779      0.44897      0.53550      2.73018      0.85717      0.44872      0.53474
    16.39632      0.53504      0.53910      2.33753      0.65398      0.53409      0.53896
    16.45485      0.62768      0.48689      1.95517      0.64768      0.62704      0.48792
    16.51338      0.67898      0.37361      1.67327      0.77537      0.67992      0.37476
    16.57191      0.64902      0.24700      1.51243      0.96202      0.65059      0.24632
    16.63043      0.55989      0.16671      1.46362      1.15571      0.55964      0.16488
    16.68896      0.46117      0.14283      1.51012      1.31766      0.45928      0.14256
    16.74749      0.37801      0.15503      1.62266      1.41531      0.37725      0.15675
    16.80602      0.31477      0.18586      1.75787      1.43928      0.31610      0.18703
    16.86455      0.26997      0.22500      1.89247      1.40785      0.27141      0.22422
    16.92308      0.24062      0.26606      2.02775      1.31650      0.24045      0.26454
    16.98161      0.22311      0.30553      2.12215      1.14335      0.22170      0.30512
    17.04013      0.21447      0.34243      2.11217      0.93786      0.21362      0.34357
    17.09866      0.21396      0.37707      2.02364      0.78672      0.21471      0.37820
    17.15719      0.22301      0.40821      1.93278      0.69006      0.22426      0.40791
    17.21572      0.24284      0.43135      1.84454      0.59253      0.24297      0.43014
    17.27425      0.27091      0.43885      1.70682      0.49714      0.26983      0.43839
    17.33278      0.29659      0.42397      1.51730      0.46667      0.29594      0.42488
    17.39130      0.30313      0.39128      1.33433      0.52860      0.30385      0.39196
    17.44983      0.28332      0.35926      1.20450      0.65832      0.28390      0.35876
    17.50836      0.24711      0.34342      1.14256      0.82259      0.24682      0.34299
    17.56689      0.20875      0.34547      1.15007      0.99817      0.20846      0.34559
    17.62542      0.17595      0.35936      1.22935      1.16767      0.17597      0.35953
    17.68395      0.15020      0.37931      1.38652      1.30909      0.15028      0.37933
    17.74247      0.13073      0.40193      1.62404      1.38436      0.13076      0.40191
    17.80100      0.11642      0.42540      1.91653      1.33493      0.11642      0.42538
    17.85953      0.10620      0.44874      2.17500      1.11426      0.10620      0.44873
    17.91806      0.09921      0.47156      2.26841      0.77327      0.09920      0.47155
    17.97659      0.09481      0.49377      2.15910      0.47272      0.09481      0.49377
    18.03512      0.09266      0.51548      1.95736      0.32630      0.09266      0.51548
    18.09364      0.09264      0.53680      1.78941      0.31666      0.09264      0.53680
    18.15217      0.09482      0.55786      1.70885      0.36834      0.09482      0.55786
    18.21070      0.09947      0.57867      1.70986      0.41611      0.09947      0.57867
    18.26923      0.10702      0.59906      1.76304      0.42721      0.10702      0.59906
    18.32776      0.11793      0.61854      1.84645      0.39158      0.11793      0.61853
    18.38629      0.13237      0.63632      1.94627      0.29459      0.13237      0.63631
    18.44481      0.15016      0.65193      2.03003      0.11416      0.15015      0.65192
    18.50334      0.17176      0.66556      2.03485     -0.14469      0.17175      0.66557
    18.56187      0.19956      0.67648      1.91097     -0.41687      0.19957      0.67650
    18.62040      0.23631      0.68014      1.67714     -0.61814      0.23633      0.68013
    18.67893      0.28062      0.66770      1.40017     -0.70910      0.28062      0.66766
    18.73746      0.32185      0.63046      1.14161     -0.70341      0.32181      0.63045
    18.79598      0.34093      0.57096      0.93038     -0.63780      0.34092      0.57101
    18.85451      0.32603      0.50920      0.76876     -0.54425      0.32608      0.50920
    18.91304      0.28627      0.46651      0.64824     -0.44189      0.28627      0.46647
    18.97157      0.24016      0.44792      0.55904     -0.34001      0.24013      0.44792
    19.03010      0.19924      0.44639      0.49334     -0.24241      0.19924      0.44641
    19.08863      0.16617      0.45401      0.44556     -0.15027      0.16618      0.45400
    19.14716      0.14006      0.46632      0.41204     -0.06358      0.14006      0.46631
    19.21       0.1199       0.4811       0.3905       0.1795E-1    0.1199       0.4811   
    19.26421      0.10492      0.49676      0.37991      0.09446      0.10492      0.49676
    19.32274      0.09422      0.51222      0.37958      0.16544      0.09422      0.51222
    19.38127      0.08695      0.52679      0.38880      0.22939      0.08695      0.52679
    19.43980      0.08241      0.54007      0.40525      0.28439      0.08241      0.54007
    19.49833      0.08004      0.55172      0.42437      0.33047      0.08004      0.55172
    19.55686      0.07918      0.56143      0.44257      0.37258      0.07918      0.56143
    19.61539      0.07908      0.56910      0.46284      0.41772      0.07908      0.56910
    19.67391      0.07900      0.57493      0.49407      0.46793      0.07900      0.57493
    19.73244      0.07849      0.57951      0.54547      0.51801      0.07849      0.57951
    19.79097      0.07778      0.58322      0.62344      0.55689      0.07778      0.58322
    19.84950      0.07694      0.58562      0.72909      0.56722      0.07694      0.58562
    19.90803      0.07493      0.58634      0.85105      0.52604      0.07493      0.58634
    19.96655      0.07046      0.58643      0.95560      0.41665      0.07046      0.58643
    20.02508      0.06369      0.58784      0.99435      0.25505      0.06369      0.58784
    20.08361      0.05616      0.59153      0.94532      0.09685      0.05616      0.59153
    20.14       0.4927E-1    0.5971       0.8383       -.7245E-2    0.4927E-1    0.5971   
    20.20067      0.04353      0.60369      0.72139     -0.04908      0.04353      0.60369
    20.25920      0.03894      0.61066      0.62376     -0.04933      0.03894      0.61066
    20.31772      0.03528      0.61762      0.55178     -0.03199      0.03528      0.61762
    20.38       0.3235E-1    0.6244       0.4986       -.1273E-1    0.3235E-1    0.6244   
    20.43       0.2997E-1    0.6309       0.4538       0.4049E-2    0.2997E-1    0.6309   
    20.49331      0.02799      0.63711      0.41194      0.02193      0.02799      0.63711
    20.55184      0.02633      0.64304      0.37453      0.04406      0.02633      0.64304
    20.61037      0.02491      0.64870      0.34442      0.06906      0.02491      0.64870
    20.66890      0.02368      0.65412      0.32211      0.09384      0.02368      0.65412
    20.72742      0.02260      0.65931      0.30679      0.11581      0.02260      0.65931
    20.78595      0.02164      0.66428      0.29690      0.13207      0.02164      0.66428
    20.84       0.2078E-1    0.6691       0.2883       0.1400       0.2078E-1    0.6691   
    20.90       0.2001E-1    0.6737       0.2745       0.1407       0.2001E-1    0.6737   
    20.96       0.1931E-1    0.6781       0.2520       0.1407       0.1931E-1    0.6781   
    21.02       0.1867E-1    0.6824       0.2235       0.1465       0.1867E-1    0.6824   
    21.08       0.1808E-1    0.6866       0.1946       0.1597       0.1808E-1    0.6866   
    21.14       0.1753E-1    0.6906       0.1690       0.1783       0.1753E-1    0.6906   
    21.20       0.1703E-1    0.6945       0.1478       0.1995       0.1703E-1    0.6945   
    21.25       0.1655E-1    0.6982       0.1307       0.2214       0.1655E-1    0.6982   
    21.31       0.1611E-1    0.7019       0.1169       0.2429       0.1611E-1    0.7019   
    21.37       0.1570E-1    0.7055       0.1057       0.2636       0.1570E-1    0.7055   
    21.43       0.1531E-1    0.7090       0.9647E-1    0.2831       0.1531E-1    0.7090   
    21.49       0.1494E-1    0.7123       0.8876E-1    0.3016       0.1494E-1    0.7123   
    21.55       0.1459E-1    0.7156       0.8222E-1    0.3191       0.1459E-1    0.7156   
    21.61       0.1426E-1    0.7188       0.7662E-1    0.3355       0.1426E-1    0.7188   
    21.66       0.1395E-1    0.7220       0.7176E-1    0.3510       0.1395E-1    0.7220   
    21.72       0.1365E-1    0.7250       0.6750E-1    0.3657       0.1365E-1    0.7250   
    21.78       0.1336E-1    0.7280       0.6373E-1    0.3795       0.1336E-1    0.7280   
    21.84       0.1309E-1    0.7309       0.6038E-1    0.3927       0.1309E-1    0.7309   
    21.90       0.1283E-1    0.7338       0.5736E-1    0.4053       0.1283E-1    0.7338   
    21.96       0.1258E-1    0.7366       0.5464E-1    0.4172       0.1258E-1    0.7366   
    22.02       0.1234E-1    0.7393       0.5216E-1    0.4286       0.1234E-1    0.7393   
    22.07       0.1211E-1    0.7420       0.4990E-1    0.4396       0.1211E-1    0.7420   
    22.13       0.1189E-1    0.7446       0.4783E-1    0.4500       0.1189E-1    0.7446   
    22.19       0.1168E-1    0.7472       0.4592E-1    0.4600       0.1168E-1    0.7472   
    22.25       0.1147E-1    0.7497       0.4415E-1    0.4696       0.1147E-1    0.7497   
    22.31       0.1127E-1    0.7522       0.4251E-1    0.4789       0.1127E-1    0.7522   
    22.37       0.1108E-1    0.7546       0.4099E-1    0.4878       0.1108E-1    0.7546   
    22.42       0.1090E-1    0.7569       0.3956E-1    0.4964       0.1090E-1    0.7569   
    22.48       0.1072E-1    0.7593       0.3823E-1    0.5046       0.1072E-1    0.7593   
    22.54       0.1055E-1    0.7616       0.3698E-1    0.5126       0.1055E-1    0.7616   
    22.60       0.1038E-1    0.7638       0.3581E-1    0.5203       0.1038E-1    0.7638   
    22.66       0.1022E-1    0.7660       0.3470E-1    0.5278       0.1022E-1    0.7660   
    22.72       0.1006E-1    0.7682       0.3366E-1    0.5350       0.1006E-1    0.7682   
    22.78       0.9908E-2    0.7703       0.3267E-1    0.5420       0.9908E-2    0.7703   
    22.83       0.9760E-2    0.7724       0.3174E-1    0.5488       0.9760E-2    0.7724   
    22.89       0.9616E-2    0.7744       0.3085E-1    0.5554       0.9616E-2    0.7744   
    22.95       0.9476E-2    0.7764       0.3001E-1    0.5617       0.9476E-2    0.7764   
    23.01       0.9340E-2    0.7784       0.2921E-1    0.5679       0.9340E-2    0.7784   
    23.07       0.9208E-2    0.7804       0.2845E-1    0.5740       0.9208E-2    0.7804   
    23.13       0.9080E-2    0.7823       0.2772E-1    0.5798       0.9080E-2    0.7823   
    23.19       0.8954E-2    0.7842       0.2703E-1    0.5855       0.8954E-2    0.7842   
    23.24       0.8832E-2    0.7860       0.2637E-1    0.5911       0.8832E-2    0.7860   
    23.30       0.8713E-2    0.7879       0.2573E-1    0.5965       0.8713E-2    0.7879   
    23.36       0.8597E-2    0.7897       0.2512E-1    0.6017       0.8597E-2    0.7897   
    23.42       0.8484E-2    0.7914       0.2454E-1    0.6068       0.8484E-2    0.7914   
    23.48       0.8374E-2    0.7932       0.2398E-1    0.6118       0.8374E-2    0.7932   
    23.54       0.8266E-2    0.7949       0.2345E-1    0.6167       0.8266E-2    0.7949   
    23.60       0.8161E-2    0.7966       0.2293E-1    0.6215       0.8161E-2    0.7966   
    23.65       0.8058E-2    0.7983       0.2244E-1    0.6261       0.8058E-2    0.7983   
    23.71       0.7958E-2    0.7999       0.2196E-1    0.6306       0.7958E-2    0.7999   
    23.77       0.7860E-2    0.8015       0.2150E-1    0.6351       0.7860E-2    0.8015   
    23.83       0.7764E-2    0.8031       0.2106E-1    0.6394       0.7764E-2    0.8031   
    23.89       0.7670E-2    0.8047       0.2063E-1    0.6436       0.7670E-2    0.8047   
    23.95       0.7578E-2    0.8062       0.2022E-1    0.6477       0.7578E-2    0.8062   
    24.01       0.7489E-2    0.8078       0.1982E-1    0.6518       0.7489E-2    0.8078   
    24.06       0.7401E-2    0.8093       0.1943E-1    0.6557       0.7401E-2    0.8093   
    24.12       0.7315E-2    0.8107       0.1906E-1    0.6596       0.7315E-2    0.8107   
    24.18       0.7231E-2    0.8122       0.1870E-1    0.6634       0.7231E-2    0.8122   
    24.24       0.7148E-2    0.8136       0.1836E-1    0.6671       0.7148E-2    0.8136   
    24.30       0.7067E-2    0.8151       0.1802E-1    0.6707       0.7067E-2    0.8151   
    24.36       0.6988E-2    0.8165       0.1769E-1    0.6743       0.6988E-2    0.8165   
    24.41       0.6911E-2    0.8179       0.1738E-1    0.6778       0.6911E-2    0.8179   
    24.47       0.6834E-2    0.8192       0.1707E-1    0.6812       0.6834E-2    0.8192   
    24.53       0.6760E-2    0.8206       0.1677E-1    0.6846       0.6760E-2    0.8206   
    24.59       0.6687E-2    0.8219       0.1648E-1    0.6878       0.6687E-2    0.8219   
    24.65       0.6615E-2    0.8232       0.1620E-1    0.6911       0.6615E-2    0.8232   
    24.71       0.6545E-2    0.8245       0.1593E-1    0.6942       0.6545E-2    0.8245   
    24.77       0.6475E-2    0.8258       0.1567E-1    0.6973       0.6475E-2    0.8258   
    24.82       0.6408E-2    0.8271       0.1541E-1    0.7004       0.6408E-2    0.8271   
    24.88       0.6341E-2    0.8283       0.1516E-1    0.7034       0.6341E-2    0.8283   
    24.94       0.6276E-2    0.8296       0.1492E-1    0.7063       0.6276E-2    0.8296   
    25.00       0.6211E-2    0.8308       0.1468E-1    0.7092       0.6211E-2    0.8308   
# 
# 07/24/2018 at 11:16 YAMBO @ NewLaptop [start]
# 07/24/2018 at 11:16                   [end]
#  
# Timing   [Min/Max/Average]: 05s/05s/05s
#
# .-Input file : yambo.in
# | optics                         # [R OPT] Optics
# | bse                            # [R BSE] Bethe Salpeter Equation.
# | bsk                            # [R BSK] Bethe Salpeter Equation kernel
# | bss                            # [R BSS] Bethe Salpeter Equation solver
# | em1s                           # [R Xs] Static Inverse Dielectric Matrix
# | FFTGvecs=  749         RL      # [FFT] Plane-waves
# | Chimod= "Hartree"              # [X] IP/Hartree/ALDA/LRC/PF/BSfxc
# | BSEmod= "retarded"             # [BSE] resonant/retarded/coupling
# | BSKmod= "SEX"                  # [BSE] IP/Hartree/HF/ALDA/SEX/BSfxc
# | BSSmod= "h"                    # [BSS] (h)aydock/(d)iagonalization/(i)nversion/(t)ddft`
# | BSENGexx=  749         RL      # [BSK] Exchange components
# | BSENGBlk=  51          RL      # [BSK] Screened interaction block size
# | #WehCpl                        # [BSK] eh interaction included also in coupling
# | % KfnQP_E
# |  5.800000 | 1.000000 | 1.000000 |        # [EXTQP BSK BSS] E parameters  (c/v) eV|adim|adim
# | %
# | % BEnRange
# |   7.50000 | 25.00000 | eV      # [BSS] Energy range
# | %
# | % BDmRange
# |   0.10000 |  0.30000 | eV      # [BSS] Damping range
# | %
# | BEnSteps= 300                  # [BSS] Energy steps
# | % BLongDir
# | 0.1000E-4 | 0.000    | 0.000    |        # [BSS] [cc] Electric Field
# | %
# | % BSEBands
# |   3 |  5 |                     # [BSK] Bands range
# | %
# | BSHayTrs=   0.0050             # [BSS] Relative [o/o] Haydock treshold. Strict(>0)/Average(<0)
# | % BndsRnXs
# |   1 | 10 |                     # [Xs] Polarization function bands
# | %
# | NGsBlkXs=  51          RL      # [Xs] Response block size
# | % DmRngeXs
# | 0.1000E-2 |0.1000E-2 | eV      # [Xs] Damping range
# | %
# | % LongDrXs
# | 0.1000E-4 | 0.000    | 0.000    |        # [Xs] [cc] Electric Field
# | %
