#                                                           
#   __   __     _        __  __       ____      U  ___  u   
#   \ \ / / U  /"\  U u |" \/ "| u U | __") u    \/"_ \/    
#    \ V /   \/ _ \/   \| |\/| |/   \|  _ \/     | | | |    
#   U_|"|_u  / ___ \    | |  | |     | |_) | .-,_| |_| |    
#     |_|   /_/   \_\   |_|  |_|     |____/   \_)-\___/     
# .-,//|(_   \\    >>  <<,-,,-.     _|| \\_        \\       
#  \_) (__) (__)  (__)  (./  \.)   (__) (__)      (__)      
#                                                           
#                                                           
#        Version 4.3.0 Revision 15642 Hash 4a43e30          
#                      MPI+SLK Build                        
#                http://www.yambo-code.org                  
#
# Absorption @ Q(1) [q->0 direction] : 1.000000  0.000000  0.000000
#
#
#
# - The Green`s function is Retarded -
# - Using the Velocity Gauge -
# - [r,Vnl] *is* included -
#
#
#    Diamagnetic term
#    A [nel]
#    -8.683380
#
#    E/ev[1]      EPS-Im[2]    EPS-Re[3]
#
   0.2000        1175.        752.0   
   0.2195        1177.        618.9   
   0.2391        1163.        495.0   
   0.2586        1136.        382.1   
   0.2782        1098.        281.3   
   0.2977        1052.        192.9   
   0.3173        1002.        116.5   
   0.3368        948.0        51.60   
   0.3564        893.4       -2.760   
   0.3759        839.1       -47.66   
   0.3955        786.1       -84.21   
   0.4150        735.1       -113.5   
   0.4346        686.7       -136.6   
   0.4541        641.1       -154.5   
   0.4737        598.5       -168.0   
   0.4932        558.9       -177.8   
   0.5128        522.3       -184.7   
      0.5323     488.5961    -189.1825
      0.5519     457.5768    -191.7368
      0.5714     429.1023    -192.7770
      0.5910     402.9989    -192.6567
      0.6105     379.0638    -191.6580
      0.6301     357.1010    -190.0178
      0.6496     336.9182    -187.9297
      0.6692     318.3158    -185.5349
      0.6887     301.1133    -182.9452
      0.7083     285.1468    -180.2427
      0.7278     270.2547    -177.4685
      0.7474     256.3128    -174.6563
      0.7669     243.1928    -171.7982
      0.7865     230.8121    -168.8971
      0.8060     219.0977    -165.9386
      0.8256     207.9942    -162.9056
      0.8451     197.4659    -159.7887
      0.8647     187.4829    -156.5770
      0.8842     178.0333    -153.2783
      0.9038     169.0952    -149.8896
      0.9233     160.6630    -146.4310
      0.9429     152.7191    -142.9120
      0.9624     145.2497    -139.3520
      0.9820     138.2407    -135.7723
      1.0015     131.6714    -132.1893
      1.0211     125.5261    -128.6275
      1.0406     119.7805    -125.0998
      1.0602     114.4092    -121.6171
      1.0797     109.3980    -118.2052
      1.0992     104.7167    -114.8652
      1.1188     100.3455    -111.6117
      1.1383      96.2622    -108.4535
      1.1579      92.4422    -105.3929
      1.1774      88.8671    -102.4397
     1.19699     85.51221    -99.58994
     1.21654     82.35863    -96.84532
     1.23609     79.38704    -94.20293
     1.25564     76.58292    -91.66393
     1.27519     73.92858    -89.21931
     1.29474     71.41320    -86.86816
     1.31429     69.02293    -84.60065
     1.33383     66.74993    -82.41457
     1.35338     64.58694    -80.30680
     1.37293     62.52526    -78.27094
     1.39248     60.55889    -76.30492
     1.41203     58.68217    -74.40786
     1.43158     56.88726    -72.57471
     1.45113     55.16843    -70.80432
     1.47068     53.51806    -69.09261
     1.49023     51.93178    -67.43951
     1.50977     50.40159    -65.83679
     1.52932     48.92236    -64.27949
     1.54887     47.49166    -62.76513
     1.56842     46.10515    -61.28487
     1.58797     44.76328    -59.83699
     1.60752     43.46396    -58.41248
     1.62707     42.20955    -57.01019
     1.64662     41.00060    -55.62511
     1.66617     39.83933    -54.25525
     1.68571     38.72903    -52.90242
     1.70526     37.67078    -51.56481
     1.72481     36.66623    -50.24348
     1.74436     35.71712    -48.94056
     1.76391     34.82376    -47.65784
     1.78346     33.98650    -46.39828
     1.80301     33.20484    -45.16441
     1.82256     32.47784    -43.95958
     1.84211     31.80412    -42.78713
     1.86165     31.18091    -41.64816
     1.88120     30.60657    -40.54860
     1.90075     30.07713    -39.48958
     1.92030     29.58928    -38.47525
     1.93985     29.13767    -37.50557
     1.95940     28.71831    -36.58552
     1.97895     28.32446    -35.71309
     1.99850     27.95082    -34.89122
     2.01805     27.59051    -34.11778
     2.03759     27.23685    -33.39070
     2.05714     26.88380    -32.70752
     2.07669     26.52599    -32.06472
     2.09624     26.15800    -31.45568
     2.11579     25.77606    -30.87373
     2.13534     25.37858    -30.31399
     2.15489     24.96425    -29.76756
     2.17444     24.53371    -29.22793
     2.19398     24.08953    -28.68941
     2.21353     23.63479    -28.14727
     2.23308     23.17280    -27.59500
     2.25263     22.70888    -27.03192
     2.27218     22.24715    -26.45559
     2.29173     21.79183    -25.86417
     2.31128     21.34700    -25.25769
     2.33083     20.91693    -24.63876
     2.35038     20.50397    -24.00640
     2.36992     20.11113    -23.36338
     2.38947     19.74051    -22.71135
     2.40902     19.39351    -22.05159
     2.42857     19.07161    -21.38626
     2.44812     18.77559    -20.71656
     2.46767     18.50624    -20.04478
     2.48722     18.26405    -19.37182
     2.50677     18.04931    -18.69920
     2.52632     17.86280    -18.02993
     2.54586     17.70419    -17.36307
     2.56541     17.57381    -16.70088
     2.58496     17.47238    -16.04588
     2.60451     17.39935    -15.39760
     2.62406     17.35530    -14.75840
     2.64361     17.34008    -14.12842
     2.66316     17.35393    -13.50961
     2.68271     17.39737    -12.90455
     2.70226     17.47017    -12.31413
     2.72180     17.57235    -11.73996
     2.74135     17.70375    -11.18391
     2.76090     17.86393    -10.64738
     2.78045     18.05300    -10.13512
     2.80000     18.26979     -9.64769
     2.81955     18.51329     -9.18821
     2.83910     18.78201     -8.75838
     2.85865     19.07394     -8.36151
     2.87820     19.38681     -8.00051
     2.89774     19.71793     -7.67736
     2.91729     20.06357     -7.39388
     2.93684     20.42015     -7.15170
     2.95639     20.78319     -6.95102
     2.97594     21.14883     -6.79294
     2.99549     21.51231     -6.67647
     3.01504     21.86958     -6.59986
     3.03459     22.21675     -6.56127
     3.05414     22.55094     -6.55867
     3.07368     22.86916     -6.58765
     3.09323     23.17012     -6.64622
     3.11278     23.45233     -6.72999
     3.13233     23.71573     -6.83647
     3.15188     23.96060     -6.96338
     3.17143     24.18745     -7.10833
     3.19098     24.39689     -7.26975
     3.21053     24.58968     -7.44660
     3.23008     24.76620     -7.63785
     3.24962     24.92673     -7.84368
     3.26917     25.07119     -8.06367
     3.28872     25.19901     -8.29745
     3.30827     25.30958     -8.54482
     3.32782     25.40216     -8.80532
     3.34737     25.47530     -9.07763
     3.36692     25.52827     -9.36147
     3.38647     25.55992     -9.65455
     3.40602     25.56956     -9.95561
     3.42556     25.55668    -10.26281
     3.44511     25.52109    -10.57395
     3.46466     25.46302    -10.88714
     3.48421     25.38304    -11.20043
     3.50376     25.28184    -11.51236
     3.52331     25.16068    -11.82168
     3.54286     25.02048    -12.12748
     3.56241     24.86192    -12.42930
     3.58195     24.68585    -12.72659
     3.60150     24.49259    -13.01937
     3.62105     24.28206    -13.30715
     3.64060     24.05382    -13.58955
     3.66015     23.80767    -13.86591
     3.67970     23.54271    -14.13499
     3.69925     23.25881    -14.39504
     3.71880     22.95553    -14.64407
     3.73835     22.63322    -14.87961
     3.75789     22.29274    -15.09920
     3.77744     21.93533    -15.30001
     3.79699     21.56305    -15.48040
     3.81654     21.17836    -15.63774
     3.83609     20.78433    -15.77061
     3.85564     20.38405    -15.87781
     3.87519     19.98129    -15.95953
     3.89474     19.57929    -16.01535
     3.91429     19.18148    -16.04648
     3.93383     18.79093    -16.05428
     3.95338     18.41034    -16.04106
     3.97293     18.04192    -16.00914
     3.99248     17.68735    -15.96098
     4.01203     17.34775    -15.89948
     4.03158     17.02366    -15.82745
     4.05113     16.71520    -15.74795
     4.07068     16.42190    -15.66344
     4.09023     16.14283    -15.57607
     4.10977     15.87686    -15.48796
     4.12932     15.62251    -15.40074
     4.14887     15.37827    -15.31568
     4.16842     15.14244    -15.23373
     4.18797     14.91339    -15.15539
     4.20752     14.68936    -15.08075
     4.22707     14.46907    -15.00982
     4.24662     14.25102    -14.94239
     4.26617     14.03404    -14.87776
     4.28571     13.81708    -14.81555
     4.30526     13.59932    -14.75494
     4.32481     13.37999    -14.69492
     4.34436     13.15857    -14.63471
     4.36391     12.93458    -14.57332
     4.38346     12.70778    -14.50968
     4.40301     12.47825    -14.44269
     4.42256     12.24606    -14.37131
     4.44211     12.01165    -14.29416
     4.46165     11.77563    -14.21043
     4.48120     11.53882    -14.11946
     4.50075     11.30212    -14.02016
     4.52030     11.06674    -13.91224
     4.53985     10.83385    -13.79530
     4.55940     10.60469    -13.66931
     4.57895     10.38051    -13.53450
     4.59850     10.16249    -13.39118
     4.61804      9.95168    -13.23994
     4.63759      9.74902    -13.08158
     4.65714      9.55534    -12.91689
     4.67669      9.37121    -12.74700
     4.69624      9.19709    -12.57250
     4.71579      9.03336    -12.39493
     4.73534      8.88014    -12.21491
     4.75489      8.73741    -12.03357
     4.77444      8.60512    -11.85190
     4.79398      8.48306    -11.67072
     4.81353      8.37091    -11.49083
     4.83308      8.26834    -11.31314
     4.85263      8.17491    -11.13815
     4.87218      8.09016    -10.96631
     4.89173      8.01362    -10.79860
     4.91128      7.94486    -10.63507
     4.93083      7.88335    -10.47639
     4.95038      7.82863    -10.32277
     4.96992      7.78025    -10.17449
     4.98947      7.73776    -10.03209
    5.009023     7.700716    -9.895823
    5.028571     7.668556    -9.765865
    5.048120     7.640859    -9.642763
    5.067669     7.617036    -9.526720
    5.087218     7.596425    -9.418096
    5.106767     7.578298    -9.317398
    5.126316     7.561769    -9.224454
    5.145864     7.546051    -9.139953
    5.165413     7.530079    -9.063568
    5.184962     7.512743    -8.995399
    5.204511     7.492914    -8.934948
    5.224060     7.469563    -8.882028
    5.243609     7.441481    -8.835683
    5.263158     7.407873    -8.795213
    5.282707     7.367735    -8.759309
    5.302256     7.320580    -8.726866
    5.321805     7.265932    -8.696428
    5.341353     7.203709    -8.666606
    5.360902     7.134051    -8.635942
    5.380451     7.057403    -8.603099
    5.400000     6.974337    -8.566882
    5.419549     6.885788    -8.526057
    5.439097     6.792681    -8.479914
    5.458646     6.696191    -8.427766
    5.478195     6.597396    -8.369137
    5.497744     6.497497    -8.303794
    5.517293     6.397577    -8.231649
    5.536842     6.298741    -8.152895
    5.556391     6.201965    -8.067829
    5.575940     6.108067    -7.976898
    5.595489     6.017819    -7.880514
    5.615037     5.931879    -7.779360
    5.634586     5.850767    -7.673983
    5.654135     5.774861    -7.565000
    5.673684     5.704518    -7.453098
    5.693233     5.639919    -7.338982
    5.712782     5.581264    -7.223099
    5.732330     5.528555    -7.106121
    5.751880     5.481871    -6.988711
    5.771429     5.441132    -6.871422
    5.790977     5.406192    -6.754661
    5.810526     5.376965    -6.639009
    5.830075     5.353227    -6.524917
    5.849624     5.334761    -6.412787
    5.869173     5.321297    -6.302961
    5.888722     5.312533    -6.195704
    5.908270     5.308240    -6.091451
    5.927820     5.308082    -5.990396
    5.947368     5.311786    -5.892722
    5.966917     5.318974    -5.798578
    5.986466     5.329397    -5.708235
    6.006015     5.342733    -5.621521
    6.025564     5.358748    -5.538704
    6.045113     5.377171    -5.459753
    6.064662     5.397814    -5.384727
    6.084210     5.420427    -5.313623
    6.103759     5.444886    -5.246592
    6.123308     5.471013    -5.183549
    6.142857     5.498687    -5.124671
    6.162406     5.527724    -5.069917
    6.181955     5.557978    -5.019408
    6.201504     5.589277    -4.973391
    6.221053     5.621416    -4.931954
    6.240601     5.654161    -4.895184
    6.260150     5.687250    -4.863394
    6.279699     5.720311    -4.836636
    6.299248     5.752997    -4.815056
    6.318797     5.784866    -4.798793
    6.338346     5.815418    -4.787908
    6.357895     5.844181    -4.782367
    6.377443     5.870549    -4.782071
    6.396993     5.894051    -4.786893
    6.416541     5.914061    -4.796462
    6.436090     5.930129    -4.810755
    6.455639     5.941632    -4.829107
    6.475188     5.948185    -4.851112
    6.494737     5.949378    -4.876256
    6.514286     5.944872    -4.903838
    6.533834     5.934483    -4.933257
    6.553383     5.918044    -4.963801
    6.572932     5.895580    -4.994740
    6.592481     5.867153    -5.025392
    6.612030     5.832903    -5.055182
    6.631579     5.793119    -5.083422
    6.651128     5.748113    -5.109689
    6.670677     5.698252    -5.133391
    6.690226     5.643938    -5.154147
    6.709774     5.585597    -5.171678
    6.729323     5.523676    -5.185669
    6.748872     5.458575    -5.196013
    6.768421     5.390703    -5.202452
    6.787970     5.320477    -5.204956
    6.807518     5.248215    -5.203286
    6.827068     5.174328    -5.197585
    6.846617     5.099154    -5.187649
    6.866165     5.023028    -5.173477
    6.885714     4.946321    -5.155119
    6.905263     4.869339    -5.132547
    6.924812     4.792449    -5.105733
    6.944361     4.715945    -5.074844
    6.963910     4.640194    -5.039887
    6.983459     4.565466    -5.000974
    7.003008     4.492103    -4.958231
    7.022557     4.420381    -4.911821
    7.042106     4.350589    -4.862021
    7.061654     4.282935    -4.808901
    7.081203     4.217658    -4.752779
    7.100752     4.154983    -4.693835
    7.120301     4.095048    -4.632300
    7.139850     4.038023    -4.568545
    7.159399     3.983987    -4.502674
    7.178947     3.933051    -4.435061
    7.198497     3.885278    -4.366006
    7.218046     3.840705    -4.295667
    7.237594     3.799319    -4.224301
    7.257143     3.761102    -4.152212
    7.276692     3.726051    -4.079617
    7.296241     3.694076    -4.006741
    7.315789     3.665095    -3.933723
    7.335339     3.639033    -3.860808
    7.354887     3.615778    -3.788218
    7.374436     3.595201    -3.716039
    7.393985     3.577227    -3.644322
    7.413534     3.561678    -3.573201
    7.433083     3.548439    -3.502775
    7.452632     3.537447    -3.433142
    7.472181     3.528565    -3.364269
    7.491729     3.521698    -3.296224
    7.511279     3.516775    -3.228912
    7.530828     3.513744    -3.162511
    7.550376     3.512554    -3.096861
    7.569925     3.513190    -3.032150
    7.589474     3.515634    -2.968150
    7.609023     3.519899    -2.905040
    7.628572     3.526012    -2.842870
    7.648120     3.533972    -2.781610
    7.667669     3.543820    -2.721386
    7.687218     3.555573    -2.662268
    7.706768     3.569206    -2.604419
    7.726316     3.584760    -2.547929
    7.745865     3.602176    -2.492899
    7.765414     3.621399    -2.439487
    7.784963     3.642388    -2.387905
    7.804512     3.665024    -2.338356
    7.824060     3.689163    -2.290925
    7.843609     3.714639    -2.245733
    7.863158     3.741251    -2.202847
    7.882707     3.768846    -2.162506
    7.902256     3.797130    -2.124566
    7.921804     3.825903    -2.089224
    7.941354     3.854899    -2.056298
    7.960903     3.883907    -2.025947
    7.980451     3.912667    -1.997922
    8.000000     3.940992    -1.972202
# 
# 07/31/2018 at 12:10 YAMBO_RT @ narro [start]
# 07/31/2018 at 12:10                  [end]
#
# .-Input file : yambo.in
# | optics                         # [R OPT] Optics
# | bse                            # [R BSE] Bethe Salpeter Equation.
# | BoseTemp= 0.000000     eV      # Bosonic Temperature
# | FFTGvecs= 1721         RL      # [FFT] Plane-waves
# | BSEmod= "retarded"             # [BSE] resonant/retarded/coupling
# | BSKmod= "IP"                   # [BSE] IP/Hartree/HF/ALDA/SEX/BSfxc
# | Gauge= "velocity"              # [BSE] Gauge (length|velocity)
# | #EvalKerr                      # [BSE] Compute the Kerr effect
# | #AnHall                        # [BSE] Add the anomalous Hall effect to eps if using length gauge
# | % BEnRange
# |  0.200000 | 8.000000 | eV      # [BSS] Energy range
# | %
# | % BDmRange
# |  0.300000 | 0.500000 | eV      # [BSS] Damping range
# | %
# | BEnSteps=  400                 # [BSS] Energy steps
# | % BLongDir
# |  1.000000 | 0.000000 | 0.000000 |        # [BSS] [cc] Electric Field
# | %
# | % BSEBands
# |   1 | 13 |                     # [BSK] Bands range
# | %
