#                                                                     
# :   :::   :::     ::::    ::::  :::::::::   ::::::::                
# :+:   :+: :+: :+:   +:+:+: :+:+:+ :+:    :+: :+:    :+              
#  +:+ +:+ +:+   +:+  +:+ +:+:+ +:+ +:+    +:+ +:+    +:+             
#   +#++: +#++:++#++: +#+  +:+  +#+ +#++:++#+  +#+    +:+             
#    +#+  +#+     +#+ +#+       +#+ +#+    +#+ +#+    +#+             
#    #+#  #+#     #+# #+#       #+# #+#    #+# #+#    #+#             
#    ###  ###     ### ###       ### #########   ########              
#                                                                     
#                                                                     
# Version 5.1.0 Revision 22083 Hash (prev commit) 5931770ec           
#                Branch is fixes/issue-540                            
#         MPI+OpenMP+SLK+SLEPC+HDF5_MPI_IO Build                      
#                http://www.yambo-code.org                            
#
# Polarizability  ( -<<X>> ) @ Q(1):   0.00000000     0.999999975E-5   0.00000000    [q->0 direction]
#
# Polarizability units: length
#
# [GEN] GF Energies                               : Slater exchange(X)+Perdew & Zunger(C)
# [GEN] Green`s Function                          : Resonant
#
# [GEN] Gauge                                     : Length
# [GEN] [r,Vnl] included                          : yes
#
# DIP band range                                  :  23  27
# DIP band range limits                           :  25  26
# DIP e/h energy range                            :  -1.00000000     -1.00000000    [eV]
# RL vectors in the sum                           :   995
# [r,Vnl] included                                : yes
# Bands ordered                                   : yes
# Direct v evaluation                             : no
# Approach used                                   : G-space v
# Dipoles computed                                : R V P
# Wavefunctions                                   : Slater exchange(X)+Perdew & Zunger(C)
#
#
# [K] Identifier                                  :   7923
# [K] Dimension                                   :  192
# [K] Bands                                       :  23  27
# [K] Exchange res                                : yes
# [K] Correlation res                             : no
# [K] Kernel`s coupling                           : no
# [K] Exchange cpl                                : no
# [K] Correlation cpl                             : no
# [K] W interaction is bare                       : no
# [K] ALDA kernel in R-space                      : yes
# [K] RL vectors exchange                         :   995
# [K] E/h energy range                            :  -1.00000000     -1.00000000    [eV]
# [K] Coupling range                              :   100.000000      100.000000    [o/o]
# [X] Response Kind                               : BAR
#                                                 
# [Haydock] Accuracy (requested)                  :  0.999999978E-2 [o/o]
# [Haydock] Accuracy (reached)                    :  0.714416150E-2 [o/o]
# [Haydock] Iterations                            :  22
#
#
#    E[1] [eV]          Im(alpha)          Re(alpha)          Im(alpha_o)        Re(alpha_o)        Im(alpha`)         Re(alpha`)
#
        0.000000           1.025398           14.86537           1.161636           15.87303           1.025398           14.86537
        0.005017           1.058158           15.03593           1.200327           16.06608           1.058158           15.03593
        0.010033           1.092215           15.21051           1.240629           16.26392           1.092215           15.21051
        0.015050           1.127635           15.38924           1.282629           16.46673           1.127635           15.38924
        0.020067           1.164490           15.57228           1.326419           16.67469           1.164490           15.57228
        0.025084           1.202855           15.75977           1.372100           16.88801           1.202855           15.75977
        0.030100           1.242811           15.95189           1.419777           17.10689           1.242811           15.95189
        0.035117           1.284443           16.14881           1.469563           17.33155           1.284443           16.14881
        0.040134           1.327843           16.35070           1.521580           17.56221           1.327843           16.35070
        0.045150           1.373109           16.55776           1.575959           17.79913           1.373109           16.55776
        0.050167           1.420345           16.77019           1.632838           18.04254           1.420345           16.77019
        0.055184           1.469663           16.98819           1.692369           18.29272           1.469663           16.98819
        0.060201           1.521183           17.21198           1.754711           18.54996           1.521183           17.21198
        0.065217           1.575034           17.44180           1.820039           18.81455           1.575034           17.44180
        0.070234           1.631353           17.67789           1.888540           19.08680           1.631353           17.67789
        0.075251           1.690287           17.92051           1.960414           19.36704           1.690287           17.92051
        0.080268           1.751997           18.16993           2.035879           19.65563           1.751997           18.16993
        0.085284           1.816652           18.42643           2.115171           19.95294           1.816652           18.42643
        0.090301           1.884439           18.69032           2.198541           20.25936           1.884439           18.69032
        0.095318           1.955554           18.96190           2.286268           20.57530           1.955554           18.96190
        0.100334           2.030213           19.24153           2.378647           20.90121           2.030213           19.24153
        0.105351           2.108646           19.52955           2.476002           21.23755           2.108646           19.52955
        0.110368           2.191107           19.82635           2.578686           21.58481           2.191107           19.82635
        0.115385           2.277865           20.13231           2.687083           21.94353           2.277865           20.13231
        0.120401           2.369214           20.44787           2.801606           22.31427           2.369214           20.44787
        0.125418           2.465474           20.77346           2.922715           22.69761           2.465474           20.77346
        0.130435           2.566995           21.10958           3.050904           23.09419           2.566995           21.10958
        0.135452           2.674153           21.45670           3.186720           23.50469           2.674153           21.45670
        0.140468           2.787360           21.81538           3.330759           23.92981           2.787360           21.81538
        0.145485           2.907068           22.18618           3.483675           24.37033           2.907068           22.18618
        0.150502           3.033767           22.56970           3.646192           24.82705           3.033767           22.56970
        0.155518           3.167999           22.96660           3.819099           25.30085           3.167999           22.96660
        0.160535           3.310352           23.37754           4.003274           25.79266           3.310352           23.37754
        0.165552           3.461476           23.80326           4.199684           26.30345           3.461476           23.80326
        0.170569           3.622083           24.24454           4.409401           26.83430           3.622083           24.24454
        0.175585           3.792962           24.70221           4.633611           27.38634           3.792962           24.70221
        0.180602           3.974980           25.17714           4.873637           27.96075           3.974980           25.17714
        0.185619           4.169100           25.67028           5.130951           28.55885           4.169100           25.67028
        0.190635           4.376379           26.18263           5.407192           29.18201           4.376379           26.18263
        0.195652           4.598002           26.71527           5.704194           29.83170           4.598002           26.71527
        0.200669           4.835281           27.26933           6.024016           30.50949           4.835281           27.26933
        0.205686           5.089681           27.84604           6.368967           31.21705           5.089681           27.84604
        0.210702           5.362835           28.44669           6.741652           31.95618           5.362835           28.44669
        0.215719           5.656566           29.07266           7.144997           32.72876           5.656566           29.07266
        0.220736           5.972932           29.72544           7.582329           33.53681           5.972932           29.72544
        0.225753           6.314236           30.40659           8.057405           34.38245           6.314236           30.40659
        0.230769           6.683081           31.11778           8.574510           35.26791           6.683081           31.11778
        0.235786           7.082388           31.86072           9.138510           36.19553           7.082388           31.86072
        0.240803           7.515489           32.63729           9.754977           37.16770           7.515489           32.63729
        0.245819           7.986149           33.44943           10.43029           38.18694           7.986149           33.44943
        0.250836           8.498655           34.29912           11.17176           39.25572           8.498655           34.29912
        0.255853           9.057893           35.18845           11.98782           40.37651           9.057893           35.18845
        0.260870           9.669459           36.11953           12.88819           41.55163           9.669459           36.11953
        0.265886           10.33975           37.09445           13.88410           42.78324           10.33975           37.09445
        0.270903           11.07612           38.11527           14.98854           44.07301           11.07612           38.11527
        0.275920           11.88703           39.18389           16.21660           45.42202           11.88703           39.18389
        0.280936           12.78222           40.30198           17.58578           46.83044           12.78222           40.30198
        0.285953           13.77295           41.47079           19.11638           48.29695           13.77295           41.47079
        0.290970           14.87221           42.69095           20.83196           49.81838           14.87221           42.69095
        0.295987           16.09503           43.96220           22.75976           51.38868           16.09503           43.96220
        0.301003           17.45869           45.28293           24.93114           52.99786           17.45869           45.28293
        0.306020           18.98314           46.64966           27.38193           54.63056           18.98314           46.64966
        0.311037           20.69119           48.05634           30.15262           56.26404           20.69119           48.05634
        0.316054           22.60877           49.49327           33.28806           57.86552           22.60877           49.49327
        0.321070           24.76498           50.94593           36.83654           59.38910           24.76498           50.94593
        0.326087           27.19191           52.39327           40.84774           60.77157           27.19191           52.39327
        0.331104           29.92390           53.80578           45.36871           61.92809           29.92390           53.80578
        0.336120           32.99608           55.14307           50.43738           62.74772           32.99608           55.14307
        0.341137           36.44187           56.35155           56.07254           63.09012           36.44187           56.35155
        0.346154           40.28885           57.36239           62.25980           62.78574           40.28885           57.36239
        0.351171           44.55313           58.09061           68.93446           61.64214           44.55313           58.09061
        0.356187           49.23207           58.43666           75.96378           59.46045           49.23207           58.43666
        0.361204           54.29715           58.29176           83.13562           56.06332           54.29715           58.29176
        0.366221           59.68888           57.54740           90.16155           51.33233           59.68888           57.54740
        0.371237           65.31751           56.10776           96.70157           45.24461           65.31751           56.10776
        0.376254           71.07133           53.90051           102.4096           37.89266           71.07133           53.90051
        0.381271           76.83099           50.87910           106.9835           29.47557           76.83099           50.87910
        0.386288           82.48040           47.01362           110.1992           20.26469           82.48040           47.01362
        0.391304           87.90535           42.27329           111.9151           10.56424           87.90535           42.27329
        0.396321           92.97266           36.61587           112.0588           0.689875           92.97266           36.61587
        0.401338           97.50002           29.99910           110.6186          -9.032211           97.50002           29.99910
        0.406355           101.2362           22.42094           107.6554          -18.26471           101.2362           22.42095
        0.411371           103.8746           13.97519           103.3242          -26.67964           103.8746           13.97519
        0.416388           105.1088           4.895964           97.87885          -34.00074           105.1088           4.895963
        0.421405           104.7146          -4.438923           91.64735          -40.04818           104.7146          -4.438923
        0.426421           102.6266          -13.56029           84.98225          -44.76179           102.6266          -13.56028
        0.431438           98.97121          -21.99778           78.20909          -48.19310           98.97120          -21.99778
        0.436455           94.04016          -29.37388           71.59002          -50.47477           94.04016          -29.37388
        0.441472           88.22144          -35.46136           65.31027          -51.78284           88.22144          -35.46136
        0.446488           81.91726          -40.19345           59.48224          -52.30402           81.91726          -40.19345
        0.451505           75.48170          -43.63345           54.15939          -52.21376           75.48170          -43.63345
        0.456522           69.18704          -45.92828           49.35273          -51.66468           69.18703          -45.92827
        0.461538           63.21852          -47.26287           45.04589          -50.78263           63.21852          -47.26286
        0.466555           57.68464          -47.82685           41.20652          -49.66766           57.68464          -47.82685
        0.471572           52.63548          -47.79410           37.79462          -48.39703           52.63548          -47.79410
        0.476589           48.08038          -47.31347           34.76796          -47.02921           48.08038          -47.31347
        0.481605           44.00312          -46.50656           32.08524          -45.60757           44.00312          -46.50656
        0.486622           40.37301          -45.46951           29.70799          -44.16389           40.37301          -45.46951
        0.491639           37.15253          -44.27647           27.60131          -42.72099           37.15253          -44.27647
        0.496656           34.30238          -42.98371           25.73427          -41.29505           34.30238          -42.98371
        0.501672           31.78420          -41.63314           24.07971          -39.89727           31.78420          -41.63314
        0.506689           29.56253          -40.25574           22.61419          -38.53526           29.56253          -40.25574
        0.511706           27.60524          -38.87410           21.31749          -37.21402           27.60523          -38.87410
        0.516722           25.88402          -37.50458           20.17241          -35.93674           25.88402          -37.50458
        0.521739           24.37421          -36.15891           19.16432          -34.70545           24.37421          -36.15891
        0.526756           23.05464          -34.84563           18.28096          -33.52142           23.05463          -34.84563
        0.531773           21.90729          -33.57097           17.51204          -32.38561           21.90729          -33.57097
        0.536789           20.91700          -32.33973           16.84904          -31.29900           20.91701          -32.33973
        0.541806           20.07109          -31.15593           16.28485          -30.26284           20.07109          -31.15593
        0.546823           19.35899          -30.02336           15.81355          -29.27893           19.35899          -30.02336
        0.551839           18.77187          -28.94606           15.43007          -28.34993           18.77187          -28.94606
        0.556856           18.30224          -27.92874           15.12983          -27.47948           18.30224          -27.92874
        0.561873           17.94345          -26.97718           14.90825          -26.67248           17.94345          -26.97718
        0.566890           17.68909          -26.09846           14.76019          -25.93515           17.68909          -26.09846
        0.571906           17.53220          -25.30131           14.67931          -25.27499           17.53220          -25.30131
        0.576923           17.46454          -24.59592           14.65718          -24.70050           17.46454          -24.59592
        0.581940           17.47536          -23.99387           14.68254          -24.22060           17.47536          -23.99387
        0.586957           17.55047          -23.50730           14.74049          -23.84348           17.55047          -23.50730
        0.591973           17.67117          -23.14768           14.81218          -23.57510           17.67117          -23.14768
        0.596990           17.81366          -22.92392           14.87516          -23.41720           17.81367          -22.92392
        0.602007           17.94933          -22.83989           14.90463          -23.36534           17.94932          -22.83989
        0.607023           18.04605          -22.89183           14.87595          -23.40740           18.04605          -22.89183
        0.612040           18.07128          -23.06626           14.76783          -23.52336           18.07127          -23.06625
        0.617057           17.99589          -23.33927           14.56575          -23.68671           17.99589          -23.33927
        0.622074           17.79876          -23.67793           14.26437          -23.86749           17.79875          -23.67792
        0.627090           17.47019          -24.04383           13.86825          -24.03634           17.47020          -24.04383
        0.632107           17.01348          -24.39816           13.39062          -24.16827           17.01348          -24.39816
        0.637124           16.44366          -24.70680           12.85047          -24.24533           16.44366          -24.70680
        0.642140           15.78427          -24.94421           12.26921          -24.25746           15.78427          -24.94421
        0.647157           15.06302          -25.09501           11.66764          -24.20194           15.06302          -25.09501
        0.652174           14.30760          -25.15371           11.06382          -24.08171           14.30761          -25.15371
        0.657191           13.54272          -25.12273           10.47200          -23.90348           13.54272          -25.12273
        0.662207           12.78830          -25.01003           9.902443          -23.67593           12.78830          -25.01003
        0.667224           12.05910          -24.82661           9.361849          -23.40831           12.05910          -24.82661
        0.672241           11.36501          -24.58463           8.853949          -23.10950           11.36501          -24.58463
        0.677258           10.71187          -24.29603           8.380250          -22.78750           10.71187          -24.29603
        0.682274           10.10237          -23.97173           7.940688          -22.44921           10.10237          -23.97173
        0.687291           9.536930          -23.62125           7.534141          -22.10038           9.536930          -23.62125
        0.692308           9.014445          -23.25259           7.158854          -21.74563           9.014446          -23.25259
        0.697324           8.532838          -22.87229           6.812725          -21.38865           8.532838          -22.87229
        0.702341           8.089506          -22.48558           6.493525          -21.03231           8.089506          -22.48558
        0.707358           7.681578          -22.09660           6.199007          -20.67881           7.681579          -22.09660
        0.712375           7.306153          -21.70852           5.927012          -20.32978           7.306153          -21.70852
        0.717391           6.960384          -21.32375           5.675506          -19.98642           6.960384          -21.32375
        0.722408           6.641600          -20.94411           5.442606          -19.64959           6.641600          -20.94411
        0.727425           6.347298          -20.57090           5.226596          -19.31988           6.347299          -20.57090
        0.732441           6.075198          -20.20506           5.025915          -18.99766           6.075199          -20.20506
        0.737458           5.823220          -19.84723           4.839155          -18.68315           5.823220          -19.84723
        0.742475           5.589484          -19.49779           4.665053          -18.37644           5.589485          -19.49779
        0.747492           5.372307          -19.15698           4.502476          -18.07752           5.372307          -19.15698
        0.752508           5.170174          -18.82488           4.350408          -17.78632           5.170172          -18.82488
        0.757525           4.981724          -18.50147           4.207938          -17.50271           4.981724          -18.50147
        0.762542           4.805746          -18.18666           4.074254          -17.22654           4.805746          -18.18666
        0.767559           4.641160          -17.88031           3.948629          -16.95761           4.641160          -17.88031
        0.772575           4.486990          -17.58221           3.830408          -16.69573           4.486990          -17.58221
        0.777592           4.342369          -17.29217           3.719006          -16.44066           4.342370          -17.29217
        0.782609           4.206516          -17.00993           3.613896          -16.19220           4.206517          -17.00993
        0.787625           4.078734          -16.73525           3.514606          -15.95012           4.078734          -16.73525
        0.792642           3.958395          -16.46787           3.420710          -15.71417           3.958395          -16.46787
        0.797659           3.844932          -16.20754           3.331821          -15.48416           3.844933          -16.20754
        0.802676           3.737842          -15.95400           3.247596          -15.25986           3.737841          -15.95400
        0.807692           3.636662          -15.70699           3.167719          -15.04104           3.636661          -15.70699
        0.812709           3.540980          -15.46626           3.091907          -14.82752           3.540979          -15.46626
        0.817726           3.450421          -15.23157           3.019902          -14.61907           3.450421          -15.23157
        0.822742           3.364651          -15.00269           2.951472          -14.41551           3.364649          -15.00269
        0.827759           3.283358          -14.77939           2.886406          -14.21666           3.283358          -14.77939
        0.832776           3.206267          -14.56143           2.824510          -14.02232           3.206267          -14.56143
        0.837793           3.133127          -14.34861           2.765612          -13.83232           3.133127          -14.34861
        0.842809           3.063711          -14.14074           2.709554          -13.64649           3.063710          -14.14074
        0.847826           2.997809          -13.93759           2.656192          -13.46469           2.997808          -13.93759
        0.852843           2.935236          -13.73899           2.605396          -13.28673           2.935235          -13.73899
        0.857860           2.875820          -13.54475           2.557049          -13.11249           2.875819          -13.54475
        0.862876           2.819410          -13.35471           2.511047          -12.94182           2.819409          -13.35471
        0.867893           2.765865          -13.16868           2.467292          -12.77457           2.765864          -13.16868
        0.872910           2.715061          -12.98651           2.425701          -12.61062           2.715060          -12.98650
        0.877926           2.666886          -12.80803           2.386198          -12.44984           2.666884          -12.80803
        0.882943           2.621238          -12.63312           2.348717          -12.29211           2.621237          -12.63312
        0.887960           2.578031          -12.46161           2.313199          -12.13732           2.578029          -12.46161
        0.892977           2.537185          -12.29338           2.279594          -11.98534           2.537183          -12.29338
        0.897993           2.498633          -12.12829           2.247861          -11.83609           2.498631          -12.12829
        0.903010           2.462317          -11.96622           2.217968          -11.68945           2.462315          -11.96622
        0.908027           2.428188          -11.80705           2.189885          -11.54532           2.428186          -11.80705
        0.913044           2.396208          -11.65066           2.163595          -11.40363           2.396206          -11.65066
        0.918060           2.366347          -11.49695           2.139089          -11.26427           2.366344          -11.49695
        0.923077           2.338585          -11.34582           2.116362          -11.12718           2.338582          -11.34582
        0.928094           2.312909          -11.19716           2.095420          -10.99227           2.312906          -11.19716
        0.933110           2.289319          -11.05089           2.076275          -10.85948           2.289315          -11.05088
        0.938127           2.267820          -10.90691           2.058950          -10.72874           2.267816          -10.90691
        0.943144           2.248431          -10.76517           2.043473          -10.59999           2.248426          -10.76516
        0.948161           2.231179          -10.62557           2.029886          -10.47319           2.231174          -10.62556
        0.953177           2.216099          -10.48806           2.018234          -10.34831           2.216094          -10.48806
        0.958194           2.203241          -10.35259           2.008576          -10.22530           2.203235          -10.35258
        0.963211           2.192662          -10.21910           2.000979          -10.10415           2.192656          -10.21910
        0.968227           2.184433          -10.08758           1.995521          -9.984856           2.184427          -10.08757
        0.973244           2.178636          -9.957997           1.992288          -9.867433           2.178629          -9.957988
        0.978261           2.175364          -9.830348           1.991378          -9.751902           2.175358          -9.830336
        0.983278           2.174724          -9.704642           1.992899          -9.638321           2.174717          -9.704626
        0.988294           2.176832          -9.580918           1.996964          -9.526757           2.176826          -9.580900
        0.993311           2.181818          -9.459234           2.003695          -9.417320           2.181814          -9.459212
        0.998328           2.189823          -9.339670           2.013219          -9.310142           2.189821          -9.339644
        1.003345           2.200995          -9.222345           2.025663          -9.205395           2.200995          -9.222315
        1.008361           2.215491          -9.107414           2.041152          -9.103300           2.215495          -9.107376
        1.013378           2.233468          -8.995068           2.059800          -9.004118           2.233479          -8.995027
        1.018395           2.255087          -8.885560           2.081700          -8.908175           2.255106          -8.885512
        1.023411           2.280495          -8.779187           2.106918          -8.815849           2.280526          -8.779135
        1.028428           2.309824          -8.676313           2.135474          -8.727585           2.309868          -8.676257
        1.033445           2.343175          -8.577373           2.167323          -8.643888           2.343238          -8.577315
        1.038462           2.380606          -8.482873           2.202340          -8.565336           2.380693          -8.482816
        1.043478           2.422109          -8.393394           2.240287          -8.492546           2.422222          -8.393344
        1.048495           2.467593          -8.309591           2.280794          -8.426184           2.467735          -8.309556
        1.053512           2.516846          -8.232197           2.323325          -8.366928           2.517021          -8.232187
        1.058528           2.569520          -8.161991           2.367162          -8.315426           2.569726          -8.162022
        1.063545           2.625090          -8.099790           2.411380          -8.272264           2.625322          -8.099874
        1.068562           2.682831          -8.046410           2.454850          -8.237886           2.683078          -8.046565
        1.073579           2.741791          -8.002614           2.496251          -8.212539           2.742034          -8.002855
        1.078595           2.800774          -7.969058           2.534110          -8.196197           2.800984          -7.969398
        1.083612           2.858351          -7.946219           2.566871          -8.188492           2.858493          -7.946659
        1.088629           2.912879          -7.934307           2.592984          -8.188681           2.912911          -7.934836
        1.093645           2.962558          -7.933201           2.611035          -8.195623           2.962440          -7.933791
        1.098662           3.005511          -7.942365           2.619851          -8.207826           3.005213          -7.942970
        1.103679           3.039904          -7.960821           2.618626          -8.223498           3.039408          -7.961379
        1.108696           3.064070          -7.987128           2.606988          -8.240684           3.063382          -7.987573
        1.113712           3.076650          -8.019437           2.585049          -8.257395           3.075807          -8.019701
        1.118729           3.076721          -8.055570           2.553380          -8.271746           3.075779          -8.055600
        1.123746           3.063883          -8.093153           2.512960          -8.282104           3.062917          -8.092920
        1.128763           3.038303          -8.129788           2.465060          -8.287152           3.037396          -8.129292
        1.133779           3.000695          -8.163205           2.411129          -8.285961           2.999923          -8.162474
        1.138796           2.952246          -8.191422           2.352683          -8.277983           2.951671          -8.190502
        1.143813           2.894502          -8.212841           2.291195          -8.263021           2.894166          -8.211799
        1.148829           2.829233          -8.226315           2.228021          -8.241175           2.829151          -8.225223
        1.153846           2.758288          -8.231166           2.164345          -8.212778           2.758457          -8.230089
        1.158863           2.683475          -8.227133           2.101160          -8.178329           2.683872          -8.226128
        1.163880           2.606467          -8.214319           2.039263          -8.138414           2.607057          -8.213434
        1.168896           2.528737          -8.193119           1.979259          -8.093677           2.529482          -8.192383
        1.173913           2.451528          -8.164126           1.921591          -8.044765           2.452385          -8.163560
        1.178930           2.375842          -8.128062           1.866560          -7.992302           2.376769          -8.127671
        1.183947           2.302453          -8.085715           1.814348          -7.936874           2.303415          -8.085499
        1.188963           2.231933          -8.037885           1.765051          -7.879014           2.232898          -8.037838
        1.193980           2.164674          -7.985351           1.718687          -7.819198           2.165616          -7.985460
        1.198997           2.100924          -7.928843           1.675225          -7.757843           2.101822          -7.929094
        1.204013           2.040814          -7.869033           1.634597          -7.695314           2.041650          -7.869411
        1.209030           1.984383          -7.806522           1.596711          -7.631924           1.985146          -7.807009
        1.214047           1.931607          -7.741838           1.561458          -7.567940           1.932288          -7.742423
        1.219064           1.882411          -7.675448           1.528722          -7.503586           1.883002          -7.676114
        1.224080           1.836689          -7.607751           1.498383          -7.439055           1.837185          -7.608485
        1.229097           1.794312          -7.539090           1.470325          -7.374505           1.794710          -7.539879
        1.234114           1.755142          -7.469753           1.444432          -7.310070           1.755441          -7.470588
        1.239130           1.719037          -7.399989           1.420598          -7.245862           1.719234          -7.400859
        1.244147           1.685855          -7.330005           1.398722          -7.181975           1.685948          -7.330901
        1.249164           1.655458          -7.259975           1.378712          -7.118490           1.655447          -7.260889
        1.254181           1.627718          -7.190046           1.360482          -7.055472           1.627602          -7.190967
        1.259197           1.602515          -7.120343           1.343957          -6.992984           1.602291          -7.121265
        1.264214           1.579737          -7.050971           1.329066          -6.931076           1.579405          -7.051884
        1.269231           1.559286          -6.982018           1.315748          -6.869792           1.558845          -6.982915
        1.274248           1.541072          -6.913567           1.303947          -6.809182           1.540518          -6.914437
        1.279264           1.525017          -6.845684           1.293614          -6.749289           1.524349          -6.846519
        1.284281           1.511052          -6.778436           1.284703          -6.690152           1.510268          -6.779223
        1.289298           1.499118          -6.711883           1.277173          -6.631821           1.498216          -6.712613
        1.294314           1.489166          -6.646087           1.270985          -6.574342           1.488144          -6.646745
        1.299331           1.481151          -6.581110           1.266100          -6.517766           1.480009          -6.581681
        1.304348           1.475037          -6.517018           1.262481          -6.462150           1.473775          -6.517484
        1.309365           1.470794          -6.453881           1.260085          -6.407549           1.469412          -6.454224
        1.314381           1.468390          -6.391776           1.258868          -6.354030           1.466893          -6.391974
        1.319398           1.467800          -6.330791           1.258779          -6.301662           1.466193          -6.330821
        1.324415           1.468992          -6.271023           1.259759          -6.250514           1.467284          -6.270858
        1.329432           1.471933          -6.212581           1.261739          -6.200663           1.470138          -6.212193
        1.334448           1.476580          -6.155584           1.264640          -6.152184           1.474716          -6.154942
        1.339465           1.482877          -6.100164           1.268366          -6.105153           1.480970          -6.099235
        1.344482           1.490752          -6.046464           1.272807          -6.059641           1.488837          -6.045216
        1.349498           1.500113          -5.994638           1.277836          -6.015718           1.498233          -5.993038
        1.354515           1.510839          -5.944844           1.283305          -5.973436           1.509046          -5.942863
        1.359532           1.522779          -5.897242           1.289048          -5.932836           1.521139          -5.894857
        1.364548           1.535744          -5.851987           1.294879          -5.893939           1.534336          -5.849183
        1.369565           1.549508          -5.809222           1.300600          -5.856730           1.548420          -5.805995
        1.374582           1.563802          -5.769065           1.305998          -5.821169           1.563136          -5.765429
        1.379599           1.578317          -5.731601           1.310858          -5.787173           1.578182          -5.727592
        1.384615           1.592712          -5.696861           1.314970          -5.754610           1.593221          -5.692540
        1.389632           1.606614          -5.664822           1.318141          -5.723308           1.607880          -5.660281
        1.394649           1.619641          -5.635385           1.320210          -5.693049           1.621765          -5.630748
        1.399666           1.631412          -5.608373           1.321055          -5.663581           1.634477          -5.603797
        1.404682           1.641571          -5.583527           1.320606          -5.634626           1.645632          -5.579200
        1.409699           1.649807          -5.560510           1.318853          -5.605890           1.654881          -5.556643
        1.414716           1.655878          -5.538914           1.315843          -5.577081           1.661933          -5.535735
        1.419732           1.659626          -5.518283           1.311683          -5.547931           1.666578          -5.516022
        1.424749           1.660991          -5.498129           1.306530          -5.518197           1.668702          -5.497009
        1.429766           1.660017          -5.477962           1.300581          -5.487675           1.668295          -5.478182
        1.434783           1.656849          -5.457317           1.294061          -5.456212           1.665453          -5.459039
        1.439799           1.651721          -5.435773           1.287212          -5.423705           1.660374          -5.439109
        1.444816           1.644942          -5.412976           1.280277          -5.390094           1.653339          -5.417984
        1.449833           1.636874          -5.388651           1.273495          -5.355370           1.644698          -5.395329
        1.454850           1.627910          -5.362604           1.267090          -5.319555           1.634843          -5.370889
        1.459866           1.618456          -5.334732           1.261266          -5.282707           1.624191          -5.344502
        1.464883           1.608909          -5.305002           1.256208          -5.244905           1.613159          -5.316084
        1.469900           1.599644          -5.273458           1.252074          -5.206249           1.602153          -5.285626
        1.474916           1.591004          -5.240194           1.249004          -5.166846           1.591550          -5.253186
        1.479933           1.583293          -5.205358           1.247116          -5.126814           1.581692          -5.218874
        1.484950           1.576773          -5.169127           1.246508          -5.086274           1.572883          -5.182834
        1.489967           1.571663          -5.131704           1.247268          -5.045350           1.565387          -5.145247
        1.494983           1.568141          -5.093309           1.249464          -5.004162           1.559428          -5.106311
        1.500000           1.566345          -5.054173           1.253159          -4.962837           1.555195          -5.066235
# 
# 04/15/2023 at 20:02 yambo @ unimi-XPS-8930 [start]
# 04/15/2023 at 20:02                        [end]
#  
# Timing   [Min/Max/Average]: 02s/02s/02s
#
# .-Input file  yambo.in_generated
# | optics                           # [R] Linear Response optical properties
# | bss                              # [R] BSE solver
# | bse                              # [R][BSE] Bethe Salpeter Equation.
# | tddft                            # [R][K] Use TDDFT kernel
# | BoseTemp= 0.000000         eV    # Bosonic Temperature
# | FFTGvecs=  995             RL    # [FFT] Plane-waves
# | BS_nCPU_LinAlg_INV= 1            # [PARALLEL] CPUs for Linear Algebra (if -1 it is automatically set)
# | BS_nCPU_LinAlg_DIAGO= 1          # [PARALLEL] CPUs for Linear Algebra (if -1 it is automatically set)
# | X_Threads= 1                     # [OPENMP/X] Number of threads for response functions
# | DIP_Threads= 1                   # [OPENMP/X] Number of threads for dipoles
# | K_Threads= 1                     # [OPENMP/BSK] Number of threads for response functions
# | NonPDirs= "X"                    # [X/BSS] Non periodic chartesian directions (X,Y,Z,XY...)
# | BSKmod= "ALDA"                   # [BSE] IP/Hartree/HF/ALDA/SEX/BSfxc
# | BSEmod= "resonant"               # [BSE] resonant/retarded/coupling
# | BSSmod= "hd"                     # [BSS] (h)aydock/(d)iagonalization/(s)lepc/(i)nversion/(t)ddft`
# | DipComputed= "R V P"             # [DIP] [default R P V; extra P2 Spin Orb]
# | BSENGexx=  995             RL    # [BSK] Exchange components
# | % BSEQptR
# |  1 | 1 |                             # [BSK] Transferred momenta range
# | %
# | % BSEBands
# |  23 | 27 |                           # [BSK] Bands range
# | %
# | % BEnRange
# |  0.000000 | 1.500000 |         eV    # [BSS] Energy range
# | %
# | % BDmRange
# |  0.030000 | 0.100000 |         eV    # [BSS] Damping range
# | %
# | BEnSteps= 300                    # [BSS] Energy steps
# | % BLongDir
# |   0.00000    | 0.100000E-4 |  0.00000    # [BSS] [cc] Electric Field
# | %
# | BSEprop= "abs jdos"              # [BSS] Can be any among abs/jdos/kerr/magn/dich/photolum/esrt
# | BSEdips= "none"                  # [BSS] Can be "trace/none" or "xy/xz/yz" to define off-diagonal rotation plane
# | #WRbsWF                        # [BSS] Write to disk excitonic the WFs
# | BSHayTrs= 0.010000               # [BSS] Relative [o/o] Haydock threshold. Strict(>0)/Average(<0)
