#                                                                     
# :   :::   :::     ::::    ::::  :::::::::   ::::::::                
# :+:   :+: :+: :+:   +:+:+: :+:+:+ :+:    :+: :+:    :+              
#  +:+ +:+ +:+   +:+  +:+ +:+:+ +:+ +:+    +:+ +:+    +:+             
#   +#++: +#++:++#++: +#+  +:+  +#+ +#++:++#+  +#+    +:+             
#    +#+  +#+     +#+ +#+       +#+ +#+    +#+ +#+    +#+             
#    #+#  #+#     #+# #+#       #+# #+#    #+# #+#    #+#             
#    ###  ###     ### ###       ### #########   ########              
#                                                                     
#                                                                     
# Version 5.1.0 Revision 22083 Hash (prev commit) 5931770ec           
#                Branch is fixes/issue-540                            
#         MPI+OpenMP+SLK+SLEPC+HDF5_MPI_IO Build                      
#                http://www.yambo-code.org                            
#
# Polarizability  ( -<<X>> ) @ Q(1):   0.00000000     0.999999975E-5   0.00000000    [q->0 direction]
#
# Polarizability units: length
#
# [GEN] GF Energies                               : Slater exchange(X)+Perdew & Zunger(C)
# [GEN] Green`s Function                          : Resonant
#
# [GEN] Gauge                                     : Length
# [GEN] [r,Vnl] included                          : yes
#
# DIP band range                                  :  23  27
# DIP band range limits                           :  25  26
# DIP e/h energy range                            :  -1.00000000     -1.00000000    [eV]
# RL vectors in the sum                           :   995
# [r,Vnl] included                                : yes
# Bands ordered                                   : yes
# Direct v evaluation                             : no
# Approach used                                   : G-space v
# Dipoles computed                                : R V P
# Wavefunctions                                   : Slater exchange(X)+Perdew & Zunger(C)
#
#
# [K] Identifier                                  :   7923
# [K] Dimension                                   :  192
# [K] Bands                                       :  23  27
# [K] Exchange res                                : yes
# [K] Correlation res                             : no
# [K] Kernel`s coupling                           : no
# [K] Exchange cpl                                : no
# [K] Correlation cpl                             : no
# [K] W interaction is bare                       : no
# [K] ALDA kernel in R-space                      : yes
# [K] RL vectors exchange                         :   995
# [K] E/h energy range                            :  -1.00000000     -1.00000000    [eV]
# [K] Coupling range                              :   100.000000      100.000000    [o/o]
# [X] Response Kind                               : BAR
#
#
#    E[1] [eV]          Im(alpha)          Re(alpha)          Im(alpha_o)        Re(alpha_o)
#
        0.000000           1.025411           14.86548           1.161636           15.87303
        0.005017           1.058171           15.03605           1.200327           16.06608
        0.010033           1.092228           15.21063           1.240629           16.26392
        0.015050           1.127649           15.38935           1.282629           16.46673
        0.020067           1.164505           15.57239           1.326419           16.67469
        0.025084           1.202871           15.75989           1.372100           16.88801
        0.030100           1.242827           15.95202           1.419777           17.10689
        0.035117           1.284461           16.14893           1.469563           17.33155
        0.040134           1.327861           16.35083           1.521580           17.56221
        0.045150           1.373128           16.55789           1.575959           17.79913
        0.050167           1.420364           16.77032           1.632838           18.04254
        0.055184           1.469683           16.98831           1.692369           18.29272
        0.060201           1.521204           17.21212           1.754711           18.54996
        0.065217           1.575057           17.44195           1.820039           18.81455
        0.070234           1.631375           17.67804           1.888540           19.08680
        0.075251           1.690313           17.92067           1.960414           19.36704
        0.080268           1.752022           18.17007           2.035879           19.65563
        0.085284           1.816679           18.42658           2.115171           19.95294
        0.090301           1.884467           18.69047           2.198541           20.25936
        0.095318           1.955584           18.96206           2.286268           20.57530
        0.100334           2.030245           19.24170           2.378647           20.90121
        0.105351           2.108678           19.52972           2.476002           21.23755
        0.110368           2.191141           19.82652           2.578686           21.58481
        0.115385           2.277900           20.13249           2.687083           21.94353
        0.120401           2.369251           20.44805           2.801606           22.31427
        0.125418           2.465514           20.77365           2.922715           22.69761
        0.130435           2.567036           21.10977           3.050904           23.09419
        0.135452           2.674197           21.45690           3.186720           23.50469
        0.140468           2.787406           21.81560           3.330759           23.92981
        0.145485           2.907118           22.18639           3.483675           24.37033
        0.150502           3.033820           22.56993           3.646192           24.82705
        0.155518           3.168054           22.96682           3.819099           25.30085
        0.160535           3.310409           23.37776           4.003274           25.79266
        0.165552           3.461539           23.80350           4.199684           26.30345
        0.170569           3.622150           24.24480           4.409401           26.83430
        0.175585           3.793035           24.70245           4.633611           27.38634
        0.180602           3.975053           25.17739           4.873637           27.96075
        0.185619           4.169179           25.67054           5.130951           28.55885
        0.190635           4.376465           26.18291           5.407192           29.18201
        0.195652           4.598093           26.71556           5.704194           29.83170
        0.200669           4.835380           27.26964           6.024016           30.50949
        0.205686           5.089787           27.84635           6.368967           31.21705
        0.210702           5.362947           28.44700           6.741652           31.95618
        0.215719           5.656687           29.07301           7.144997           32.72876
        0.220736           5.973064           29.72581           7.582329           33.53681
        0.225753           6.314382           30.40697           8.057405           34.38245
        0.230769           6.683228           31.11814           8.574510           35.26791
        0.235786           7.082551           31.86113           9.138510           36.19553
        0.240803           7.515664           32.63769           9.754977           37.16770
        0.245819           7.986342           33.44986           10.43029           38.18694
        0.250836           8.498861           34.29956           11.17176           39.25572
        0.255853           9.058120           35.18893           11.98782           40.37651
        0.260870           9.669703           36.12001           12.88819           41.55163
        0.265886           10.34002           37.09497           13.88410           42.78324
        0.270903           11.07642           38.11581           14.98854           44.07301
        0.275920           11.88735           39.18444           16.21660           45.42202
        0.280936           12.78257           40.30257           17.58578           46.83044
        0.285953           13.77334           41.47139           19.11638           48.29695
        0.290970           14.87265           42.69158           20.83196           49.81838
        0.295987           16.09551           43.96288           22.75976           51.38868
        0.301003           17.45923           45.28360           24.93114           52.99786
        0.306020           18.98373           46.65041           27.38193           54.63056
        0.311037           20.69184           48.05713           30.15262           56.26404
        0.316054           22.60951           49.49407           33.28806           57.86552
        0.321070           24.76580           50.94675           36.83654           59.38910
        0.326087           27.19283           52.39413           40.84774           60.77157
        0.331104           29.92493           53.80664           45.36871           61.92809
        0.336120           32.99725           55.14395           50.43738           62.74772
        0.341137           36.44322           56.35245           56.07254           63.09012
        0.346154           40.29039           57.36333           62.25980           62.78574
        0.351171           44.55488           58.09148           68.93446           61.64214
        0.356187           49.23403           58.43750           75.96378           59.46045
        0.361204           54.29938           58.29246           83.13562           56.06332
        0.366221           59.69141           57.54797           90.16155           51.33233
        0.371237           65.32030           56.10812           96.70157           45.24461
        0.376254           71.07445           53.90052           102.4096           37.89266
        0.381271           76.83437           50.87871           106.9835           29.47557
        0.386288           82.48402           47.01268           110.1992           20.26469
        0.391304           87.90907           42.27170           111.9151           10.56424
        0.396321           92.97633           36.61356           112.0588           0.689875
        0.401338           97.50346           29.99603           110.6186          -9.032211
        0.406355           101.2391           22.41717           107.6554          -18.26471
        0.411371           103.8769           13.97079           103.3242          -26.67964
        0.416388           105.1102           4.891165           97.87885          -34.00074
        0.421405           104.7150          -4.443915           91.64735          -40.04818
        0.426421           102.6261          -13.56511           84.98225          -44.76179
        0.431438           98.96977          -22.00228           78.20909          -48.19310
        0.436455           94.03814          -29.37776           71.59002          -50.47477
        0.441472           88.21888          -35.46465           65.31027          -51.78284
        0.446488           81.91447          -40.19605           59.48224          -52.30402
        0.451505           75.47886          -43.63542           54.15939          -52.21376
        0.456522           69.18427          -45.92971           49.35273          -51.66468
        0.461538           63.21585          -47.26385           45.04589          -50.78263
        0.466555           57.68218          -47.82745           41.20652          -49.66766
        0.471572           52.63320          -47.79444           37.79462          -48.39703
        0.476589           48.07833          -47.31358           34.76796          -47.02921
        0.481605           44.00129          -46.50653           32.08524          -45.60757
        0.486622           40.37137          -45.46931           29.70799          -44.16389
        0.491639           37.15105          -44.27623           27.60131          -42.72099
        0.496656           34.30103          -42.98340           25.73427          -41.29505
        0.501672           31.78303          -41.63282           24.07971          -39.89727
        0.506689           29.56145          -40.25539           22.61419          -38.53526
        0.511706           27.60428          -38.87375           21.31749          -37.21402
        0.516722           25.88315          -37.50422           20.17241          -35.93674
        0.521739           24.37341          -36.15856           19.16432          -34.70545
        0.526756           23.05392          -34.84527           18.28096          -33.52142
        0.531773           21.90663          -33.57062           17.51204          -32.38561
        0.536789           20.91640          -32.33941           16.84904          -31.29900
        0.541806           20.07052          -31.15562           16.28485          -30.26284
        0.546823           19.35845          -30.02307           15.81355          -29.27893
        0.551839           18.77136          -28.94577           15.43007          -28.34993
        0.556856           18.30176          -27.92848           15.12983          -27.47948
        0.561873           17.94300          -26.97691           14.90825          -26.67248
        0.566890           17.68864          -26.09820           14.76019          -25.93515
        0.571906           17.53177          -25.30104           14.67931          -25.27499
        0.576923           17.46411          -24.59566           14.65718          -24.70050
        0.581940           17.47495          -23.99356           14.68254          -24.22060
        0.586957           17.55008          -23.50699           14.74049          -23.84348
        0.591973           17.67080          -23.14738           14.81218          -23.57510
        0.596990           17.81330          -22.92359           14.87516          -23.41720
        0.602007           17.94898          -22.83953           14.90463          -23.36534
        0.607023           18.04576          -22.89145           14.87595          -23.40740
        0.612040           18.07102          -23.06588           14.76783          -23.52336
        0.617057           17.99568          -23.33887           14.56575          -23.68671
        0.622074           17.79860          -23.67753           14.26437          -23.86749
        0.627090           17.47010          -24.04343           13.86825          -24.03634
        0.632107           17.01342          -24.39777           13.39062          -24.16827
        0.637124           16.44364          -24.70646           12.85047          -24.24533
        0.642140           15.78429          -24.94389           12.26921          -24.25746
        0.647157           15.06307          -25.09472           11.66764          -24.20194
        0.652174           14.30767          -25.15346           11.06382          -24.08171
        0.657191           13.54279          -25.12251           10.47200          -23.90348
        0.662207           12.78837          -25.00983           9.902443          -23.67593
        0.667224           12.05917          -24.82645           9.361849          -23.40831
        0.672241           11.36507          -24.58449           8.853949          -23.10950
        0.677258           10.71194          -24.29592           8.380250          -22.78750
        0.682274           10.10243          -23.97164           7.940688          -22.44921
        0.687291           9.536983          -23.62116           7.534141          -22.10038
        0.692308           9.014494          -23.25252           7.158854          -21.74563
        0.697324           8.532878          -22.87221           6.812725          -21.38865
        0.702341           8.089540          -22.48554           6.493525          -21.03231
        0.707358           7.681612          -22.09654           6.199007          -20.67881
        0.712375           7.306173          -21.70848           5.927012          -20.32978
        0.717391           6.960403          -21.32372           5.675506          -19.98642
        0.722408           6.641616          -20.94407           5.442606          -19.64959
        0.727425           6.347311          -20.57086           5.226596          -19.31988
        0.732441           6.075208          -20.20503           5.025915          -18.99766
        0.737458           5.823227          -19.84720           4.839155          -18.68315
        0.742475           5.589490          -19.49776           4.665053          -18.37644
        0.747492           5.372311          -19.15696           4.502476          -18.07752
        0.752508           5.170176          -18.82486           4.350408          -17.78632
        0.757525           4.981725          -18.50145           4.207938          -17.50271
        0.762542           4.805745          -18.18664           4.074254          -17.22654
        0.767559           4.641159          -17.88029           3.948629          -16.95761
        0.772575           4.486990          -17.58219           3.830408          -16.69573
        0.777592           4.342366          -17.29216           3.719006          -16.44066
        0.782609           4.206514          -17.00992           3.613896          -16.19220
        0.787625           4.078731          -16.73523           3.514606          -15.95012
        0.792642           3.958391          -16.46786           3.420710          -15.71417
        0.797659           3.844930          -16.20753           3.331821          -15.48416
        0.802676           3.737838          -15.95398           3.247596          -15.25986
        0.807692           3.636655          -15.70697           3.167719          -15.04104
        0.812709           3.540974          -15.46625           3.091907          -14.82752
        0.817726           3.450418          -15.23156           3.019902          -14.61907
        0.822742           3.364644          -15.00267           2.951472          -14.41551
        0.827759           3.283352          -14.77938           2.886406          -14.21666
        0.832776           3.206261          -14.56142           2.824510          -14.02232
        0.837793           3.133124          -14.34860           2.765612          -13.83232
        0.842809           3.063706          -14.14073           2.709554          -13.64649
        0.847826           2.997804          -13.93758           2.656192          -13.46469
        0.852843           2.935230          -13.73898           2.605396          -13.28673
        0.857860           2.875816          -13.54475           2.557049          -13.11249
        0.862876           2.819406          -13.35470           2.511047          -12.94182
        0.867893           2.765861          -13.16867           2.467292          -12.77457
        0.872910           2.715055          -12.98650           2.425701          -12.61062
        0.877926           2.666880          -12.80803           2.386198          -12.44984
        0.882943           2.621233          -12.63311           2.348717          -12.29211
        0.887960           2.578027          -12.46162           2.313199          -12.13732
        0.892977           2.537181          -12.29337           2.279594          -11.98534
        0.897993           2.498629          -12.12829           2.247861          -11.83609
        0.903010           2.462313          -11.96622           2.217968          -11.68945
        0.908027           2.428186          -11.80705           2.189885          -11.54532
        0.913044           2.396205          -11.65066           2.163595          -11.40363
        0.918060           2.366344          -11.49696           2.139089          -11.26427
        0.923077           2.338583          -11.34582           2.116362          -11.12718
        0.928094           2.312907          -11.19716           2.095420          -10.99227
        0.933110           2.289318          -11.05089           2.076275          -10.85948
        0.938127           2.267818          -10.90692           2.058950          -10.72874
        0.943144           2.248430          -10.76516           2.043473          -10.59999
        0.948161           2.231177          -10.62557           2.029886          -10.47319
        0.953177           2.216098          -10.48806           2.018234          -10.34831
        0.958194           2.203239          -10.35259           2.008576          -10.22530
        0.963211           2.192660          -10.21911           2.000979          -10.10415
        0.968227           2.184432          -10.08759           1.995521          -9.984856
        0.973244           2.178635          -9.958000           1.992288          -9.867433
        0.978261           2.175363          -9.830355           1.991378          -9.751902
        0.983278           2.174721          -9.704650           1.992899          -9.638321
        0.988294           2.176829          -9.580927           1.996964          -9.526757
        0.993311           2.181814          -9.459249           2.003695          -9.417320
        0.998328           2.189818          -9.339682           2.013219          -9.310142
        1.003345           2.200988          -9.222363           2.025663          -9.205395
        1.008361           2.215479          -9.107430           2.041152          -9.103300
        1.013378           2.233452          -8.995086           2.059800          -9.004118
        1.018395           2.255065          -8.885579           2.081700          -8.908175
        1.023411           2.280466          -8.779209           2.106918          -8.815849
        1.028428           2.309786          -8.676337           2.135474          -8.727585
        1.033445           2.343127          -8.577390           2.167323          -8.643888
        1.038462           2.380547          -8.482882           2.202340          -8.565336
        1.043478           2.422037          -8.393389           2.240287          -8.492546
        1.048495           2.467509          -8.309566           2.280794          -8.426184
        1.053512           2.516754          -8.232146           2.323325          -8.366928
        1.058528           2.569424          -8.161908           2.367162          -8.315426
        1.063545           2.625002          -8.099669           2.411380          -8.272264
        1.068562           2.682764          -8.046247           2.454850          -8.237886
        1.073579           2.741761          -8.002408           2.496251          -8.212539
        1.078595           2.800802          -7.968815           2.534110          -8.196197
        1.083612           2.858456          -7.945954           2.566871          -8.188492
        1.088629           2.913077          -7.934047           2.592984          -8.188681
        1.093645           2.962855          -7.932973           2.611035          -8.195623
        1.098662           3.005902          -7.942212           2.619851          -8.207826
        1.103679           3.040370          -7.960771           2.618626          -8.223498
        1.108696           3.064574          -7.987216           2.606988          -8.240684
        1.113712           3.077150          -8.019674           2.585049          -8.257395
        1.118729           3.077171          -8.055960           2.553380          -8.271746
        1.123746           3.064236          -8.093676           2.512960          -8.282104
        1.128763           3.038518          -8.130410           2.465060          -8.287152
        1.133779           3.000752          -8.163886           2.411129          -8.285961
        1.138796           2.952133          -8.192110           2.352683          -8.277983
        1.143813           2.894223          -8.213497           2.291195          -8.263021
        1.148829           2.828807          -8.226898           2.228021          -8.241175
        1.153846           2.757740          -8.231647           2.164345          -8.212778
        1.158863           2.682835          -8.227488           2.101160          -8.178329
        1.163880           2.605767          -8.214534           2.039263          -8.138414
        1.168896           2.528008          -8.193189           1.979259          -8.093677
        1.173913           2.450799          -8.164059           1.921591          -8.044765
        1.178930           2.375139          -8.127865           1.866560          -7.992302
        1.183947           2.301796          -8.085389           1.814348          -7.936874
        1.188963           2.231340          -8.037451           1.765051          -7.879014
        1.193980           2.164159          -7.984821           1.718687          -7.819198
        1.198997           2.100499          -7.928236           1.675225          -7.757843
        1.204013           2.040486          -7.868359           1.634597          -7.695314
        1.209030           1.984160          -7.805794           1.596711          -7.631924
        1.214047           1.931493          -7.741077           1.561458          -7.567940
        1.219064           1.882411          -7.674658           1.528722          -7.503586
        1.224080           1.836804          -7.606947           1.498383          -7.439055
        1.229097           1.794546          -7.538290           1.470325          -7.374505
        1.234114           1.755497          -7.468965           1.444432          -7.310070
        1.239130           1.719514          -7.399229           1.420598          -7.245862
        1.244147           1.686454          -7.329294           1.398722          -7.181975
        1.249164           1.656181          -7.259316           1.378712          -7.118490
        1.254181           1.628564          -7.189465           1.360482          -7.055472
        1.259197           1.603481          -7.119857           1.343957          -6.992984
        1.264214           1.580822          -7.050598           1.329066          -6.931076
        1.269231           1.560481          -6.981782           1.315748          -6.869792
        1.274248           1.542368          -6.913493           1.303947          -6.809182
        1.279264           1.526403          -6.845793           1.293614          -6.749289
        1.284281           1.512509          -6.778755           1.284703          -6.690152
        1.289298           1.500622          -6.712443           1.277173          -6.631821
        1.294314           1.490685          -6.646915           1.270985          -6.574342
        1.299331           1.482648          -6.582233           1.266100          -6.517766
        1.304348           1.476463          -6.518462           1.262481          -6.462150
        1.309365           1.472088          -6.455661           1.260085          -6.407549
        1.314381           1.469486          -6.393904           1.258868          -6.354030
        1.319398           1.468613          -6.333267           1.258779          -6.301662
        1.324415           1.469437          -6.273831           1.259759          -6.250514
        1.329432           1.471911          -6.215676           1.261739          -6.200663
        1.334448           1.475994          -6.158907           1.264640          -6.152184
        1.339465           1.481630          -6.103625           1.268366          -6.105153
        1.344482           1.488761          -6.049938           1.272807          -6.059641
        1.349498           1.497310          -5.997974           1.277836          -6.015718
        1.354515           1.507189          -5.947863           1.283305          -5.973436
        1.359532           1.518283          -5.899732           1.289048          -5.932836
        1.364548           1.530457          -5.853728           1.294879          -5.893939
        1.369565           1.543538          -5.809987           1.300600          -5.856730
        1.374582           1.557323          -5.768640           1.305998          -5.821169
        1.379599           1.571570          -5.729795           1.310858          -5.787173
        1.384615           1.585992          -5.693538           1.314970          -5.754610
        1.389632           1.600274          -5.659909           1.318141          -5.723308
        1.394649           1.614065          -5.628890           1.320210          -5.693049
        1.399666           1.626995          -5.600416           1.321055          -5.663581
        1.404682           1.638698          -5.574321           1.320606          -5.634626
        1.409699           1.648813          -5.550371           1.318853          -5.605890
        1.414716           1.657027          -5.528256           1.315843          -5.577081
        1.419732           1.663082          -5.507586           1.311683          -5.547931
        1.424749           1.666799          -5.487909           1.306530          -5.518197
        1.429766           1.668093          -5.468766           1.300581          -5.487675
        1.434783           1.666981          -5.449646           1.294061          -5.456212
        1.439799           1.663582          -5.430085           1.287212          -5.423705
        1.444816           1.658107          -5.409636           1.280277          -5.390094
        1.449833           1.650847          -5.387918           1.273495          -5.355370
        1.454850           1.642153          -5.364637           1.267090          -5.319555
        1.459866           1.632416          -5.339560           1.261266          -5.282707
        1.464883           1.622042          -5.312556           1.256208          -5.244905
        1.469900           1.611439          -5.283557           1.252074          -5.206249
        1.474916           1.600998          -5.252580           1.249004          -5.166846
        1.479933           1.591078          -5.219688           1.247116          -5.126814
        1.484950           1.582009          -5.185007           1.246508          -5.086274
        1.489967           1.574081          -5.148692           1.247268          -5.045350
        1.494983           1.567541          -5.110923           1.249464          -5.004162
        1.500000           1.562601          -5.071906           1.253159          -4.962837
# 
# 04/15/2023 at 20:02 yambo @ unimi-XPS-8930 [start]
# 04/15/2023 at 20:02                        [end]
#  
# Timing   [Min/Max/Average]: 02s/02s/02s
#
# .-Input file  yambo.in_generated
# | optics                           # [R] Linear Response optical properties
# | bss                              # [R] BSE solver
# | bse                              # [R][BSE] Bethe Salpeter Equation.
# | tddft                            # [R][K] Use TDDFT kernel
# | BoseTemp= 0.000000         eV    # Bosonic Temperature
# | FFTGvecs=  995             RL    # [FFT] Plane-waves
# | BS_nCPU_LinAlg_INV= 1            # [PARALLEL] CPUs for Linear Algebra (if -1 it is automatically set)
# | BS_nCPU_LinAlg_DIAGO= 1          # [PARALLEL] CPUs for Linear Algebra (if -1 it is automatically set)
# | X_Threads= 1                     # [OPENMP/X] Number of threads for response functions
# | DIP_Threads= 1                   # [OPENMP/X] Number of threads for dipoles
# | K_Threads= 1                     # [OPENMP/BSK] Number of threads for response functions
# | NonPDirs= "X"                    # [X/BSS] Non periodic chartesian directions (X,Y,Z,XY...)
# | BSKmod= "ALDA"                   # [BSE] IP/Hartree/HF/ALDA/SEX/BSfxc
# | BSEmod= "resonant"               # [BSE] resonant/retarded/coupling
# | BSSmod= "hd"                     # [BSS] (h)aydock/(d)iagonalization/(s)lepc/(i)nversion/(t)ddft`
# | DipComputed= "R V P"             # [DIP] [default R P V; extra P2 Spin Orb]
# | BSENGexx=  995             RL    # [BSK] Exchange components
# | % BSEQptR
# |  1 | 1 |                             # [BSK] Transferred momenta range
# | %
# | % BSEBands
# |  23 | 27 |                           # [BSK] Bands range
# | %
# | % BEnRange
# |  0.000000 | 1.500000 |         eV    # [BSS] Energy range
# | %
# | % BDmRange
# |  0.030000 | 0.100000 |         eV    # [BSS] Damping range
# | %
# | BEnSteps= 300                    # [BSS] Energy steps
# | % BLongDir
# |   0.00000    | 0.100000E-4 |  0.00000    # [BSS] [cc] Electric Field
# | %
# | BSEprop= "abs jdos"              # [BSS] Can be any among abs/jdos/kerr/magn/dich/photolum/esrt
# | BSEdips= "none"                  # [BSS] Can be "trace/none" or "xy/xz/yz" to define off-diagonal rotation plane
# | #WRbsWF                        # [BSS] Write to disk excitonic the WFs
# | BSHayTrs= 0.010000               # [BSS] Relative [o/o] Haydock threshold. Strict(>0)/Average(<0)
