#                                                                     
#  __  __   ________   ___ __ __    _______   ______                  
# /_/\/_/\ /_______/\ /__//_//_/\ /_______/\ /_____/\                 
# \ \ \ \ \\::: _  \ \\::\| \| \ \\::: _  \ \\:::_ \ \                
#  \:\_\ \ \\::(_)  \ \\:.      \ \\::(_)  \/_\:\ \ \ \               
#   \::::_\/ \:: __  \ \\:.\-/\  \ \\::  _  \ \\:\ \ \ \              
#     \::\ \  \:.\ \  \ \\. \  \  \ \\::(_)  \ \\:\_\ \ \             
#      \__\/   \__\/\__\/ \__\/ \__\/ \_______\/ \_____\/             
#                                                                     
#                                                                     
#       Version 4.5.0 Revision 18068 Hash 2b0c3aab2                   
#                    Branch is develop                                
#                        MPI Build                                    
#                http://www.yambo-code.org                            
#
# Absorption @ Q(1)                 q->0 direction:   1.00000000      0.00000000      0.00000000   
#
# [GEN] GF Energies                               : Perdew, Burke & Ernzerhof(X)+Perdew, Burke & Ernzerhof(C)
# [GEN] Wavefunctions                             : Perdew, Burke & Ernzerhof(X)+Perdew, Burke & Ernzerhof(C)
# [GEN] Green`s Function                          : Retarded
# [GEN] Gauge                                     : Length
# [GEN] [r,Vnl] included                          : yes
#
#    E/ev[1]            EPS-Im[2]          EPS-Re[3]
#
     0.0000000        -0.67918426E-09      1.0661887    
    0.200200193E-1     0.729008316E-4      1.06619573   
    0.400400385E-1     0.146149949E-3      1.06621671   
    0.600600541E-1     0.220098475E-3      1.06625187   
    0.800800771E-1     0.295107573E-3      1.06630135   
    0.100100093        0.371551665E-3      1.06636524   
    0.120120108        0.449825107E-3      1.06644392   
    0.140140131        0.530346006E-3      1.06653786   
    0.160160154        0.613563345E-3      1.06664729   
    0.180180162        0.699963944E-3      1.06677282   
    0.200200185        0.790080579E-3      1.06691504   
    0.220220223        0.884500798E-3      1.06707466   
    0.240240216        0.983877806E-3      1.06725252   
    0.260260254        0.108894322E-2      1.06744945   
    0.280280262        0.120052253E-2      1.06766653   
    0.300300270        0.131955207E-2      1.06790495   
    0.320320308        0.144710368E-2      1.06816614   
    0.340340316        0.158440671E-2      1.06845140   
    0.360360324        0.173288316E-2      1.06876254   
    0.380380362        0.189418800E-2      1.06910157   
    0.400400370        0.207025628E-2      1.06947052   
    0.420420378        0.226336694E-2      1.06987202   
    0.440440446        0.247621653E-2      1.07030892   
    0.460460424        0.271201902E-2      1.07078433   
    0.480480433        0.297462894E-2      1.07130182   
    0.500500441        0.326869893E-2      1.07186568   
    0.520520508        0.359988585E-2      1.07248044   
    0.540540516        0.397511944E-2      1.07315159   
    0.560560524        0.440294994E-2      1.07388508   
    0.580580533        0.489401072E-2      1.07468760   
    0.600600541        0.546165183E-2      1.07556689   
    0.620620608        0.612275396E-2      1.07653141   
    0.640640616        0.689887954E-2      1.07759011   
    0.660660625        0.781780016E-2      1.07875264   
    0.680680633        0.891562551E-2      1.08002818   
    0.700700700        0.102396775E-1      1.08142447   
    0.720720649        0.118524283E-1      1.08294523   
    0.740740716        0.138367238E-1      1.08458567   
    0.760760725        0.163023844E-1      1.08632421   
    0.780780733        0.193936545E-1      1.08810771   
    0.800800741        0.232950915E-1      1.08982539   
    0.820820808        0.282283984E-1      1.09126472   
    0.840840757        0.344219394E-1      1.09204257   
    0.860860825        0.420134999E-1      1.09151697   
    0.880880892        0.508247092E-1      1.08873475   
    0.900900781        0.599834882E-1      1.08258367   
    0.920920849        0.676179081E-1      1.07241368   
    0.940940857        0.712835640E-1      1.05905449   
    0.960960865        0.694970936E-1      1.04513431   
    0.980980933        0.630148575E-1      1.03365123   
     1.00100088        0.541532487E-1      1.02611601   
     1.02102101        0.450960994E-1      1.02228582   
     1.04104102        0.370527059E-1      1.02111030   
     1.06106102        0.303973239E-1      1.02154410   
     1.08108103        0.250693336E-1      1.02283645   
     1.10110104        0.208560191E-1      1.02452314   
     1.12112105        0.175275207E-1      1.02634084   
     1.14114118        0.148850214E-1      1.02814913   
     1.16116107        0.127705280E-1      1.02987838   
     1.18118107        0.110629480E-1      1.03149807   
     1.20120108        0.967079867E-2      1.03299880   
     1.22122109        0.852510799E-2      1.03438199   
     1.24124122        0.757375639E-2      1.03565419   
     1.26126122        0.677707372E-2      1.03682446   
     1.28128123        0.610465324E-2      1.03790236   
     1.30130124        0.553296786E-2      1.03889740   
     1.32132125        0.504365284E-2      1.03981805   
     1.34134126        0.462225452E-2      1.04067230   
     1.36136127        0.425727898E-2      1.04146755   
     1.38138139        0.393953267E-2      1.04220998   
     1.40140140        0.366158225E-2      1.04290521   
     1.42142129        0.341738947E-2      1.04355824   
     1.44144130        0.320199924E-2      1.04417348   
     1.46146131        0.301132747E-2      1.04475498   
     1.48148143        0.284198322E-2      1.04530597   
     1.50150144        0.269113574E-2      1.04582953   
     1.52152145        0.255640363E-2      1.04632843   
     1.54154146        0.243577873E-2      1.04680502   
     1.56156147        0.232755602E-2      1.04726160   
     1.58158147        0.223027961E-2      1.04769993   
     1.60160148        0.214270432E-2      1.04812181   
     1.62162161        0.206375681E-2      1.04852879   
     1.64164162        0.199251180E-2      1.04892230   
     1.66166162        0.192816486E-2      1.04930341   
     1.68168151        0.187001936E-2      1.04967356   
     1.70170164        0.181746134E-2      1.05003345   
     1.72172165        0.176995841E-2      1.05038428   
     1.74174178        0.172703969E-2      1.05072689   
     1.76176178        0.168829144E-2      1.05106199   
     1.78178179        0.165334670E-2      1.05139017   
     1.80180156        0.162188278E-2      1.05171239   
     1.82182169        0.159361050E-2      1.05202901   
     1.84184170        0.156827399E-2      1.05234063   
     1.86186171        0.154564413E-2      1.05264795   
     1.88188171        0.152551767E-2      1.05295122   
     1.90190172        0.150771101E-2      1.05325103   
     1.92192173        0.149206072E-2      1.05354786   
     1.94194174        0.147841929E-2      1.05384183   
     1.96196187        0.146665366E-2      1.05413353   
     1.98198187        0.145664578E-2      1.05442333   
     2.00200176        0.144828786E-2      1.05471134   
     2.02202201        0.144148222E-2      1.05499804   
     2.04204202        0.143614237E-2      1.05528367   
     2.06206203        0.143218879E-2      1.05556858   
     2.08208203        0.142954953E-2      1.05585277   
     2.10210204        0.142816151E-2      1.05613685   
     2.12212205        0.142796524E-2      1.05642068   
     2.14214206        0.142890844E-2      1.05670476   
     2.16216207        0.143094419E-2      1.05698931   
     2.18218207        0.143402931E-2      1.05727434   
     2.20220208        0.143812574E-2      1.05756021   
     2.22222209        0.144319830E-2      1.05784690   
     2.24224210        0.144921709E-2      1.05813491   
     2.26226211        0.145615370E-2      1.05842423   
     2.28228235        0.146398460E-2      1.05871499   
     2.30230236        0.147268793E-2      1.05900753   
     2.32232213        0.148224446E-2      1.05930185   
     2.34234214        0.149263791E-2      1.05959821   
     2.36236215        0.150385464E-2      1.05989683   
     2.38238215        0.151588349E-2      1.06019771   
     2.40240216        0.152871339E-2      1.06050110   
     2.42242217        0.154233701E-2      1.06080723   
     2.44244218        0.155674852E-2      1.06111610   
     2.46246219        0.157194422E-2      1.06142795   
     2.48248243        0.158792152E-2      1.06174302   
     2.50250244        0.160467962E-2      1.06206131   
     2.52252245        0.162221887E-2      1.06238294   
     2.54254246        0.164054194E-2      1.06270826   
     2.56256247        0.165965338E-2      1.06303716   
     2.58258247        0.167955831E-2      1.06337011   
     2.60260248        0.170026312E-2      1.06370711   
     2.62262249        0.172177667E-2      1.06404829   
     2.64264250        0.174410874E-2      1.06439376   
     2.66266251        0.176727015E-2      1.06474388   
     2.68268251        0.179127418E-2      1.06509864   
     2.70270252        0.181613478E-2      1.06545830   
     2.72272253        0.184186699E-2      1.06582296   
     2.74274278        0.186848862E-2      1.06619287   
     2.76276278        0.189601793E-2      1.06656814   
     2.78278279        0.192447519E-2      1.06694901   
     2.80280280        0.195388170E-2      1.06733561   
     2.82282257        0.198426191E-2      1.06772816   
     2.84284258        0.201564026E-2      1.06812692   
     2.86286259        0.204804330E-2      1.06853187   
     2.88288260        0.208149990E-2      1.06894350   
     2.90290260        0.211604103E-2      1.06936181   
     2.92292261        0.215169904E-2      1.06978703   
     2.94294262        0.218850770E-2      1.07021952   
     2.96296287        0.222650496E-2      1.07065940   
     2.98298287        0.226572901E-2      1.07110703   
     3.00300288        0.230622129E-2      1.07156253   
     3.02302289        0.234802580E-2      1.07202613   
     3.04304290        0.239118817E-2      1.07249820   
     3.06306291        0.243575941E-2      1.07297897   
     3.08308291        0.248178933E-2      1.07346869   
     3.10310292        0.252933521E-2      1.07396770   
     3.12312293        0.257845432E-2      1.07447624   
     3.14314294        0.262921071E-2      1.07499480   
     3.16316295        0.268166745E-2      1.07552350   
     3.18318295        0.273589604E-2      1.07606268   
     3.20320296        0.279197004E-2      1.07661283   
     3.22322321        0.284996768E-2      1.07717431   
     3.24324322        0.290997163E-2      1.07774734   
     3.26326323        0.297207269E-2      1.07833254   
     3.28328323        0.303636235E-2      1.07893026   
     3.30330324        0.310294190E-2      1.07954085   
     3.32332325        0.317191659E-2      1.08016479   
     3.34334302        0.324339909E-2      1.08080268   
     3.36336303        0.331751094E-2      1.08145487   
     3.38338304        0.339438114E-2      1.08212197   
     3.40340328        0.347414496E-2      1.08280444   
     3.42342329        0.355694746E-2      1.08350301   
     3.44344330        0.364294741E-2      1.08421814   
     3.46346331        0.373230735E-2      1.08495057   
     3.48348355        0.382521003E-2      1.08570099   
     3.50350332        0.392183987E-2      1.08647001   
     3.52352357        0.402240921E-2      1.08725834   
     3.54354334        0.412712945E-2      1.08806694   
     3.56356359        0.423624320E-2      1.08889639   
     3.58358335        0.434999820E-2      1.08974779   
     3.60360312        0.446866779E-2      1.09062195   
     3.62362337        0.459255045E-2      1.09151995   
     3.64364338        0.472195260E-2      1.09244263   
     3.66366339        0.485722721E-2      1.09339130   
     3.68368340        0.499873515E-2      1.09436703   
     3.70370364        0.514688203E-2      1.09537089   
     3.72372341        0.530209579E-2      1.09640443   
     3.74374366        0.546485186E-2      1.09746909   
     3.76376343        0.563565642E-2      1.09856606   
     3.78378367        0.581507059E-2      1.09969723   
     3.80380344        0.600369647E-2      1.10086405   
     3.82382369        0.620220322E-2      1.10206842   
     3.84384346        0.641130563E-2      1.10331237   
     3.86386371        0.663180789E-2      1.10459793   
     3.88388348        0.686456915E-2      1.10592723   
     3.90390372        0.711055752E-2      1.10730278   
     3.92392373        0.737082027E-2      1.10872698   
     3.94394398        0.764652388E-2      1.11020291   
     3.96396375        0.793895312E-2      1.11173332   
     3.98398399        0.824954174E-2      1.11332142   
     4.00400352        0.857986230E-2      1.11497092   
     4.02402401        0.893169176E-2      1.11668539   
     4.04404402        0.930698495E-2      1.11846912   
     4.06406403        0.970795751E-2      1.12032652   
     4.08408403        0.101370541E-1      1.12226248   
     4.10410357        0.105970763E-1      1.12428236   
     4.12412405        0.110911550E-1      1.12639189   
     4.14414358        0.116228163E-1      1.12859750   
     4.16416407        0.121961022E-1      1.13090646   
     4.18418360        0.128155686E-1      1.13332605   
     4.20420408        0.134864673E-1      1.13586521   
     4.22422361        0.142147699E-1      1.13853300   
     4.24424410        0.150074009E-1      1.14134002   
     4.26426411        0.158722959E-1      1.14429784   
     4.28428411        0.168187562E-1      1.14741945   
     4.30430412        0.178575069E-1      1.15071893   
     4.32432413        0.190012027E-1      1.15421259   
     4.34434414        0.202646535E-1      1.15791833   
     4.36436415        0.216654632E-1      1.16185641   
     4.38438416        0.232244488E-1      1.16604948   
     4.40440416        0.249666516E-1      1.17052317   
     4.42442417        0.269220192E-1      1.17530656   
     4.44444418        0.291270427E-1      1.18043232   
     4.46446419        0.316259712E-1      1.18593740   
     4.48448420        0.344734117E-1      1.19186389   
     4.50450420        0.377367139E-1      1.19825876   
     4.52452421        0.415001027E-1      1.20517516   
     4.54454422        0.458693281E-1      1.21267200   
     4.56456470        0.509789214E-1      1.22081423   
     4.58458424        0.570007041E-1      1.22967100   
     4.60460472        0.641572401E-1      1.23931360   
     4.62462425        0.727380589E-1      1.24980891   
     4.64464426        0.831239671E-1      1.26120722   
     4.66466427        0.958187953E-1      1.27352202   
     4.68468428        0.111490041         1.28668642   
     4.70470428        0.131022289         1.30048251   
     4.72472429        0.155568779         1.31440806   
     4.74474430        0.186584041         1.32744825   
     4.76476431        0.225751758         1.33769512   
     4.78478479        0.274644762         1.34178162   
     4.80480433        0.333746314         1.33424711   
     4.82482481        0.400407702         1.30745649   
     4.84484434        0.465904117         1.25365746   
     4.86486483        0.514329314         1.17086542   
     4.88488436        0.528581679         1.06987822   
     4.90490484        0.502772450        0.972588181   
     4.92492437        0.447509378        0.898493588   
     4.94494486        0.380719513        0.853967905   
     4.96496487        0.316292524        0.834395528   
     4.98498487        0.260764301        0.831623256   
     5.00500488        0.215521395        0.838616192   
     5.02502489        0.179579869        0.850622594   
     5.04504490        0.151271388        0.864801407   
     5.06506491        0.128965497        0.879577696   
     5.08508492        0.111305028        0.894131541   
     5.10510492        0.972275436E-1     0.908072591   
     5.12512493        0.859261528E-1     0.921244621   
     5.14514446        0.767925903E-1     0.933617353   
     5.16516495        0.693695247E-1     0.945224643   
     5.18518496        0.633125231E-1     0.956130028   
     5.20520496        0.583600663E-1     0.966410518   
     5.22522497        0.543132573E-1     0.976145089   
     5.24524498        0.510196649E-1     0.985411525   
     5.26526499        0.483626723E-1     0.994283080   
     5.28528500        0.462527536E-1      1.00282907   
     5.30530500        0.446220487E-1      1.01111364   
     5.32532501        0.434196740E-1      1.01919746   
     5.34534502        0.426089801E-1      1.02713716   
     5.36536503        0.421651453E-1      1.03498793   
     5.38538504        0.420740321E-1      1.04280233   
     5.40540504        0.423312709E-1      1.05063248   
     5.42542505        0.429420471E-1      1.05853021   
     5.44544506        0.439214669E-1      1.06654871   
     5.46546507        0.452953763E-1      1.07474208   
     5.48548555        0.471019484E-1      1.08316731   
     5.50550508        0.493938178E-1      1.09188402   
     5.52552557        0.522416942E-1      1.10095572   
     5.54554510        0.557385869E-1      1.11044908   
     5.56556559        0.600067377E-1      1.12043500   
     5.58558512        0.652060360E-1      1.13098478   
     5.60560560        0.715467706E-1      1.14216864   
     5.62562513        0.793059096E-1      1.15404582   
     5.64564514        0.888505355E-1      1.16665149   
     5.66566515        0.100667842         1.17996871   
     5.68568516        0.115401879         1.19387734   
     5.70570564        0.133895904         1.20806563   
     5.72572517        0.157216281         1.22187042   
     5.74574566        0.186619028         1.23401535   
     5.76576519        0.223325983         1.24220824   
     5.78578568        0.267885953         1.24267423   
     5.80580521        0.318766296         1.23001170   
     5.82582569        0.370238513         1.19845879   
     5.84584522        0.411252201         1.14590359   
     5.86586571        0.429152399         1.07918954   
     5.88588524        0.418603390         1.01388681   
     5.90590572        0.386523008        0.964974165   
     5.92592573        0.346255779        0.938202918   
     5.94594574        0.308932900        0.930741429   
     5.96596575        0.280453622        0.936549127   
     5.98598576        0.262901545        0.950000107   
     6.00600576        0.256662071        0.966784060   
     6.02602577        0.261699587        0.983443856   
     6.04604578        0.277933985        0.996516466   
     6.06606579        0.304814607         1.00169873   
     6.08608580        0.339996845        0.993460357   
     6.10610580        0.377282768        0.966113925   
     6.12612581        0.405507386        0.917578399   
     6.14614582        0.412073284        0.854407430   
     6.16616583        0.391461551        0.791516840   
     6.18618584        0.349883586        0.743238211   
     6.20620584        0.299635619        0.715078413   
     6.22622585        0.250806242        0.704395711   
     6.24624586        0.208354384        0.705582976   
     6.26626587        0.173441723        0.713612378   
     6.28628588        0.145419970        0.725036800   
     6.30630589        0.123090722        0.737785459   
     6.32632589        0.105259612        0.750712574   
     6.34634590        0.909230113E-1     0.763226211   
     6.36636591        0.792902485E-1     0.775050461   
     6.38638592        0.697573647E-1     0.786080241   
     6.40640593        0.618662015E-1     0.796302199   
     6.42642593        0.552704930E-1     0.805747926   
     6.44644642        0.497063994E-1     0.814470470   
     6.46646595        0.449722409E-1     0.822529554   
     6.48648643        0.409117974E-1     0.829986393   
     6.50650597        0.374035947E-1     0.836898446   
     6.52652645        0.343517847E-1     0.843319297   
     6.54654598        0.316804722E-1     0.849296987   
     6.56656647        0.293286871E-1     0.854875088   
     6.58658600        0.272473339E-1     0.860092044   
     6.60660648        0.253963079E-1     0.864982426   
     6.62662601        0.237428527E-1     0.869576454   
     6.64664650        0.222598072E-1     0.873901486   
     6.66666651        0.209247079E-1     0.877981544   
     6.68668604        0.197187271E-1     0.881838143   
     6.70670652        0.186260417E-1     0.885490656   
     6.72672606        0.176334102E-1     0.888955951   
     6.74674654        0.167295504E-1     0.892249703   
     6.76676607        0.159050282E-1     0.895385623   
     6.78678656        0.151518099E-1     0.898376167   
     6.80680656        0.144632412E-1     0.901232600   
     6.82682610        0.138338357E-1     0.903964698   
     6.84684658        0.132591296E-1     0.906581581   
     6.86686659        0.127357189E-1     0.909090698   
     6.88688660        0.122610638E-1     0.911498249   
     6.90690613        0.118332235E-1     0.913808346   
     6.92692661        0.114500308E-1     0.916023016   
     6.94694662        0.111075612E-1     0.918141127   
     6.96696711        0.107974168E-1     0.920160294   
     6.98698616        0.105046406E-1     0.922080159   
     7.00700665        0.102101611E-1     0.923910141   
     7.02702665        0.990018528E-2     0.925671101   
     7.04704714        0.957510155E-2     0.927388489   
     7.06706667        0.924781896E-2     0.929079890   
     7.08708668        0.893372204E-2     0.930750906   
     7.10710669        0.864299759E-2     0.932398617   
     7.12712717        0.837946963E-2     0.934018373   
     7.14714670        0.814297143E-2     0.935606956   
     7.16716671        0.793171488E-2     0.937163353   
     7.18718719        0.774366409E-2     0.938687921   
     7.20720625        0.757707329E-2     0.940182090   
     7.22722673        0.743066007E-2     0.941648185   
     7.24724674        0.730364444E-2     0.943088651   
     7.26726723        0.719571998E-2     0.944506049   
     7.28728676        0.710702874E-2     0.945903242   
     7.30730677        0.703816349E-2     0.947283208   
     7.32732677        0.699021621E-2     0.948648930   
     7.34734726        0.696483068E-2     0.950003624   
     7.36736679        0.696430868E-2     0.951350391   
     7.38738680        0.699175289E-2     0.952692866   
     7.40740728        0.705129420E-2     0.954034507   
     7.42742729        0.714837248E-2     0.955379069   
     7.44744682        0.729015237E-2     0.956730187   
     7.46746683        0.748610264E-2     0.958091557   
     7.48748732        0.774875609E-2     0.959466338   
     7.50750732        0.809477083E-2     0.960856438   
     7.52752686        0.854632445E-2     0.962261379   
     7.54754686        0.913295709E-2     0.963676214   
     7.56756735        0.989345554E-2     0.965087175   
     7.58758736        0.108773867E-1     0.966464639   
     7.60760689        0.121439695E-1     0.967751026   
     7.62762737        0.137535203E-1     0.968842626   
     7.64764738        0.157400090E-1     0.969565868   
     7.66766787        0.180495717E-1     0.969665408   
     7.68768692        0.204402953E-1     0.968849421   
     7.70770741        0.224084854E-1     0.966958761   
     7.72772741        0.233128816E-1     0.964229941   
     7.74774694        0.227771476E-1     0.961362183   
     7.76776695        0.210082568E-1     0.959139228   
     7.78778744        0.186150242E-1     0.957956374   
     7.80780745        0.161727294E-1     0.957751870   
     7.82782698        0.140029788E-1     0.958250105   
     7.84784746        0.122066448E-1     0.959174693   
     7.86786747        0.107687172E-1     0.960326314   
     7.88788795        0.963298418E-2     0.961581528   
     7.90790701        0.873834174E-2     0.962870657   
     7.92792749        0.803175289E-2     0.964156866   
     7.94794750        0.747116096E-2     0.965422392   
     7.96796799        0.702434592E-2     0.966659904   
     7.98798704        0.666703051E-2     0.967867732   
     8.00800705        0.638095662E-2     0.969047308   
     8.02802753        0.615244824E-2     0.970201433   
     8.04804802        0.597118679E-2     0.971333504   
     8.06806755        0.582937477E-2     0.972447276   
     8.08808804        0.572108291E-2     0.973546445   
     8.10810757        0.564183667E-2     0.974634588   
     8.12812805        0.558825629E-2     0.975715220   
     8.14814758        0.555782113E-2     0.976791561   
     8.16816807        0.554869184E-2     0.977867007   
     8.18818760        0.555959716E-2     0.978944659   
     8.20820713        0.558971940E-2     0.980027616   
     8.22822762        0.563865434E-2     0.981118977   
     8.24824810        0.570635172E-2     0.982221961   
     8.26826763        0.579309324E-2     0.983339608   
     8.28828716        0.589948334E-2     0.984475255   
     8.30830765        0.602645520E-2     0.985632420   
     8.32832813        0.617527077E-2     0.986814678   
     8.34834862        0.634755427E-2     0.988025904   
     8.36836720        0.654532434E-2     0.989270091   
     8.38838768        0.677107926E-2     0.990551949   
     8.40840816        0.702781556E-2     0.991876185   
     8.42842865        0.731915981E-2     0.993248105   
     8.44844723        0.764945243E-2     0.994673610   
     8.46846771        0.802397262E-2     0.996159315   
     8.48848820        0.844904594E-2     0.997712255   
     8.50850868        0.893234555E-2     0.999340594   
     8.52852821        0.948320050E-2      1.00105321   
     8.54854774        0.101130977E-1      1.00286019   
     8.56856823        0.108361393E-1      1.00477278   
     8.58858871        0.116698621E-1      1.00680315   
     8.60860825        0.126361875E-1      1.00896513   
     8.62862778        0.137629267E-1      1.01127350   
     8.64864826        0.150853796E-1      1.01374376   
     8.66866875        0.166488811E-1      1.01639128   
     8.68868828        0.185119510E-1      1.01922965   
     8.70870781        0.207507610E-1      1.02226746   
     8.72872829        0.234636515E-1      1.02550161   
     8.74874783        0.267761964E-1      1.02890658   
     8.76876831        0.308437031E-1      1.03241622   
     8.78878880        0.358422026E-1      1.03589308   
     8.80880833        0.419348516E-1      1.03909183   
     8.82882786        0.491892435E-1      1.04163754   
     8.84884834        0.574467257E-1      1.04308605   
     8.86886883        0.662447289E-1      1.04315627   
     8.88888836        0.750514865E-1      1.04205072   
     8.90890789        0.838573352E-1      1.04039824   
     8.92892838        0.934918076E-1      1.03851879   
     8.94894886        0.105066739         1.03565061   
     8.96896839        0.118952319         1.02990949   
     8.98898792        0.133928224         1.01901281   
     9.00900841        0.146947220         1.00161779   
     9.02902889        0.154125795        0.978786349   
     9.04904842        0.152914166        0.954208970   
     9.06906796        0.143781170        0.932444334   
     9.08908844        0.129829779        0.916437268   
     9.10910892        0.114680655        0.906386733   
     9.12912941        0.100548171        0.900649250   
     9.14914799        0.878855139E-1     0.897443950   
     9.16916847        0.762767866E-1     0.895881474   
     9.18918896        0.654723421E-1     0.895845652   
     9.20920944        0.556680113E-1     0.897300124   
     9.22922897        0.471564345E-1     0.899934649   
     9.24924850        0.400352255E-1     0.903291106   
     9.26926899        0.342034549E-1     0.906965137   
     9.28928852        0.294657499E-1     0.910682678   
     9.30930901        0.256140418E-1     0.914286852   
     9.32932854        0.224658605E-1     0.917699575   
     9.34934902        0.198730938E-1     0.920890450   
     9.36936855        0.177199803E-1     0.923854947   
     9.38938904        0.159170832E-1     0.926602125   
     9.40940857        0.143959299E-1     0.929147005   
     9.42942905        0.131037924E-1     0.931506932   
     9.44944859        0.120000206E-1     0.933699250   
     9.46946907        0.110530397E-1     0.935740948   
     9.48948860        0.102385376E-1     0.937647283   
     9.50950909        0.953781605E-2     0.939432323   
     9.52952862        0.893680099E-2     0.941108108   
     9.54954910        0.842527300E-2     0.942685485   
     9.56956959        0.799657777E-2     0.944172978   
     9.58958912        0.764727127E-2     0.945576787   
     9.60960865        0.737691438E-2     0.946899593   
     9.62962914        0.718735065E-2     0.948139071   
     9.64964962        0.708085159E-2     0.949284911   
     9.66966915        0.705516990E-2     0.950316310   
     9.68968868        0.709370011E-2     0.951201856   
     9.70970917        0.715200603E-2     0.951909423   
     9.72972965        0.715335924E-2     0.952433407   
     9.74974918        0.701567903E-2     0.952825189   
     9.76976871        0.670541963E-2     0.953187227   
     9.78978920        0.626350893E-2     0.953615785   
     9.80980968        0.577024743E-2     0.954150975   
     9.82982922        0.529353088E-2     0.954779088   
     9.84984875        0.486807758E-2     0.955464840   
     9.86986923        0.450258097E-2     0.956175327   
     9.88988972        0.419268431E-2     0.956887841   
     9.90990925        0.392981712E-2     0.957588971   
     9.92992973        0.370525173E-2     0.958271861   
     9.94994926        0.351157901E-2     0.958933473   
     9.96996975        0.334288576E-2     0.959572911   
     9.98998928        0.319461105E-2     0.960190415   
     10.0100098        0.306325802E-2     0.960786939   
     10.0300293        0.294618448E-2     0.961363614   
     10.0500498        0.284139230E-2     0.961921632   
     10.0700693        0.274739182E-2     0.962462246   
     10.0900898        0.266309292E-2     0.962986588   
     10.1101093        0.258776406E-2     0.963495672   
     10.1301298        0.252096890E-2     0.963990390   
     10.1501493        0.246253796E-2     0.964471221   
     10.1701698        0.241248007E-2     0.964938462   
     10.1901894        0.237081922E-2     0.965391576   
     10.2102098        0.233716099E-2     0.965829432   
     10.2302294        0.230993680E-2     0.966250002   
     10.2502499        0.228553195E-2     0.966651857   
     10.2702703        0.225840742E-2     0.967035651   
     10.2902889        0.222335639E-2     0.967405856   
     10.3103094        0.217874767E-2     0.967769861   
     10.3303299        0.212752540E-2     0.968134344   
     10.3503504        0.207502069E-2     0.968502343   
     10.3703699        0.202593999E-2     0.968873441   
     10.3903894        0.198291731E-2     0.969245851   
     10.4104099        0.194681541E-2     0.969617724   
     10.4304304        0.191756105E-2     0.969987810   
     10.4504499        0.189477962E-2     0.970355630   
     10.4704695        0.187811628E-2     0.970721245   
     10.4904900        0.186736125E-2     0.971084952   
     10.5105104        0.186248333E-2     0.971447408   
     10.5305300        0.186363980E-2     0.971809149   
     10.5505495        0.187117443E-2     0.972171128   
     10.5705700        0.188563310E-2     0.972534120   
     10.5905905        0.190777972E-2     0.972899079   
     10.6106100        0.193863234E-2     0.973267198   
     10.6306295        0.197952706E-2     0.973639607   
     10.6506500        0.203217985E-2     0.974017620   
     10.6706705        0.209880364E-2     0.974402547   
     10.6906900        0.218225410E-2     0.974795878   
     10.7107105        0.228623790E-2     0.975199223   
     10.7307301        0.241558044E-2     0.975614130   
     10.7507505        0.257661659E-2     0.976041853   
     10.7707701        0.277769775E-2     0.976483226   
     10.7907906        0.302991364E-2     0.976938128   
     10.8108101        0.334791071E-2     0.977404118   
     10.8308296        0.375086279E-2     0.977874696   
     10.8508501        0.426326459E-2     0.978336155   
     10.8708706        0.491435267E-2     0.978761852   
     10.8908901        0.573412189E-2     0.979103744   
     10.9109097        0.674106693E-2     0.979282677   
     10.9309301        0.791614223E-2     0.979184330   
     10.9509506        0.916401576E-2     0.978679359   
     10.9709711        0.102907186E-1     0.977686167   
     10.9909897        0.110459654E-1     0.976251304   
     11.0110102        0.112267593E-1     0.974573433   
     11.0310307        0.107693244E-1     0.972946882   
     11.0510511        0.978956372E-2     0.971656680   
     11.0710697        0.853672344E-2     0.970856786   
     11.0910902        0.726208417E-2     0.970527649   
     11.1111107        0.612074882E-2     0.970547855   
     11.1311312        0.516746193E-2     0.970784724   
     11.1511507        0.439785980E-2     0.971137822   
     11.1711702        0.378447492E-2     0.971543014   
     11.1911907        0.329611730E-2     0.971963525   
     11.2112112        0.290520210E-2     0.972379446   
     11.2312307        0.258958060E-2     0.972781062   
     11.2512503        0.233214442E-2     0.973164141   
     11.2712708        0.211994560E-2     0.973527431   
     11.2912903        0.194319978E-2     0.973871112   
     11.3113108        0.179447432E-2     0.974196374   
     11.3313303        0.166812504E-2     0.974504530   
     11.3513508        0.155980990E-2     0.974796951   
     11.3713703        0.146616751E-2     0.975075126   
     11.3913908        0.138456130E-2     0.975340307   
     11.4114113        0.131292047E-2     0.975593746   
     11.4314308        0.124959333E-2     0.975836456   
     11.4514503        0.119325740E-2     0.976069391   
     11.4714708        0.114283606E-2     0.976293504   
     11.4914913        0.109745760E-2     0.976509452   
     11.5115108        0.105640467E-2     0.976717949   
     11.5315304        0.101908448E-2     0.976919591   
     11.5515509        0.985000748E-3     0.977114856   
     11.5715714        0.953740906E-3     0.977304339   
     11.5915909        0.924957159E-3     0.977488339   
     11.6116104        0.898354454E-3     0.977667272   
     11.6316309        0.873679703E-3     0.977841496   
     11.6516514        0.850719051E-3     0.978011310   
     11.6716719        0.829287048E-3     0.978177011   
     11.6916904        0.809224905E-3     0.978338778   
     11.7117109        0.790392456E-3     0.978496850   
     11.7317314        0.772670028E-3     0.978651524   
     11.7517519        0.755951565E-3     0.978802919   
     11.7717705        0.740145624E-3     0.978951156   
     11.7917910        0.725168851E-3     0.979096472   
     11.8118114        0.710950117E-3     0.979238987   
     11.8318310        0.697425916E-3     0.979378819   
     11.8518515        0.684538449E-3     0.979516149   
     11.8718710        0.672237424E-3     0.979650974   
     11.8918915        0.660477555E-3     0.979783475   
     11.9119110        0.649218680E-3     0.979913771   
     11.9319315        0.638423080E-3     0.980041921   
     11.9519510        0.628058449E-3     0.980167985   
     11.9719715        0.618094637E-3     0.980292082   
     11.9919910        0.608505390E-3     0.980414212   
     12.0120115        0.599265099E-3     0.980534554   
     12.0320311        0.590352109E-3     0.980653107   
     12.0520515        0.581745757E-3     0.980769932   
     12.0720711        0.573427824E-3     0.980885088   
     12.0920916        0.565380673E-3     0.980998635   
     12.1121120        0.557589054E-3     0.981110632   
     12.1321316        0.550038298E-3     0.981221080   
     12.1521511        0.542715832E-3     0.981330097   
     12.1721716        0.535608502E-3     0.981437683   
     12.1921921        0.528705597E-3     0.981543899   
     12.2122116        0.521996582E-3     0.981648743   
     12.2322311        0.515471795E-3     0.981752276   
     12.2522516        0.509121979E-3     0.981854558   
     12.2722721        0.502939045E-3     0.981955588   
     12.2922916        0.496915134E-3     0.982055426   
     12.3123112        0.491043378E-3     0.982154071   
     12.3323317        0.485316123E-3     0.982251525   
     12.3523521        0.479727518E-3     0.982347906   
     12.3723717        0.474271976E-3     0.982443213   
     12.3923912        0.468943326E-3     0.982537389   
     12.4124117        0.463736651E-3     0.982630551   
     12.4324322        0.458646915E-3     0.982722700   
     12.4524517        0.453669782E-3     0.982813835   
     12.4724712        0.448800623E-3     0.982904017   
     12.4924917        0.444035424E-3     0.982993186   
     12.5125122        0.439370313E-3     0.983081460   
     12.5325317        0.434801885E-3     0.983168781   
     12.5525522        0.430326239E-3     0.983255267   
     12.5725718        0.425940380E-3     0.983340800   
     12.5925922        0.421641162E-3     0.983425498   
     12.6126118        0.417425792E-3     0.983509362   
     12.6326323        0.413291214E-3     0.983592391   
     12.6526518        0.409234868E-3     0.983674586   
     12.6726723        0.405254308E-3     0.983756006   
     12.6926918        0.401347410E-3     0.983836591   
     12.7127123        0.397511409E-3     0.983916461   
     12.7327318        0.393744267E-3     0.983995557   
     12.7527523        0.390044035E-3     0.984073877   
     12.7727718        0.386408792E-3     0.984151483   
     12.7927923        0.382836442E-3     0.984228432   
     12.8128119        0.379325327E-3     0.984304607   
     12.8328314        0.375873729E-3     0.984380126   
     12.8528519        0.372479990E-3     0.984454930   
     12.8728724        0.369142421E-3     0.984529078   
     12.8928928        0.365859509E-3     0.984602511   
     12.9129114        0.362630177E-3     0.984675348   
     12.9329319        0.359452592E-3     0.984747589   
     12.9529524        0.356325530E-3     0.984819114   
     12.9729729        0.353247800E-3     0.984890103   
     12.9929924        0.350218266E-3     0.984960437   
     13.0130119        0.347235386E-3     0.985030174   
     13.0330324        0.344298402E-3     0.985099316   
     13.0530529        0.341406063E-3     0.985167861   
     13.0730724        0.338557438E-3     0.985235870   
     13.0930920        0.335751334E-3     0.985303283   
     13.1131124        0.332986878E-3     0.985370159   
     13.1331329        0.330263050E-3     0.985436440   
     13.1531525        0.327579241E-3     0.985502243   
     13.1731720        0.324934110E-3     0.985567510   
     13.1931925        0.322327222E-3     0.985632241   
     13.2132130        0.319757586E-3     0.985696435   
     13.2332325        0.317224534E-3     0.985760152   
     13.2532520        0.314727164E-3     0.985823333   
     13.2732725        0.312264892E-3     0.985886037   
     13.2932930        0.309836876E-3     0.985948265   
     13.3133125        0.307442708E-3     0.986010015   
     13.3333330        0.305081456E-3     0.986071229   
     13.3533525        0.302752538E-3     0.986132026   
     13.3733721        0.300455577E-3     0.986192346   
     13.3933926        0.298189669E-3     0.986252248   
     13.4134130        0.295954495E-3     0.986311674   
     13.4334326        0.293749326E-3     0.986370623   
     13.4534521        0.291573961E-3     0.986429214   
     13.4734726        0.289427582E-3     0.986487329   
     13.4934931        0.287309842E-3     0.986544967   
     13.5135126        0.285220158E-3     0.986602247   
     13.5335321        0.283158326E-3     0.986659110   
     13.5535526        0.281123619E-3     0.986715555   
     13.5735731        0.279115950E-3     0.986771584   
     13.5935936        0.277134619E-3     0.986827195   
     13.6136131        0.275179365E-3     0.986882448   
     13.6336327        0.273250043E-3     0.986937284   
     13.6536522        0.271346187E-3     0.986991763   
     13.6736736        0.269466982E-3     0.987045884   
     13.6936932        0.267612922E-3     0.987099588   
     13.7137136        0.265783106E-3     0.987152934   
     13.7337332        0.263977592E-3     0.987205923   
     13.7537527        0.262196147E-3     0.987258554   
     13.7737732        0.260438246E-3     0.987310827   
     13.7937927        0.258703891E-3     0.987362742   
     13.8138123        0.256992877E-3     0.987414360   
     13.8338337        0.255304883E-3     0.987465560   
     13.8538532        0.253640028E-3     0.987516522   
     13.8738728        0.251997903E-3     0.987567067   
     13.8938932        0.250378333E-3     0.987617314   
     13.9139128        0.248781609E-3     0.987667263   
     13.9339342        0.247207296E-3     0.987716854   
     13.9539528        0.245655567E-3     0.987766147   
     13.9739723        0.244126408E-3     0.987815142   
     13.9939938        0.242619484E-3     0.987863839   
     14.0140133        0.241135465E-3     0.987912238   
     14.0340328        0.239674031E-3     0.987960279   
     14.0540533        0.238235269E-3     0.988008082   
     14.0740728        0.236819586E-3     0.988055646   
     14.0940943        0.235426996E-3     0.988102853   
     14.1141138        0.234057996E-3     0.988149822   
     14.1341333        0.232712846E-3     0.988196492   
     14.1541538        0.231391794E-3     0.988242924   
     14.1741734        0.230095582E-3     0.988289058   
     14.1941929        0.228824661E-3     0.988334954   
     14.2142134        0.227579585E-3     0.988380611   
     14.2342329        0.226361415E-3     0.988425970   
     14.2542543        0.225170734E-3     0.988471150   
     14.2742739        0.224009011E-3     0.988516033   
     14.2942934        0.222877308E-3     0.988560736   
     14.3143139        0.221777053E-3     0.988605201   
     14.3343334        0.220710121E-3     0.988649428   
     14.3543530        0.219678448E-3     0.988693416   
     14.3743744        0.218684509E-3     0.988737285   
     14.3943930        0.217731154E-3     0.988780856   
     14.4144125        0.216821834E-3     0.988824308   
     14.4344339        0.215960419E-3     0.988867521   
     14.4544535        0.215152002E-3     0.988910556   
     14.4744740        0.214402433E-3     0.988953471   
     14.4944935        0.213719017E-3     0.988996208   
     14.5145130        0.213110485E-3     0.989038765   
     14.5345345        0.212587998E-3     0.989081204   
     14.5545540        0.212165192E-3     0.989123523   
     14.5745735        0.211859544E-3     0.989165783   
     14.5945940        0.211693026E-3     0.989207864   
     14.6146135        0.211694249E-3     0.989249885   
     14.6346350        0.211900027E-3     0.989291847   
     14.6546535        0.212358500E-3     0.989333749   
     14.6746731        0.213133404E-3     0.989375591   
     14.6946945        0.214308486E-3     0.989417374   
     14.7147141        0.215993379E-3     0.989459038   
     14.7347336        0.218329122E-3     0.989500582   
     14.7547541        0.221488008E-3     0.989541829   
     14.7747736        0.225655502E-3     0.989582539   
     14.7947950        0.230972306E-3     0.989622295   
     14.8148146        0.237389861E-3     0.989660442   
     14.8348331        0.244425522E-3     0.989696145   
     14.8548546        0.250928861E-3     0.989728808   
     14.8748741        0.255228108E-3     0.989758611   
     14.8948936        0.255922438E-3     0.989786983   
     14.9149141        0.252770755E-3     0.989815950   
     14.9349337        0.246825832E-3     0.989847243   
     14.9549532        0.239739311E-3     0.989881516   
     14.9749746        0.232909762E-3     0.989918470   
     14.9949942        0.227099139E-3     0.989957273   
     15.0150146        0.222534480E-3     0.989997327   
     15.0350342        0.219164227E-3     0.990038037   
     15.0550537        0.216840985E-3     0.990079165   
     15.0750751        0.215414606E-3     0.990120471   
     15.0950937        0.214765605E-3     0.990161955   
     15.1151133        0.214811647E-3     0.990203619   
     15.1351347        0.215506341E-3     0.990245461   
     15.1551542        0.216834902E-3     0.990287542   
     15.1751747        0.218811954E-3     0.990329921   
     15.1951942        0.221479087E-3     0.990372717   
     15.2152138        0.224907126E-3     0.990415871   
     15.2352352        0.229198660E-3     0.990459621   
     15.2552547        0.234492094E-3     0.990504026   
     15.2752733        0.240972178E-3     0.990549207   
     15.2952948        0.248881668E-3     0.990595222   
     15.3153143        0.258536020E-3     0.990642250   
     15.3353357        0.270352175E-3     0.990690470   
     15.3553543        0.284875190E-3     0.990739882   
     15.3753738        0.302829780E-3     0.990790606   
     15.3953953        0.325179048E-3     0.990842581   
     15.4154148        0.353195472E-3     0.990895629   
     15.4354343        0.388561602E-3     0.990949273   
     15.4554548        0.433445035E-3     0.991002202   
     15.4754744        0.490476319E-3     0.991052210   
     15.4954939        0.562481990E-3     0.991095066   
     15.5155153        0.651496230E-3     0.991123676   
     15.5355339        0.756377296E-3     0.991127312   
     15.5555553        0.868732634E-3     0.991092622   
     15.5755749        0.968879962E-3     0.991010010   
     15.5955944        0.102858606E-2     0.990884364   
     15.6156149        0.102576858E-2     0.990741491   
     15.6356344        0.961250567E-3     0.990617573   
     15.6556540        0.858028652E-3     0.990537167   
     15.6756754        0.744061486E-3     0.990504086   
     15.6956949        0.638307014E-3     0.990508080   
     15.7157154        0.548604818E-3     0.990536094   
     15.7357349        0.475828245E-3     0.990577459   
     15.7557545        0.417856761E-3     0.990625381   
     15.7757759        0.371858856E-3     0.990675688   
     15.7957945        0.335227174E-3     0.990726233   
     15.8158140        0.305820518E-3     0.990775883   
     15.8358355        0.281979097E-3     0.990824044   
     15.8558550        0.262447429E-3     0.990870595   
     15.8758755        0.246272306E-3     0.990915537   
     15.8958950        0.232738952E-3     0.990958810   
     15.9159145        0.221301438E-3     0.991000652   
     15.9359360        0.211542661E-3     0.991041124   
     15.9559555        0.203142961E-3     0.991080344   
     15.9759741        0.195851637E-3     0.991118431   
     15.9959955        0.189471873E-3     0.991155446   
     16.0160141        0.183849377E-3     0.991191566   
     16.0360336        0.178859351E-3     0.991226852   
     16.0560551        0.174401517E-3     0.991261303   
     16.0760746        0.170395346E-3     0.991295099   
     16.0960960        0.166773811E-3     0.991328180   
     16.1161156        0.163482953E-3     0.991360724   
     16.1361351        0.160477037E-3     0.991392672   
     16.1561565        0.157718096E-3     0.991424143   
     16.1761761        0.155175076E-3     0.991455078   
     16.1961937        0.152820765E-3     0.991485596   
     16.2162151        0.150632448E-3     0.991515696   
     16.2362347        0.148591105E-3     0.991545439   
     16.2562561        0.146679900E-3     0.991574764   
     16.2762756        0.144884922E-3     0.991603792   
     16.2962952        0.143193713E-3     0.991632462   
     16.3163166        0.141595403E-3     0.991660774   
     16.3363361        0.140081116E-3     0.991688848   
     16.3563557        0.138642528E-3     0.991716623   
     16.3763752        0.137272451E-3     0.991744161   
     16.3963947        0.135964830E-3     0.991771400   
     16.4164143        0.134714006E-3     0.991798401   
     16.4364357        0.133515103E-3     0.991825163   
     16.4564552        0.132363901E-3     0.991851687   
     16.4764767        0.131256340E-3     0.991877973   
     16.4964962        0.130189190E-3     0.991904080   
     16.5165157        0.129159322E-3     0.991930008   
     16.5365353        0.128163869E-3     0.991955698   
     16.5565548        0.127200474E-3     0.991981208   
     16.5765743        0.126266823E-3     0.992006540   
     16.5965958        0.125360864E-3     0.992031693   
     16.6166153        0.124480925E-3     0.992056668   
     16.6366367        0.123625170E-3     0.992081463   
     16.6566563        0.122792233E-3     0.992106080   
     16.6766758        0.121980731E-3     0.992130518   
     16.6966972        0.121189347E-3     0.992154837   
     16.7167149        0.120417040E-3     0.992178977   
     16.7367344        0.119662742E-3     0.992202997   
     16.7567558        0.118925447E-3     0.992226839   
     16.7767754        0.118204400E-3     0.992250562   
     16.7967968        0.117498697E-3     0.992274165   
     16.8168163        0.116807765E-3     0.992297590   
     16.8368359        0.116130788E-3     0.992320836   
     16.8568573        0.115467185E-3     0.992344022   
     16.8768768        0.114816437E-3     0.992367029   
     16.8968945        0.114178030E-3     0.992389977   
     16.9169159        0.113551410E-3     0.992412746   
     16.9369354        0.112936272E-3     0.992435396   
     16.9569550        0.112332098E-3     0.992457926   
     16.9769764        0.111738540E-3     0.992480338   
     16.9969959        0.111155343E-3     0.992502630   
     17.0170174        0.110582099E-3     0.992524803   
     17.0370369        0.110018591E-3     0.992546856   
     17.0570564        0.109464527E-3     0.992568791   
     17.0770760        0.108919681E-3     0.992590666   
     17.0970955        0.108383880E-3     0.992612422   
     17.1171150        0.107856904E-3     0.992634058   
     17.1371365        0.107338543E-3     0.992655575   
     17.1571560        0.106828753E-3     0.992676973   
     17.1771774        0.106327316E-3     0.992698312   
     17.1971970        0.105834166E-3     0.992719531   
     17.2172165        0.105349209E-3     0.992740631   
     17.2372360        0.104872306E-3     0.992761672   
     17.2572556        0.104403523E-3     0.992782593   
     17.2772751        0.103942759E-3     0.992803454   
     17.2972965        0.103489954E-3     0.992824197   
     17.3173161        0.103045189E-3     0.992844880   
     17.3373375        0.102608399E-3     0.992865443   
     17.3573570        0.102179714E-3     0.992885947   
     17.3773766        0.101759142E-3     0.992906332   
     17.3973980        0.101346726E-3     0.992926657   
     17.4174156        0.100942663E-3     0.992946863   
     17.4374352        0.100547019E-3     0.992967010   
     17.4574566        0.100159923E-3     0.992987096   
     17.4774761        0.997816387E-4     0.993007123   
     17.4974957        0.994122747E-4     0.993027031   
     17.5175171        0.990521221E-4     0.993046880   
     17.5375366        0.987014719E-4     0.993066669   
     17.5575581        0.983605787E-4     0.993086398   
     17.5775776        0.980299010E-4     0.993106008   
     17.5975952        0.977096934E-4     0.993125618   
     17.6176167        0.974005088E-4     0.993145108   
     17.6376362        0.971028057E-4     0.993164539   
     17.6576557        0.968171807E-4     0.993183970   
     17.6776772        0.965441868E-4     0.993203282   
     17.6976967        0.962846243E-4     0.993222535   
     17.7177181        0.960392354E-4     0.993241787   
     17.7377377        0.958089586E-4     0.993260980   
     17.7577572        0.955947326E-4     0.993280113   
     17.7777767        0.953977215E-4     0.993299186   
     17.7977962        0.952191767E-4     0.993318200   
     17.8178158        0.950605754E-4     0.993337214   
     17.8378372        0.949234454E-4     0.993356228   
     17.8578568        0.948097149E-4     0.993375182   
     17.8778782        0.947214066E-4     0.993394077   
     17.8978977        0.946609289E-4     0.993412971   
     17.9179173        0.946309519E-4     0.993431866   
     17.9379368        0.946345390E-4     0.993450761   
     17.9579563        0.946753062E-4     0.993469656   
     17.9779758        0.947573208E-4     0.993488550   
     17.9979973        0.948852830E-4     0.993507445   
     18.0180168        0.950646863E-4     0.993526340   
     18.0380363        0.953019698E-4     0.993545294   
     18.0580578        0.956045551E-4     0.993564308   
     18.0780773        0.959812896E-4     0.993583322   
     18.0980968        0.964425999E-4     0.993602455   
     18.1181164        0.970007750E-4     0.993621647   
     18.1381359        0.976706651E-4     0.993640900   
     18.1581573        0.984701037E-4     0.993660271   
     18.1781769        0.994203947E-4     0.993679821   
     18.1981964        0.100547855E-3     0.993699491   
     18.2182178        0.101884703E-3     0.993719339   
     18.2382374        0.103470462E-3     0.993739367   
     18.2582588        0.105354877E-3     0.993759692   
     18.2782784        0.107599866E-3     0.993780255   
     18.2982960        0.110284411E-3     0.993801117   
     18.3183174        0.113509639E-3     0.993822396   
     18.3383369        0.117405267E-3     0.993844032   
     18.3583565        0.122140817E-3     0.993866146   
     18.3783779        0.127938911E-3     0.993888676   
     18.3983974        0.135091177E-3     0.993911684   
     18.4184189        0.143984653E-3     0.993935168   
     18.4384384        0.155122951E-3     0.993958890   
     18.4584579        0.169152554E-3     0.993982613   
     18.4784775        0.186856618E-3     0.994005620   
     18.4984970        0.209061633E-3     0.994026840   
     18.5185165        0.236360851E-3     0.994044363   
     18.5385380        0.268471864E-3     0.994055271   
     18.5585575        0.303244859E-3     0.994056404   
     18.5785770        0.336118130E-3     0.994045734   
     18.5985985        0.361568702E-3     0.994024634   
     18.6186180        0.376403739E-3     0.993997455   
     18.6386375        0.380718062E-3     0.993968070   
     18.6586571        0.374763069E-3     0.993938386   
     18.6786766        0.357382523E-3     0.993910909   
     18.6986980        0.329080445E-3     0.993890643   
     18.7187176        0.294271100E-3     0.993881822   
     18.7387371        0.258844375E-3     0.993884802   
     18.7587585        0.226918957E-3     0.993896902   
     18.7787781        0.200103037E-3     0.993914783   
     18.7987976        0.178358023E-3     0.993935823   
     18.8188171        0.160973912E-3     0.993958175   
     18.8388367        0.147101397E-3     0.993980885   
     18.8588581        0.135979426E-3     0.994003475   
     18.8788776        0.126994652E-3     0.994025588   
     18.8988972        0.119670178E-3     0.994047165   
     18.9189186        0.113644113E-3     0.994068146   
     18.9389381        0.108644650E-3     0.994088531   
     18.9589596        0.104465187E-3     0.994108438   
     18.9789772        0.100951002E-3     0.994127870   
     18.9989967        0.979842880E-4     0.994146824   
     19.0190182        0.954764691E-4     0.994165421   
     19.0390377        0.933623742E-4     0.994183660   
     19.0590572        0.915946584E-4     0.994201541   
     19.0790787        0.901417661E-4     0.994219184   
     19.0990982        0.889867079E-4     0.994236529   
     19.1191177        0.881259766E-4     0.994253635   
     19.1391392        0.875702171E-4     0.994270563   
     19.1591587        0.873451136E-4     0.994287252   
     19.1791782        0.874905527E-4     0.994303703   
     19.1991978        0.880556545E-4     0.994319916   
     19.2192173        0.890816300E-4     0.994335651   
     19.2392387        0.905606648E-4     0.994350791   
     19.2592583        0.923638800E-4     0.994365096   
     19.2792778        0.941784238E-4     0.994378388   
     19.2992992        0.955713913E-4     0.994390726   
     19.3193188        0.962501581E-4     0.994402468   
     19.3393383        0.962574632E-4     0.994413972   
     19.3593578        0.957699303E-4     0.994425356   
     19.3793774        0.947478911E-4     0.994436502   
     19.3993988        0.929504458E-4     0.994447529   
     19.4194183        0.903121982E-4     0.994458914   
     19.4394379        0.871448647E-4     0.994471073   
     19.4594593        0.839154600E-4     0.994484067   
     19.4794788        0.809606427E-4     0.994497657   
     19.4994984        0.784145814E-4     0.994511604   
     19.5195179        0.762782438E-4     0.994525731   
     19.5395374        0.744970603E-4     0.994539917   
     19.5595589        0.730039683E-4     0.994554043   
     19.5795784        0.717387811E-4     0.994568050   
     19.5995979        0.706521387E-4     0.994581938   
     19.6196194        0.697056894E-4     0.994595706   
     19.6396389        0.688702421E-4     0.994609416   
     19.6596584        0.681233723E-4     0.994622946   
     19.6796780        0.674479670E-4     0.994636416   
     19.6996975        0.668310022E-4     0.994649768   
     19.7197189        0.662621969E-4     0.994663000   
     19.7397385        0.657336132E-4     0.994676113   
     19.7597580        0.652389208E-4     0.994689167   
     19.7797794        0.647730049E-4     0.994702160   
     19.7997990        0.643319145E-4     0.994715035   
     19.8198185        0.639122081E-4     0.994727850   
     19.8398399        0.635111865E-4     0.994740546   
     19.8598595        0.631266303E-4     0.994753182   
     19.8798790        0.627566114E-4     0.994765759   
     19.8998985        0.623995511E-4     0.994778275   
     19.9199181        0.620541323E-4     0.994790733   
     19.9399395        0.617191617E-4     0.994803131   
     19.9599590        0.613937082E-4     0.994815409   
     19.9799786        0.610768329E-4     0.994827628   
     20.0000000        0.607678521E-4     0.994839847   
# 
# 03/30/2020 at 12:22 yambo @ marini-Galago-UltraPro [start]
# 03/30/2020 at 12:22                                [end]
#
# .-Input file  yambo.in
# | optics                         # [R] Linear Response optical properties
# | dipoles                        # [R] Oscillator strenghts (or dipoles)
# | chi                            # [R][CHI] Dyson equation for Chi.
# | ElecTemp= 0.025861     eV      # Electronic Temperature
# | BoseTemp= 0.025861     eV      # Bosonic Temperature
# | FFTGvecs=  9999        RL      # [FFT] Plane-waves
# | Chimod= "IP"                   # [X] IP/Hartree/ALDA/LRC/PF/BSfxc
# | % QpntsRXd
# |  1 | 1 |                       # [Xd] Transferred momenta
# | %
# | % BndsRnXd
# |   1 | 19 |                     # [Xd] Polarization function bands
# | %
# | GrFnTpXd= "R"                  # [Xd] Green`s function (T)ordered,(R)etarded,(r)senant,(a)ntiresonant [T, R, r, Ta, Ra]
# | % EnRngeXd
# |   0.00000 | 20.00000 | eV      # [Xd] Energy range
# | %
# | % DmRngeXd
# |  0.100000 | 0.100000 | eV      # [Xd] Damping range
# | %
# | ETStpsXd= 1000                 # [Xd] Total Energy steps
# | % LongDrXd
# |  0.100000E-4 |  0.00000    |  0.00000    # [Xd] [cc] Electric Field
# | %
