#                                                                     
#  ____  ____     _       ____    ____  ______      ___               
# |_  _||_  _|   / \     |_   \  /   _||_   _ \   ."   `.             
#   \ \  / /    / _ \      |   \/   |    | |_) | /  .-.  \            
#    \ \/ /    / ___ \     | |\  /| |    |  __". | |   | |            
#    _|  |_  _/ /   \ \_  _| |_\/_| |_  _| |__) |\  `-"  /            
#   |______||____| |____||_____||_____||_______/  `.___."             
#                                                                     
#                                                                     
#                                                                     
#       Version 5.1.0 Revision 20042 Hash dd01d5cc8                   
#                  Branch is devel-tddft                              
#          MPI+OpenMP+SLK+SLEPC+HDF5_MPI_IO Build                     
#                http://www.yambo-code.org                            
#
# Absorption @ Q(1):   1.00000000      0.00000000      0.00000000    [q->0 direction]
#
# [GEN] GF Energies                               :  E < 02_QP_PPA/ndb.QP
# [GEN] Wavefunctions                             : Perdew, Burke & Ernzerhof(X)+Perdew, Burke & Ernzerhof(C)
# [GEN] Green`s Function                          : Retarded
# [GEN] Gauge                                     : Length
# [GEN] [r,Vnl] included                          : yes
#
# DIP band range                                  :   1  19
# DIP band range limits                           :  16  16
# DIP e/h energy range                            :  -1.00000000     -1.00000000    [eV]
# RL vectors in the sum                           :   9999
# [r,Vnl] included                                : yes
# Bands ordered                                   : yes
# Direct v evaluation                             : no
# Approach used                                   : G-space v
# Dipoles computed                                : R V P
# Wavefunctions                                   : Perdew, Burke & Ernzerhof(X)+Perdew, Burke & Ernzerhof(C)
#
#
#    E/ev[1]            EPS-Im[2]          EPS-Re[3]
#
     0.0000000        -0.39595896E-09      1.0256107    
    0.200200193E-1     0.761749277E-6      1.02561080   
    0.400400385E-1     0.152390623E-5      1.02561092   
    0.600600541E-1     0.228614863E-5      1.02561140   
    0.800800771E-1     0.304850141E-5      1.02561188   
    0.100100093        0.381099539E-5      1.02561259   
    0.120120108        0.457361284E-5      1.02561343   
    0.140140131        0.533647335E-5      1.02561438   
    0.160160154        0.609957124E-5      1.02561557   
    0.180180162        0.686292196E-5      1.02561688   
    0.200200185        0.762656691E-5      1.02561831   
    0.220220223        0.839057248E-5      1.02561986   
    0.240240216        0.915494365E-5      1.02562165   
    0.260260254        0.991972865E-5      1.02562356   
    0.280280262        0.106849220E-4      1.02562559   
    0.300300270        0.114506183E-4      1.02562785   
    0.320320308        0.122168185E-4      1.02563024   
    0.340340316        0.129835607E-4      1.02563274   
    0.360360324        0.137508596E-4      1.02563536   
    0.380380362        0.145187987E-4      1.02563822   
    0.400400370        0.152873745E-4      1.02564120   
    0.420420378        0.160566378E-4      1.02564442   
    0.440440446        0.168265833E-4      1.02564764   
    0.460460424        0.175973146E-4      1.02565110   
    0.480480433        0.183688298E-4      1.02565467   
    0.500500441        0.191411418E-4      1.02565849   
    0.520520508        0.199143287E-4      1.02566230   
    0.540540516        0.206883979E-4      1.02566648   
    0.560560524        0.214634092E-4      1.02567065   
    0.580580533        0.222393573E-4      1.02567506   
    0.600600541        0.230163150E-4      1.02567959   
    0.620620608        0.237943113E-4      1.02568424   
    0.640640616        0.245733772E-4      1.02568913   
    0.660660625        0.253535272E-4      1.02569401   
    0.680680633        0.261348487E-4      1.02569926   
    0.700700700        0.269173343E-4      1.02570450   
    0.720720649        0.277010477E-4      1.02570999   
    0.740740716        0.284859998E-4      1.02571559   
    0.760760725        0.292722561E-4      1.02572143   
    0.780780733        0.300598258E-4      1.02572727   
    0.800800741        0.308487652E-4      1.02573347   
    0.820820808        0.316390979E-4      1.02573967   
    0.840840757        0.324308821E-4      1.02574611   
    0.860860825        0.332241289E-4      1.02575266   
    0.880880892        0.340189144E-4      1.02575934   
    0.900900781        0.348152316E-4      1.02576625   
    0.920920849        0.356131604E-4      1.02577329   
    0.940940857        0.364127227E-4      1.02578056   
    0.960960865        0.372139548E-4      1.02578795   
    0.980980933        0.380169004E-4      1.02579546   
     1.00100088        0.388215776E-4      1.02580309   
     1.02102101        0.396280630E-4      1.02581096   
     1.04104102        0.404363891E-4      1.02581894   
     1.06106102        0.412465779E-4      1.02582717   
     1.08108103        0.420586875E-4      1.02583551   
     1.10110104        0.428727544E-4      1.02584398   
     1.12112105        0.436888222E-4      1.02585268   
     1.14114118        0.445068945E-4      1.02586150   
     1.16116107        0.453270950E-4      1.02587044   
     1.18118107        0.461494055E-4      1.02587962   
     1.20120108        0.469738698E-4      1.02588892   
     1.22122109        0.478005568E-4      1.02589846   
     1.24124122        0.486295030E-4      1.02590811   
     1.26126122        0.494607375E-4      1.02591789   
     1.28128123        0.502943221E-4      1.02592790   
     1.30130124        0.511302824E-4      1.02593803   
     1.32132125        0.519686801E-4      1.02594829   
     1.34134126        0.528095843E-4      1.02595878   
     1.36136127        0.536529733E-4      1.02596951   
     1.38138139        0.544989671E-4      1.02598023   
     1.40140140        0.553475547E-4      1.02599132   
     1.42142129        0.561988236E-4      1.02600241   
     1.44144130        0.570527918E-4      1.02601373   
     1.46146131        0.579095467E-4      1.02602530   
     1.48148143        0.587690920E-4      1.02603698   
     1.50150144        0.596314967E-4      1.02604878   
     1.52152145        0.604968300E-4      1.02606082   
     1.54154146        0.613651064E-4      1.02607298   
     1.56156147        0.622364169E-4      1.02608538   
     1.58158147        0.631107687E-4      1.02609789   
     1.60160148        0.639882273E-4      1.02611065   
     1.62162161        0.648688510E-4      1.02612352   
     1.64164162        0.657527416E-4      1.02613664   
     1.66166162        0.666398773E-4      1.02614987   
     1.68168151        0.675303090E-4      1.02616322   
     1.70170164        0.684241750E-4      1.02617681   
     1.72172165        0.693214606E-4      1.02619064   
     1.74174178        0.702222460E-4      1.02620459   
     1.76176178        0.711265820E-4      1.02621877   
     1.78178179        0.720345270E-4      1.02623308   
     1.80180156        0.729461099E-4      1.02624762   
     1.82182169        0.738614617E-4      1.02626228   
     1.84184170        0.747805607E-4      1.02627718   
     1.86186171        0.757035305E-4      1.02629220   
     1.88188171        0.766304001E-4      1.02630746   
     1.90190172        0.775612425E-4      1.02632284   
     1.92192173        0.784961376E-4      1.02633846   
     1.94194174        0.794350781E-4      1.02635431   
     1.96196187        0.803782023E-4      1.02637029   
     1.98198187        0.813255610E-4      1.02638650   
     2.00200176        0.822771835E-4      1.02640283   
     2.02202201        0.832332080E-4      1.02641940   
     2.04204202        0.841936126E-4      1.02643609   
     2.06206203        0.851585137E-4      1.02645314   
     2.08208203        0.861280059E-4      1.02647018   
     2.10210204        0.871021402E-4      1.02648759   
     2.12212205        0.880809093E-4      1.02650511   
     2.14214206        0.890644951E-4      1.02652276   
     2.16216207        0.900529194E-4      1.02654076   
     2.18218207        0.910463059E-4      1.02655888   
     2.20220208        0.920446764E-4      1.02657712   
     2.22222209        0.930480965E-4      1.02659571   
     2.24224210        0.940566970E-4      1.02661443   
     2.26226211        0.950705289E-4      1.02663338   
     2.28228235        0.960896286E-4      1.02665246   
     2.30230236        0.971141635E-4      1.02667177   
     2.32232213        0.981441917E-4      1.02669132   
     2.34234214        0.991797278E-4      1.02671111   
     2.36236215        0.100220961E-3      1.02673101   
     2.38238215        0.101267913E-3      1.02675116   
     2.40240216        0.102320679E-3      1.02677155   
     2.42242217        0.103379360E-3      1.02679217   
     2.44244218        0.104444014E-3      1.02681291   
     2.46246219        0.105514780E-3      1.02683389   
     2.48248243        0.106591739E-3      1.02685511   
     2.50250244        0.107674939E-3      1.02687657   
     2.52252245        0.108764536E-3      1.02689826   
     2.54254246        0.109860608E-3      1.02692008   
     2.56256247        0.110963272E-3      1.02694225   
     2.58258247        0.112072586E-3      1.02696455   
     2.60260248        0.113188682E-3      1.02698708   
     2.62262249        0.114311631E-3      1.02700984   
     2.64264250        0.115441610E-3      1.02703285   
     2.66266251        0.116578645E-3      1.02705598   
     2.68268251        0.117722964E-3      1.02707946   
     2.70270252        0.118874545E-3      1.02710319   
     2.72272253        0.120033554E-3      1.02712703   
     2.74274278        0.121200115E-3      1.02715123   
     2.76276278        0.122374375E-3      1.02717555   
     2.78278279        0.123556383E-3      1.02720010   
     2.80280280        0.124746322E-3      1.02722502   
     2.82282257        0.125944222E-3      1.02725005   
     2.84284258        0.127150372E-3      1.02727544   
     2.86286259        0.128364831E-3      1.02730095   
     2.88288260        0.129587614E-3      1.02732670   
     2.90290260        0.130819040E-3      1.02735281   
     2.92292261        0.132059111E-3      1.02737916   
     2.94294262        0.133308058E-3      1.02740562   
     2.96296287        0.134565940E-3      1.02743244   
     2.98298287        0.135832903E-3      1.02745950   
     3.00300288        0.137109251E-3      1.02748680   
     3.02302289        0.138394957E-3      1.02751434   
     3.04304290        0.139690252E-3      1.02754223   
     3.06306291        0.140995253E-3      1.02757025   
     3.08308291        0.142310149E-3      1.02759862   
     3.10310292        0.143635130E-3      1.02762723   
     3.12312293        0.144970239E-3      1.02765608   
     3.14314294        0.146315782E-3      1.02768528   
     3.16316295        0.147671861E-3      1.02771461   
     3.18318295        0.149038737E-3      1.02774429   
     3.20320296        0.150416512E-3      1.02777433   
     3.22322321        0.151805332E-3      1.02780449   
     3.24324322        0.153205518E-3      1.02783501   
     3.26326323        0.154617184E-3      1.02786589   
     3.28328323        0.156040507E-3      1.02789688   
     3.30330324        0.157475632E-3      1.02792823   
     3.32332325        0.158922951E-3      1.02795994   
     3.34334302        0.160382566E-3      1.02799189   
     3.36336303        0.161854623E-3      1.02802408   
     3.38338304        0.163339471E-3      1.02805662   
     3.40340328        0.164837227E-3      1.02808940   
     3.42342329        0.166348138E-3      1.02812254   
     3.44344330        0.167872553E-3      1.02815604   
     3.46346331        0.169410545E-3      1.02818978   
     3.48348355        0.170962492E-3      1.02822375   
     3.50350332        0.172528540E-3      1.02825820   
     3.52352357        0.174109038E-3      1.02829289   
     3.54354334        0.175704205E-3      1.02832782   
     3.56356359        0.177314330E-3      1.02836311   
     3.58358335        0.178939634E-3      1.02839875   
     3.60360312        0.180580435E-3      1.02843475   
     3.62362337        0.182237069E-3      1.02847099   
     3.64364338        0.183909753E-3      1.02850771   
     3.66366339        0.185598939E-3      1.02854466   
     3.68368340        0.187304729E-3      1.02858186   
     3.70370364        0.189027545E-3      1.02861953   
     3.72372341        0.190767722E-3      1.02865756   
     3.74374366        0.192525564E-3      1.02869582   
     3.76376343        0.194301509E-3      1.02873456   
     3.78378367        0.196095833E-3      1.02877367   
     3.80380344        0.197908797E-3      1.02881300   
     3.82382369        0.199741015E-3      1.02885282   
     3.84384346        0.201592702E-3      1.02889299   
     3.86386371        0.203464311E-3      1.02893341   
     3.88388348        0.205356191E-3      1.02897429   
     3.90390372        0.207268793E-3      1.02901566   
     3.92392373        0.209202524E-3      1.02905726   
     3.94394398        0.211157894E-3      1.02909935   
     3.96396375        0.213135223E-3      1.02914178   
     3.98398399        0.215135151E-3      1.02918458   
     4.00400352        0.217157954E-3      1.02922785   
     4.02402401        0.219204274E-3      1.02927148   
     4.04404402        0.221274560E-3      1.02931547   
     4.06406403        0.223369294E-3      1.02935994   
     4.08408403        0.225489130E-3      1.02940488   
     4.10410357        0.227634475E-3      1.02945018   
     4.12412405        0.229806014E-3      1.02949595   
     4.14414358        0.232004139E-3      1.02954209   
     4.16416407        0.234229767E-3      1.02958870   
     4.18418360        0.236483174E-3      1.02963579   
     4.20420408        0.238765308E-3      1.02968335   
     4.22422361        0.241076443E-3      1.02973127   
     4.24424410        0.243417744E-3      1.02977979   
     4.26426411        0.245789561E-3      1.02982867   
     4.28428411        0.248192751E-3      1.02987802   
     4.30430412        0.250627927E-3      1.02992797   
     4.32432413        0.253096077E-3      1.02997828   
     4.34434414        0.255597814E-3      1.03002918   
     4.36436415        0.258134009E-3      1.03008056   
     4.38438416        0.260705507E-3      1.03013241   
     4.40440416        0.263313297E-3      1.03018475   
     4.42442417        0.265958050E-3      1.03023767   
     4.44444418        0.268640928E-3      1.03029120   
     4.46446419        0.271362718E-3      1.03034520   
     4.48448420        0.274124613E-3      1.03039968   
     4.50450420        0.276927487E-3      1.03045475   
     4.52452421        0.279772648E-3      1.03051043   
     4.54454422        0.282660912E-3      1.03056669   
     4.56456470        0.285593531E-3      1.03062344   
     4.58458424        0.288571755E-3      1.03068089   
     4.60460472        0.291596836E-3      1.03073883   
     4.62462425        0.294669968E-3      1.03079748   
     4.64464426        0.297792547E-3      1.03085673   
     4.66466427        0.300965970E-3      1.03091657   
     4.68468428        0.304191606E-3      1.03097701   
     4.70470428        0.307471113E-3      1.03103817   
     4.72472429        0.310805772E-3      1.03109992   
     4.74474430        0.314197416E-3      1.03116238   
     4.76476431        0.317647558E-3      1.03122556   
     4.78478479        0.321158179E-3      1.03128934   
     4.80480433        0.324730645E-3      1.03135395   
     4.82482481        0.328367256E-3      1.03141928   
     4.84484434        0.332069845E-3      1.03148520   
     4.86486483        0.335840450E-3      1.03155196   
     4.88488436        0.339681108E-3      1.03161943   
     4.90490484        0.343594089E-3      1.03168774   
     4.92492437        0.347581663E-3      1.03175676   
     4.94494486        0.351646420E-3      1.03182662   
     4.96496487        0.355790573E-3      1.03189731   
     4.98498487        0.360017089E-3      1.03196883   
     5.00500488        0.364328298E-3      1.03204119   
     5.02502489        0.368727546E-3      1.03211439   
     5.04504490        0.373217277E-3      1.03218853   
     5.06506491        0.377801218E-3      1.03226352   
     5.08508492        0.382482016E-3      1.03233945   
     5.10510492        0.387263630E-3      1.03241634   
     5.12512493        0.392149203E-3      1.03249419   
     5.14514446        0.397142809E-3      1.03257298   
     5.16516495        0.402248348E-3      1.03265285   
     5.18518496        0.407469721E-3      1.03273368   
     5.20520496        0.412811612E-3      1.03281558   
     5.22522497        0.418278243E-3      1.03289855   
     5.24524498        0.423874561E-3      1.03298271   
     5.26526499        0.429605483E-3      1.03306782   
     5.28528500        0.435476541E-3      1.03315425   
     5.30530500        0.441492914E-3      1.03324175   
     5.32532501        0.447660685E-3      1.03333056   
     5.34534502        0.453985907E-3      1.03342044   
     5.36536503        0.460475159E-3      1.03351176   
     5.38538504        0.467135338E-3      1.03360426   
     5.40540504        0.473973691E-3      1.03369820   
     5.42542505        0.480997405E-3      1.03379345   
     5.44544506        0.488215068E-3      1.03389013   
     5.46546507        0.495635031E-3      1.03398824   
     5.48548555        0.503266230E-3      1.03408790   
     5.50550508        0.511118094E-3      1.03418911   
     5.52552557        0.519201043E-3      1.03429186   
     5.54554510        0.527525495E-3      1.03439617   
     5.56556559        0.536103151E-3      1.03450215   
     5.58558512        0.544945768E-3      1.03460991   
     5.60560560        0.554066268E-3      1.03471947   
     5.62562513        0.563478388E-3      1.03483081   
     5.64564514        0.573196565E-3      1.03494406   
     5.66566515        0.583236164E-3      1.03505933   
     5.68568516        0.593613717E-3      1.03517652   
     5.70570564        0.604347093E-3      1.03529584   
     5.72572517        0.615454454E-3      1.03541732   
     5.74574566        0.626956695E-3      1.03554094   
     5.76576519        0.638874422E-3      1.03566694   
     5.78578568        0.651231618E-3      1.03579533   
     5.80580521        0.664051739E-3      1.03592622   
     5.82582569        0.677362608E-3      1.03605962   
     5.84584522        0.691191352E-3      1.03619564   
     5.86586571        0.705569284E-3      1.03633451   
     5.88588524        0.720528769E-3      1.03647625   
     5.90590572        0.736105954E-3      1.03662097   
     5.92592573        0.752338616E-3      1.03676891   
     5.94594574        0.769267848E-3      1.03691995   
     5.96596575        0.786938530E-3      1.03707445   
     5.98598576        0.805399381E-3      1.03723240   
     6.00600576        0.824701856E-3      1.03739417   
     6.02602577        0.844904163E-3      1.03755975   
     6.04604578        0.866067130E-3      1.03772926   
     6.06606579        0.888259092E-3      1.03790307   
     6.08608580        0.911552401E-3      1.03808129   
     6.10610580        0.936028606E-3      1.03826416   
     6.12612581        0.961774029E-3      1.03845191   
     6.14614582        0.988886110E-3      1.03864479   
     6.16616583        0.101746933E-2      1.03884292   
     6.18618584        0.104764011E-2      1.03904688   
     6.20620584        0.107952685E-2      1.03925681   
     6.22622585        0.111326913E-2      1.03947294   
     6.24624586        0.114902447E-2      1.03969586   
     6.26626587        0.118696375E-2      1.03992581   
     6.28628588        0.122727989E-2      1.04016328   
     6.30630589        0.127018557E-2      1.04040861   
     6.32632589        0.131591933E-2      1.04066241   
     6.34634590        0.136474567E-2      1.04092526   
     6.36636591        0.141696399E-2      1.04119754   
     6.38638592        0.147290726E-2      1.04148018   
     6.40640593        0.153295405E-2      1.04177368   
     6.42642593        0.159752823E-2      1.04207885   
     6.44644642        0.166711409E-2      1.04239655   
     6.46646595        0.174225890E-2      1.04272771   
     6.48648643        0.182358955E-2      1.04307342   
     6.50650597        0.191181898E-2      1.04343462   
     6.52652645        0.200777152E-2      1.04381287   
     6.54654598        0.211239094E-2      1.04420936   
     6.56656647        0.222677714E-2      1.04462564   
     6.58658600        0.235219719E-2      1.04506361   
     6.60660648        0.249014259E-2      1.04552495   
     6.62662601        0.264235050E-2      1.04601204   
     6.64664650        0.281087821E-2      1.04652727   
     6.66666651        0.299815019E-2      1.04707325   
     6.68668604        0.320706377E-2      1.04765320   
     6.70670652        0.344109070E-2      1.04827058   
     6.72672606        0.370439677E-2      1.04892933   
     6.74674654        0.400206121E-2      1.04963386   
     6.76676607        0.434025703E-2      1.05038929   
     6.78678656        0.472660735E-2      1.05120122   
     6.80680656        0.517053995E-2      1.05207634   
     6.82682610        0.568381744E-2      1.05302155   
     6.84684658        0.628133072E-2      1.05404520   
     6.86686659        0.698193209E-2      1.05515587   
     6.88688660        0.780982804E-2      1.05636322   
     6.90690613        0.879629515E-2      1.05767655   
     6.92692661        0.998228975E-2      1.05910492   
     6.94694662        0.114215482E-1      1.06065440   
     6.96696711        0.131852366E-1      1.06232572   
     6.98698616        0.153677072E-1      1.06410754   
     7.00700665        0.180939678E-1      1.06596625   
     7.02702665        0.215264391E-1      1.06782615   
     7.04704714        0.258683171E-1      1.06953621   
     7.06706667        0.313507579E-1      1.07081485   
     7.08708668        0.381788984E-1      1.07117009   
     7.10710669        0.463818274E-1      1.06981575   
     7.12712717        0.555124208E-1      1.06568313   
     7.14714670        0.642477497E-1      1.05776238   
     7.16716671        0.703247637E-1      1.04596686   
     7.18718719        0.715148225E-1      1.03202200   
     7.20720625        0.673166513E-1      1.01899278   
     7.22722673        0.594089217E-1      1.00934565   
     7.24724674        0.502319783E-1      1.00370288   
     7.26726723        0.415471271E-1      1.00131500   
     7.28728676        0.341287404E-1      1.00106728   
     7.30730677        0.281029642E-1      1.00203955   
     7.32732677        0.233140364E-1      1.00362313   
     7.34734726        0.195312221E-1      1.00545800   
     7.36736679        0.165363010E-1      1.00734580   
     7.38738680        0.141490968E-1      1.00918412   
     7.40740728        0.122296968E-1      1.01092458   
     7.42742729        0.106716575E-1      1.01254773   
     7.44744682        0.939476863E-2      1.01405036   
     7.46746683        0.833839271E-2      1.01543689   
     7.48748732        0.745669287E-2      1.01671517   
     7.50750732        0.671463693E-2      1.01789463   
     7.52752686        0.608527148E-2      1.01898491   
     7.54754686        0.554759195E-2      1.01999521   
     7.56756735        0.508520380E-2      1.02093363   
     7.58758736        0.468511879E-2      1.02180803   
     7.60760689        0.433699507E-2      1.02262509   
     7.62762737        0.403248193E-2      1.02339089   
     7.64764738        0.376483938E-2      1.02411056   
     7.66766787        0.352856307E-2      1.02478909   
     7.68768692        0.331913284E-2      1.02543056   
     7.70770741        0.313278241E-2      1.02603853   
     7.72772741        0.296640093E-2      1.02661633   
     7.74774694        0.281738187E-2      1.02716684   
     7.76776695        0.268350891E-2      1.02769279   
     7.78778744        0.256292662E-2      1.02819622   
     7.80780745        0.245404802E-2      1.02867925   
     7.82782698        0.235552038E-2      1.02914381   
     7.84784746        0.226617046E-2      1.02959144   
     7.86786747        0.218499848E-2      1.03002369   
     7.88788795        0.211113621E-2      1.03044176   
     7.90790701        0.204382907E-2      1.03084695   
     7.92792749        0.198241230E-2      1.03124034   
     7.94794750        0.192631246E-2      1.03162289   
     7.96796799        0.187502324E-2      1.03199553   
     7.98798704        0.182809937E-2      1.03235912   
     8.00800705        0.178514479E-2      1.03271425   
     8.02802753        0.174581050E-2      1.03306186   
     8.04804802        0.170978799E-2      1.03340232   
     8.06806755        0.167680252E-2      1.03373635   
     8.08808804        0.164660509E-2      1.03406441   
     8.10810757        0.161897682E-2      1.03438711   
     8.12812805        0.159372168E-2      1.03470480   
     8.14814758        0.157066225E-2      1.03501797   
     8.16816807        0.154963788E-2      1.03532696   
     8.18818760        0.153050607E-2      1.03563213   
     8.20820713        0.151313760E-2      1.03593397   
     8.22822762        0.149741443E-2      1.03623259   
     8.24824810        0.148323050E-2      1.03652847   
     8.26826763        0.147049094E-2      1.03682172   
     8.28828716        0.145910797E-2      1.03711271   
     8.30830765        0.144900184E-2      1.03740180   
     8.32832813        0.144010072E-2      1.03768897   
     8.34834862        0.143233908E-2      1.03797460   
     8.36836720        0.142565730E-2      1.03825891   
     8.38838768        0.142000103E-2      1.03854203   
     8.40840816        0.141532067E-2      1.03882432   
     8.42842865        0.141157059E-2      1.03910565   
     8.44844723        0.140870980E-2      1.03938651   
     8.46846771        0.140670105E-2      1.03966701   
     8.48848820        0.140550907E-2      1.03994715   
     8.50850868        0.140510430E-2      1.04022717   
     8.52852821        0.140545645E-2      1.04050720   
     8.54854774        0.140654086E-2      1.04078746   
     8.56856823        0.140833436E-2      1.04106808   
     8.58858871        0.141081505E-2      1.04134917   
     8.60860825        0.141396339E-2      1.04163074   
     8.62862778        0.141776400E-2      1.04191315   
     8.64864826        0.142219942E-2      1.04219639   
     8.66866875        0.142725697E-2      1.04248059   
     8.68868828        0.143292372E-2      1.04276586   
     8.70870781        0.143918931E-2      1.04305232   
     8.72872829        0.144604489E-2      1.04334021   
     8.74874783        0.145348068E-2      1.04362941   
     8.76876831        0.146149204E-2      1.04392028   
     8.78878880        0.147007173E-2      1.04421270   
     8.80880833        0.147921592E-2      1.04450703   
     8.82882786        0.148892030E-2      1.04480314   
     8.84884834        0.149918359E-2      1.04510140   
     8.86886883        0.151000358E-2      1.04540169   
     8.88888836        0.152138004E-2      1.04570413   
     8.90890789        0.153331319E-2      1.04600894   
     8.92892838        0.154580502E-2      1.04631627   
     8.94894886        0.155885762E-2      1.04662609   
     8.96896839        0.157247426E-2      1.04693854   
     8.98898792        0.158665772E-2      1.04725385   
     9.00900841        0.160141452E-2      1.04757202   
     9.02902889        0.161674968E-2      1.04789317   
     9.04904842        0.163266971E-2      1.04821742   
     9.06906796        0.164918241E-2      1.04854488   
     9.08908844        0.166629604E-2      1.04887581   
     9.10910892        0.168402004E-2      1.04921019   
     9.12912941        0.170236407E-2      1.04954803   
     9.14914799        0.172133837E-2      1.04988968   
     9.16916847        0.174095621E-2      1.05023515   
     9.18918896        0.176122983E-2      1.05058467   
     9.20920944        0.178217341E-2      1.05093825   
     9.22922897        0.180379977E-2      1.05129600   
     9.24924850        0.182612706E-2      1.05165815   
     9.26926899        0.184917101E-2      1.05202484   
     9.28928852        0.187294919E-2      1.05239618   
     9.30930901        0.189748057E-2      1.05277228   
     9.32932854        0.192278600E-2      1.05315340   
     9.34934902        0.194888632E-2      1.05353951   
     9.36936855        0.197580317E-2      1.05393100   
     9.38938904        0.200356054E-2      1.05432796   
     9.40940857        0.203218521E-2      1.05473042   
     9.42942905        0.206170185E-2      1.05513871   
     9.44944859        0.209213863E-2      1.05555296   
     9.46946907        0.212352700E-2      1.05597329   
     9.48948860        0.215589721E-2      1.05639994   
     9.50950909        0.218928163E-2      1.05683315   
     9.52952862        0.222371425E-2      1.05727315   
     9.54954910        0.225923606E-2      1.05771995   
     9.56956959        0.229588151E-2      1.05817401   
     9.58958912        0.233369344E-2      1.05863547   
     9.60960865        0.237271306E-2      1.05910444   
     9.62962914        0.241298974E-2      1.05958140   
     9.64964962        0.245456956E-2      1.06006634   
     9.66966915        0.249750330E-2      1.06055975   
     9.68968868        0.254184357E-2      1.06106174   
     9.70970917        0.258765090E-2      1.06157267   
     9.72972965        0.263498351E-2      1.06209290   
     9.74974918        0.268390286E-2      1.06262255   
     9.76976871        0.273448136E-2      1.06316209   
     9.78978920        0.278678699E-2      1.06371176   
     9.80980968        0.284089684E-2      1.06427205   
     9.82982922        0.289688888E-2      1.06484306   
     9.84984875        0.295485277E-2      1.06542540   
     9.86986923        0.301487604E-2      1.06601942   
     9.88988972        0.307705696E-2      1.06662560   
     9.90990925        0.314149261E-2      1.06724405   
     9.92992973        0.320829754E-2      1.06787562   
     9.94994926        0.327758538E-2      1.06852055   
     9.96996975        0.334948068E-2      1.06917942   
     9.98998928        0.342410966E-2      1.06985271   
     10.0100098        0.350161968E-2      1.07054102   
     10.0300293        0.358215789E-2      1.07124484   
     10.0500498        0.366588566E-2      1.07196486   
     10.0700693        0.375296851E-2      1.07270157   
     10.0900898        0.384359853E-2      1.07345581   
     10.1101093        0.393796898E-2      1.07422829   
     10.1301298        0.403629197E-2      1.07501960   
     10.1501493        0.413878821E-2      1.07583070   
     10.1701698        0.424571056E-2      1.07666230   
     10.1901894        0.435731653E-2      1.07751524   
     10.2102098        0.447389390E-2      1.07839060   
     10.2302294        0.459573744E-2      1.07928932   
     10.2502499        0.472318986E-2      1.08021235   
     10.2702703        0.485660182E-2      1.08116078   
     10.2902889        0.499635283E-2      1.08213603   
     10.3103094        0.514287408E-2      1.08313906   
     10.3303299        0.529661542E-2      1.08417141   
     10.3503504        0.545806997E-2      1.08523440   
     10.3703699        0.562776998E-2      1.08632958   
     10.3903894        0.580631569E-2      1.08745861   
     10.4104099        0.599434227E-2      1.08862317   
     10.4304304        0.619255286E-2      1.08982515   
     10.4504499        0.640170556E-2      1.09106648   
     10.4704695        0.662266091E-2      1.09234929   
     10.4904900        0.685634091E-2      1.09367609   
     10.5105104        0.710377004E-2      1.09504914   
     10.5305300        0.736606587E-2      1.09647107   
     10.5505495        0.764449732E-2      1.09794497   
     10.5705700        0.794044230E-2      1.09947395   
     10.5905905        0.825543702E-2      1.10106122   
     10.6106100        0.859118253E-2      1.10271037   
     10.6306295        0.894961972E-2      1.10442567   
     10.6506500        0.933287758E-2      1.10621130   
     10.6706705        0.974335149E-2      1.10807192   
     10.6906900        0.101837320E-1      1.11001277   
     10.7107105        0.106570954E-1      1.11203945   
     10.7307301        0.111668725E-1      1.11415815   
     10.7507505        0.117169805E-1      1.11637568   
     10.7707701        0.123118442E-1      1.11869943   
     10.7907906        0.129566025E-1      1.12113798   
     10.8108101        0.136570642E-1      1.12370002   
     10.8308296        0.144199068E-1      1.12639582   
     10.8508501        0.152529534E-1      1.12923682   
     10.8708706        0.161651634E-1      1.13223529   
     10.8908901        0.171670262E-1      1.13540530   
     10.9109097        0.182707477E-1      1.13876224   
     10.9309301        0.194908567E-1      1.14232397   
     10.9509506        0.208443608E-1      1.14610982   
     10.9709711        0.223515276E-1      1.15014207   
     10.9909897        0.240365118E-1      1.15444553   
     11.0110102        0.259285867E-1      1.15904856   
     11.0310307        0.280629527E-1      1.16398287   
     11.0510511        0.304825734E-1      1.16928470   
     11.0710697        0.332400762E-1      1.17499459   
     11.0910902        0.364008397E-1      1.18115878   
     11.1111107        0.400460623E-1      1.18782926   
     11.1311312        0.442778617E-1      1.19506347   
     11.1511507        0.492254831E-1      1.20292473   
     11.1711702        0.550549366E-1      1.21148217   
     11.1911907        0.619797334E-1      1.22080612   
     11.2112112        0.702781603E-1      1.23096418   
     11.2312307        0.803149641E-1      1.24200964   
     11.2512503        0.925736651E-1      1.25396311   
     11.2712708        0.107694179         1.26677275   
     11.2912903        0.126523837         1.28024840   
     11.3113108        0.150174409         1.29394221   
     11.3313303        0.180054858         1.30693412   
     11.3513508        0.217827454         1.31747973   
     11.3713703        0.265119135         1.32247019   
     11.3913908        0.322679907         1.31678677   
     11.4114113        0.388500839         1.29306304   
     11.4314308        0.454932362         1.24328792   
     11.4514503        0.506979585         1.16412055   
     11.4714708        0.526990652         1.06421924   
     11.4914913        0.506711781        0.964496076   
     11.5115108        0.454594374        0.885758936   
     11.5315304        0.388333976        0.836486936   
     11.5515509        0.322831929        0.813219965   
     11.5715714        0.265648872        0.807933867   
     11.5915909        0.218739107        0.813288033   
     11.6116104        0.181337520        0.824193537   
     11.6316309        0.151808605        0.837565541   
     11.6516514        0.128494725        0.851674080   
     11.6716719        0.109991096        0.865608811   
     11.6916904        0.951925367E-1     0.878926218   
     11.7117109        0.832538158E-1     0.891441524   
     11.7317314        0.735385865E-1     0.903105795   
     11.7517519        0.655671060E-1     0.913941264   
     11.7717705        0.589768402E-1     0.924003482   
     11.7917910        0.534912385E-1     0.933363199   
     11.8118114        0.488990135E-1     0.942093313   
     11.8318310        0.450367630E-1     0.950264454   
     11.8518515        0.417767875E-1     0.957943916   
     11.8718710        0.390192755E-1     0.965192318   
     11.8918915        0.366852283E-1     0.972065151   
     11.9119110        0.347119793E-1     0.978612065   
     11.9319315        0.330492705E-1     0.984878898   
     11.9519510        0.316571929E-1     0.990906239   
     11.9719715        0.305037275E-1     0.996731341   
     11.9919910        0.295634288E-1      1.00238812   
     12.0120115        0.288160816E-1      1.00790870   
     12.0320311        0.282461308E-1      1.01332200   
     12.0520515        0.278417859E-1      1.01865602   
     12.0720711        0.275946874E-1      1.02393687   
     12.0920916        0.274994895E-1      1.02919066   
     12.1121120        0.275537483E-1      1.03444231   
     12.1321316        0.277577750E-1      1.03971660   
     12.1521511        0.281146634E-1      1.04503870   
     12.1721716        0.286304504E-1      1.05043459   
     12.1921921        0.293143149E-1      1.05593073   
     12.2122116        0.301789492E-1      1.06155515   
     12.2322311        0.312411264E-1      1.06733716   
     12.2522516        0.325225033E-1      1.07330906   
     12.2722721        0.340504311E-1      1.07950509   
     12.2922916        0.358594097E-1      1.08596277   
     12.3123112        0.379926898E-1      1.09272289   
     12.3323317        0.405049920E-1      1.09983122   
     12.3523521        0.434650779E-1      1.10733700   
     12.3723717        0.469602160E-1      1.11529410   
     12.3923912        0.511022545E-1      1.12376153   
     12.4124117        0.560346693E-1      1.13280070   
     12.4324322        0.619436838E-1      1.14247322   
     12.4524517        0.690723062E-1      1.15283525   
     12.4724712        0.777414218E-1      1.16392744   
     12.4924917        0.883744955E-1      1.17575216   
     12.5125122        0.101532824         1.18823683   
     12.5325317        0.117954656         1.20116496   
     12.5525522        0.138594553         1.21405578   
     12.5725718        0.164622232         1.22595322   
     12.5925922        0.197314322         1.23509324   
     12.6126118        0.237650245         1.23844373   
     12.6326323        0.285317689         1.23131824   
     12.6526518        0.336854726         1.20777738   
     12.6726723        0.383669227         1.16321099   
     12.6926918        0.412924618         1.09955239   
     12.7127123        0.414490312         1.02871430   
     12.7327318        0.389249116        0.967265725   
     12.7527523        0.348251969        0.925802171   
     12.7727718        0.303890169        0.905103862   
     12.7927923        0.263902843        0.900427639   
     12.8128119        0.231397286        0.906393468   
     12.8328314        0.206985652        0.918892503   
     12.8528519        0.190327615        0.935140848   
     12.8728724        0.180864125        0.953303099   
     12.8928928        0.178146064        0.972135425   
     12.9129114        0.181978419        0.990665376   
     12.9329319        0.192441285         1.00791287   
     12.9529524        0.209837943         1.02263772   
     12.9729729        0.234606102         1.03304863   
     12.9929924        0.267023891         1.03630841   
     13.0130119        0.306194127         1.02799714   
     13.0330324        0.347967148         1.00258768   
     13.0530529        0.383072853        0.956517518   
     13.0730724        0.398975223        0.893522918   
     13.0930920        0.387588650        0.826689005   
     13.1131124        0.352191567        0.771516919   
     13.1331329        0.304425240        0.736189723   
     13.1531525        0.255601227        0.719779134   
     13.1731720        0.212095261        0.716978788   
     13.1931925        0.175928071        0.722391009   
     13.2132130        0.146811321        0.732107580   
     13.2332325        0.123637661        0.743707418   
     13.2532520        0.105196036        0.755820572   
     13.2732725        0.904370174E-1     0.767721295   
     13.2932930        0.785233453E-1     0.779054999   
     13.3133125        0.688120574E-1     0.789672017   
     13.3333330        0.608150363E-1     0.799533486   
     13.3533525        0.541645028E-1     0.808655739   
     13.3733721        0.485814959E-1     0.817082226   
     13.3933926        0.438525490E-1     0.824868202   
     13.4134130        0.398139954E-1     0.832070708   
     13.4334326        0.363386236E-1     0.838745177   
     13.4534521        0.333268233E-1     0.844942987   
     13.4734726        0.306995623E-1     0.850711823   
     13.4934931        0.283940900E-1     0.856093764   
     13.5135126        0.263598077E-1     0.861126602   
     13.5335321        0.245557725E-1     0.865843832   
     13.5535526        0.229482912E-1     0.870275617   
     13.5735731        0.215098280E-1     0.874448419   
     13.5935936        0.202174913E-1     0.878385723   
     13.6136131        0.190521888E-1     0.882108450   
     13.6336327        0.179979224E-1     0.885635376   
     13.6536522        0.170411021E-1     0.888983190   
     13.6736736        0.161701795E-1     0.892167211   
     13.6936932        0.153754884E-1     0.895200253   
     13.7137136        0.146485111E-1     0.898094952   
     13.7337332        0.139821209E-1     0.900861740   
     13.7537527        0.133700240E-1     0.903510809   
     13.7737732        0.128067452E-1     0.906051278   
     13.7937927        0.122876670E-1     0.908490837   
     13.8138123        0.118086254E-1     0.910837293   
     13.8338337        0.113659650E-1     0.913097441   
     13.8538532        0.109566059E-1     0.915277362   
     13.8738728        0.105777225E-1     0.917382896   
     13.8938932        0.102268308E-1     0.919419467   
     13.9139128        0.990182813E-2     0.921391845   
     13.9339342        0.960074831E-2     0.923304677   
     13.9539528        0.932195690E-2     0.925162137   
     13.9739723        0.906393677E-2     0.926968217   
     13.9939938        0.882536080E-2     0.928726852   
     14.0140133        0.860511698E-2     0.930441320   
     14.0340328        0.840217341E-2     0.932115018   
     14.0540533        0.821564533E-2     0.933751225   
     14.0740728        0.804480445E-2     0.935352743   
     14.0940943        0.788898487E-2     0.936922729   
     14.1141138        0.774766831E-2     0.938463628   
     14.1341333        0.762041239E-2     0.939978361   
     14.1541538        0.750686880E-2     0.941469550   
     14.1741734        0.740681356E-2     0.942939579   
     14.1941929        0.732009066E-2     0.944391072   
     14.2142134        0.724663772E-2     0.945826650   
     14.2342329        0.718651991E-2     0.947248518   
     14.2542543        0.713987276E-2     0.948659480   
     14.2742739        0.710696448E-2     0.950061798   
     14.2942934        0.708816992E-2     0.951458216   
     14.3143139        0.708398968E-2     0.952851415   
     14.3343334        0.709507242E-2     0.954243898   
     14.3543530        0.712222373E-2     0.955638587   
     14.3743744        0.716643641E-2     0.957038701   
     14.3943930        0.722889416E-2     0.958447039   
     14.4144125        0.731103215E-2     0.959867060   
     14.4344339        0.741457567E-2     0.961302459   
     14.4544535        0.754154800E-2     0.962756872   
     14.4744740        0.769440271E-2     0.964234650   
     14.4944935        0.787601341E-2     0.965740144   
     14.5145130        0.808986090E-2     0.967278421   
     14.5345345        0.834010541E-2     0.968855023   
     14.5545540        0.863169972E-2     0.970475852   
     14.5745735        0.897067692E-2     0.972147584   
     14.5945940        0.936438143E-2     0.973877966   
     14.6146135        0.982165895E-2     0.975675046   
     14.6346350        0.103535401E-1     0.977548420   
     14.6546535        0.109734815E-1     0.979508162   
     14.6746731        0.116984146E-1     0.981566072   
     14.6946945        0.125496155E-1     0.983735144   
     14.7147141        0.135538355E-1     0.986028969   
     14.7347336        0.147454897E-1     0.988462627   
     14.7547541        0.161690153E-1     0.991051495   
     14.7747736        0.178817827E-1     0.993809223   
     14.7947950        0.199595578E-1     0.996746838   
     14.8148146        0.225013494E-1     0.999865949   
     14.8348331        0.256381556E-1      1.00315177   
     14.8548546        0.295413081E-1      1.00655639   
     14.8748741        0.344282836E-1      1.00997019   
     14.8948936        0.405617356E-1      1.01317596   
     14.9149141        0.482165553E-1      1.01577532   
     14.9349337        0.575734898E-1      1.01709831   
     14.9549532        0.684864223E-1      1.01616049   
     14.9749746        0.801045969E-1      1.01184630   
     14.9949942        0.906251669E-1      1.00357461   
     15.0150146        0.978698283E-1     0.992255330   
     15.0350342        0.100857876        0.980355024   
     15.0550537        0.100818962        0.970220625   
     15.0750751        0.100129373        0.962301254   
     15.0950937        0.100379258        0.955131054   
     15.1151133        0.101304524        0.946645260   
     15.1351347        0.100941733        0.935779870   
     15.1551542        0.970011652E-1     0.923573375   
     15.1751747        0.887970328E-1     0.912644207   
     15.1951942        0.777959824E-1     0.905185580   
     15.2152138        0.662346333E-1     0.901662588   
     15.2352352        0.557056107E-1     0.901248276   
     15.2552547        0.468545221E-1     0.902788699   
     15.2752733        0.396988504E-1     0.905341387   
     15.2952948        0.339784324E-1     0.908290803   
     15.3153143        0.293634627E-1     0.911302090   
     15.3353357        0.255641099E-1     0.914241850   
     15.3553543        0.223854873E-1     0.917082548   
     15.3753738        0.197136328E-1     0.919821203   
     15.3953953        0.174728502E-1     0.922445357   
     15.4154148        0.155975418E-1     0.924937546   
     15.4354343        0.140255829E-1     0.927286983   
     15.4554548        0.127018010E-1     0.929491818   
     15.4754744        0.115801999E-1     0.931556463   
     15.4954939        0.106232632E-1     0.933489680   
     15.5155153        0.980115682E-2     0.935302138   
     15.5355339        0.909043942E-2     0.937004209   
     15.5555553        0.847228337E-2     0.938606679   
     15.5755749        0.793188065E-2     0.940119028   
     15.5955944        0.745721487E-2     0.941550255   
     15.6156149        0.703858677E-2     0.942908585   
     15.6356344        0.666820677E-2     0.944200933   
     15.6556540        0.633960729E-2     0.945434093   
     15.6756754        0.604748400E-2     0.946613908   
     15.6956949        0.578751368E-2     0.947745562   
     15.7157154        0.555604463E-2     0.948834062   
     15.7357349        0.535011990E-2     0.949883521   
     15.7557545        0.516724167E-2     0.950898111   
     15.7757759        0.500536105E-2     0.951881528   
     15.7957945        0.486283610E-2     0.952837050   
     15.8158140        0.473831734E-2     0.953767955   
     15.8358355        0.463075237E-2     0.954677224   
     15.8558550        0.453938358E-2     0.955567718   
     15.8758755        0.446366798E-2     0.956442177   
     15.8958950        0.440333923E-2     0.957303226   
     15.9159145        0.435835542E-2     0.958153486   
     15.9359360        0.432893448E-2     0.958995759   
     15.9559555        0.431557605E-2     0.959832430   
     15.9759741        0.431907503E-2     0.960666299   
     15.9959955        0.434058486E-2     0.961500287   
     16.0160141        0.438165711E-2     0.962337077   
     16.0360336        0.444434676E-2     0.963179827   
     16.0560551        0.453131367E-2     0.964031994   
     16.0760746        0.464595016E-2     0.964896858   
     16.0960960        0.479263021E-2     0.965778470   
     16.1161156        0.497690402E-2     0.966680706   
     16.1361351        0.520593533E-2     0.967608154   
     16.1561565        0.548897870E-2     0.968565464   
     16.1761761        0.583795691E-2     0.969557285   
     16.1961937        0.626852317E-2     0.970588326   
     16.2162151        0.680126296E-2     0.971662462   
     16.2362347        0.746320980E-2     0.972781479   
     16.2562561        0.829034392E-2     0.973943472   
     16.2762756        0.932979956E-2     0.975138724   
     16.2962952        0.106430836E-1     0.976343811   
     16.3163166        0.123078739E-1     0.977510691   
     16.3363361        0.144159449E-1     0.978548706   
     16.3563557        0.170622058E-1     0.979297638   
     16.3763752        0.203060620E-1     0.979489625   
     16.3963947        0.240767039E-1     0.978723943   
     16.4164143        0.280138962E-1     0.976527929   
     16.4364357        0.313352905E-1     0.972615778   
     16.4564552        0.330074430E-1     0.967314661   
     16.4764767        0.323755071E-1     0.961707234   
     16.4964962        0.297055803E-1     0.957069278   
     16.5165157        0.259475168E-1     0.954093039   
     16.5365353        0.220463909E-1     0.952729344   
     16.5565548        0.185574945E-1     0.952551842   
     16.5765743        0.156712737E-1     0.953109205   
     16.5965958        0.133778937E-1     0.954067826   
     16.6166153        0.115935346E-1     0.955217719   
     16.6366367        0.102226036E-1     0.956438661   
     16.6566563        0.918265712E-2     0.957665384   
     16.6766758        0.840906147E-2     0.958864570   
     16.6966972        0.785448775E-2     0.960020542   
     16.7167149        0.748731848E-2     0.961126804   
     16.7367344        0.729071954E-2     0.962179542   
     16.7567558        0.726129580E-2     0.963170171   
     16.7767754        0.740417046E-2     0.964076161   
     16.7967968        0.772365229E-2     0.964854181   
     16.8168163        0.820598472E-2     0.965433955   
     16.8368359        0.879003853E-2     0.965725005   
     16.8568573        0.933512673E-2     0.965656102   
     16.8768768        0.963252038E-2     0.965257704   
     16.8968945        0.951345265E-2     0.964719474   
     16.9169159        0.898340251E-2     0.964309931   
     16.9369354        0.821500551E-2     0.964206934   
     16.9569550        0.740875024E-2     0.964429438   
     16.9769764        0.669254735E-2     0.964901984   
     16.9969959        0.611602888E-2     0.965534449   
     17.0170174        0.568314269E-2     0.966258824   
     17.0370369        0.538063236E-2     0.967032611   
     17.0570564        0.519257691E-2     0.967832923   
     17.0770760        0.510650780E-2     0.968649268   
     17.0970955        0.511528505E-2     0.969477832   
     17.1171150        0.521750422E-2     0.970319092   
     17.1371365        0.541776186E-2     0.971174955   
     17.1571560        0.572706666E-2     0.972047329   
     17.1771774        0.616392214E-2     0.972936571   
     17.1971970        0.675563328E-2     0.973838389   
     17.2172165        0.754042668E-2     0.974740326   
     17.2372360        0.856912509E-2     0.975614190   
     17.2572556        0.990442839E-2     0.976403713   
     17.2772751        0.116141401E-1     0.977005661   
     17.2972965        0.137463212E-1     0.977243781   
     17.3173161        0.162688326E-1     0.976848722   
     17.3373375        0.189636238E-1     0.975488186   
     17.3573570        0.213195551E-1     0.972925723   
     17.3773766        0.226092637E-1     0.969318151   
     17.3973980        0.223034602E-1     0.965377986   
     17.4174156        0.205134675E-1     0.962029636   
     17.4374352        0.178897548E-1     0.959820211   
     17.4574566        0.151192704E-1     0.958748937   
     17.4774761        0.126146646E-1     0.958521366   
     17.4974957        0.105205188E-1     0.958815098   
     17.5175171        0.883279182E-2     0.959390163   
     17.5375366        0.749176415E-2     0.960095346   
     17.5575581        0.642769691E-2     0.960844040   
     17.5775776        0.557923876E-2     0.961589634   
     17.5975952        0.489693321E-2     0.962308764   
     17.6176167        0.434273807E-2     0.962991178   
     17.6376362        0.388797233E-2     0.963633299   
     17.6576557        0.351089449E-2     0.964235365   
     17.6776772        0.319508277E-2     0.964799464   
     17.6976967        0.292811752E-2     0.965328217   
     17.7177181        0.270039518E-2     0.965824783   
     17.7377377        0.250456226E-2     0.966291964   
     17.7577572        0.233483198E-2     0.966732621   
     17.7777767        0.218665204E-2     0.967149258   
     17.7977962        0.205644034E-2     0.967544198   
     17.8178158        0.194129255E-2     0.967919409   
     17.8378372        0.183886802E-2     0.968276799   
     17.8578568        0.174728199E-2     0.968617976   
     17.8778782        0.166496122E-2     0.968944311   
     17.8978977        0.159063120E-2     0.969257116   
     17.9179173        0.152321579E-2     0.969557464   
     17.9379368        0.146181404E-2     0.969846427   
     17.9579563        0.140568265E-2     0.970124841   
     17.9779758        0.135417911E-2     0.970393479   
     17.9979973        0.130675756E-2     0.970653176   
     18.0180168        0.126296084E-2     0.970904469   
     18.0380363        0.122238707E-2     0.971148014   
     18.0580578        0.118468935E-2     0.971384287   
     18.0780773        0.114957546E-2     0.971613705   
     18.0980968        0.111678010E-2     0.971836746   
     18.1181164        0.108608196E-2     0.972053826   
     18.1381359        0.105727976E-2     0.972265303   
     18.1581573        0.103019644E-2     0.972471476   
     18.1781769        0.100468099E-2     0.972672582   
     18.1981964        0.980595127E-3     0.972868919   
     18.2182178        0.957815209E-3     0.973060846   
     18.2382374        0.936236349E-3     0.973248482   
     18.2582588        0.915758428E-3     0.973432064   
     18.2782784        0.896298268E-3     0.973611772   
     18.2982960        0.877775368E-3     0.973787844   
     18.3183174        0.860118482E-3     0.973960400   
     18.3383369        0.843267364E-3     0.974129558   
     18.3583565        0.827162527E-3     0.974295557   
     18.3783779        0.811751001E-3     0.974458456   
     18.3983974        0.796988141E-3     0.974618435   
     18.4184189        0.782828138E-3     0.974775612   
     18.4384384        0.769234321E-3     0.974930048   
     18.4584579        0.756169378E-3     0.975081801   
     18.4784775        0.743599434E-3     0.975231171   
     18.4984970        0.731496199E-3     0.975378036   
     18.5185165        0.719830918E-3     0.975522578   
     18.5385380        0.708577340E-3     0.975664914   
     18.5585575        0.697713636E-3     0.975805044   
     18.5785770        0.687216991E-3     0.975943089   
     18.5985985        0.677066564E-3     0.976079047   
     18.6186180        0.667245360E-3     0.976213098   
     18.6386375        0.657734578E-3     0.976345181   
     18.6586571        0.648519490E-3     0.976475477   
     18.6786766        0.639584439E-3     0.976603925   
     18.6986980        0.630915165E-3     0.976730704   
     18.7187176        0.622499443E-3     0.976855755   
     18.7387371        0.614325108E-3     0.976979136   
     18.7587585        0.606380054E-3     0.977100968   
     18.7787781        0.598654733E-3     0.977221191   
     18.7987976        0.591138203E-3     0.977339983   
     18.8188171        0.583822432E-3     0.977457225   
     18.8388367        0.576697930E-3     0.977573097   
     18.8588581        0.569756143E-3     0.977687538   
     18.8788776        0.562990084E-3     0.977800667   
     18.8988972        0.556392479E-3     0.977912426   
     18.9189186        0.549955817E-3     0.978022933   
     18.9389381        0.543674454E-3     0.978132129   
     18.9589596        0.537541462E-3     0.978240132   
     18.9789772        0.531552301E-3     0.978346884   
     18.9989967        0.525700627E-3     0.978452504   
     19.0190182        0.519981142E-3     0.978556931   
     19.0390377        0.514389947E-3     0.978660285   
     19.0590572        0.508921745E-3     0.978762507   
     19.0790787        0.503572053E-3     0.978863657   
     19.0990982        0.498337322E-3     0.978963733   
     19.1191177        0.493213476E-3     0.979062796   
     19.1391392        0.488196034E-3     0.979160905   
     19.1591587        0.483282492E-3     0.979257941   
     19.1791782        0.478468690E-3     0.979354084   
     19.1991978        0.473751948E-3     0.979449213   
     19.2192173        0.469129358E-3     0.979543447   
     19.2392387        0.464597077E-3     0.979636788   
     19.2592583        0.460153475E-3     0.979729176   
     19.2792778        0.455795293E-3     0.979820728   
     19.2992992        0.451519998E-3     0.979911447   
     19.3193188        0.447325408E-3     0.980001271   
     19.3393383        0.443209108E-3     0.980090261   
     19.3593578        0.439169118E-3     0.980178475   
     19.3793774        0.435203372E-3     0.980265856   
     19.3993988        0.431309280E-3     0.980352521   
     19.4194183        0.427485851E-3     0.980438352   
     19.4394379        0.423730817E-3     0.980523407   
     19.4594593        0.420042168E-3     0.980607808   
     19.4794788        0.416418974E-3     0.980691373   
     19.4994984        0.412859255E-3     0.980774283   
     19.5195179        0.409361266E-3     0.980856538   
     19.5395374        0.405924162E-3     0.980938017   
     19.5595589        0.402546051E-3     0.981018841   
     19.5795784        0.399226265E-3     0.981099010   
     19.5995979        0.395963260E-3     0.981178522   
     19.6196194        0.392755668E-3     0.981257379   
     19.6396389        0.389602821E-3     0.981335580   
     19.6596584        0.386503554E-3     0.981413186   
     19.6796780        0.383456587E-3     0.981490195   
     19.6996975        0.380461599E-3     0.981566548   
     19.7197189        0.377517106E-3     0.981642365   
     19.7397385        0.374622934E-3     0.981717527   
     19.7597580        0.371778238E-3     0.981792212   
     19.7797794        0.368981884E-3     0.981866241   
     19.7997990        0.366233871E-3     0.981939793   
     19.8198185        0.363533356E-3     0.982012749   
     19.8398399        0.360879843E-3     0.982085168   
     19.8598595        0.358273217E-3     0.982157052   
     19.8798790        0.355712691E-3     0.982228458   
     19.8998985        0.353198644E-3     0.982299387   
     19.9199181        0.350730523E-3     0.982369721   
     19.9399395        0.348307920E-3     0.982439637   
     19.9599590        0.345931592E-3     0.982509077   
     19.9799786        0.343601248E-3     0.982577980   
     20.0000000        0.341316831E-3     0.982646465   
# 
# 06/14/2021 at 20:14 yambo @ unimi-XPS-8930 [start]
# 06/14/2021 at 20:14                        [end]
#
# .-Input file  yambo.in
# | optics                           # [R] Linear Response optical properties
# | dipoles                          # [R] Oscillator strenghts (or dipoles)
# | chi                              # [R][CHI] Dyson equation for Chi.
# | ElecTemp= 0.025869         eV    # Electronic Temperature
# | BoseTemp= 0.025861         eV    # Bosonic Temperature
# | FFTGvecs=  9999            RL    # [FFT] Plane-waves
# | DIP_Threads= 1                   # [OPENMP/X] Number of threads for dipoles
# | X_nCPU_LinAlg_INV= 1             # [PARALLEL] CPUs for Linear Algebra (if -1 it is automatically set)
# | X_Threads= 1                     # [OPENMP/X] Number of threads for response functions
# | Chimod= "IP"                     # [X] IP/Hartree/ALDA/LRC/PF/BSfxc
# | DipComputed= "R V P"             # [DIP] [default R P V; extra P2 Spin Orb]
# | % QpntsRXd
# |  1 | 1 |                             # [Xd] Transferred momenta
# | %
# | % BndsRnXd
# |   1 | 19 |                           # [Xd] Polarization function bands
# | %
# | GrFnTpXd= "R"                    # [Xd] Green`s function (T)ordered,(R)etarded,(r)senant,(a)ntiresonant [T, R, r, Ta, Ra]
# | % EnRngeXd
# |   0.00000 | 20.00000 |         eV    # [Xd] Energy range
# | %
# | % DmRngeXd
# |  0.100000 | 0.100000 |         eV    # [Xd] Damping range
# | %
# | ETStpsXd= 1000                   # [Xd] Total Energy steps
# | % LongDrXd
# |  0.100000E-4 |  0.00000    |  0.00000    # [Xd] [cc] Electric Field
# | %
# | XfnQPdb= "E < 02_QP_PPA/ndb.QP uei" # [EXTQP Xd] Database action
