#                                                                     
#  /$$     /$$ /$$$$$$  /$$      /$$ /$$$$$$$   /$$$$$$               
# |  $$   /$$//$$__  $$| $$$    /$$$| $$__  $$ /$$__  $$              
#  \  $$ /$$/| $$  \ $$| $$$$  /$$$$| $$  \ $$| $$  \ $$              
#   \  $$$$/ | $$$$$$$$| $$ $$/$$ $$| $$$$$$$ | $$  | $$              
#    \  $$/  | $$__  $$| $$  $$$| $$| $$__  $$| $$  | $$              
#     | $$   | $$  | $$| $$\  $ | $$| $$  \ $$| $$  | $$              
#     | $$   | $$  | $$| $$ \/  | $$| $$$$$$$/|  $$$$$$/              
#     |__/   |__/  |__/|__/     |__/|_______/  \______/               
#                                                                     
#      Version 5.1.0 Revision 20042 Hash dd01d5cc8                    
#                 Branch is devel-tddft                               
#         MPI+OpenMP+SLK+SLEPC+HDF5_MPI_IO Build                      
#               http://www.yambo-code.org                             
#
# Absorption @ Q(1):   1.00000000      0.00000000      0.00000000    [q->0 direction]
#
# [GEN] GF Energies                               :  E < 02_QP_PPA/ndb.QP
# [GEN] Wavefunctions                             : Perdew, Burke & Ernzerhof(X)+Perdew, Burke & Ernzerhof(C)
# [GEN] Green`s Function                          : Retarded
# [GEN] Gauge                                     : Length
# [GEN] [r,Vnl] included                          : yes
#
# DIP band range                                  :   1  19
# DIP band range limits                           :  16  16
# DIP e/h energy range                            :  -1.00000000     -1.00000000    [eV]
# RL vectors in the sum                           :   9999
# [r,Vnl] included                                : yes
# Bands ordered                                   : yes
# Direct v evaluation                             : no
# Approach used                                   : G-space v
# Dipoles computed                                : R V P
# Wavefunctions                                   : Perdew, Burke & Ernzerhof(X)+Perdew, Burke & Ernzerhof(C)
#
#
#    E/ev[1]            EPS-Im[2]          EPS-Re[3]
#
     0.0000000        -0.39595904E-09      1.0256107    
    0.200200193E-1     0.761745525E-6      1.02561080   
    0.400400385E-1     0.152390464E-5      1.02561104   
    0.600600541E-1     0.228615545E-5      1.02561140   
    0.800800771E-1     0.304850846E-5      1.02561188   
    0.100100093        0.381098948E-5      1.02561259   
    0.120120108        0.457361648E-5      1.02561343   
    0.140140131        0.533647426E-5      1.02561438   
    0.160160154        0.609956260E-5      1.02561557   
    0.180180162        0.686292606E-5      1.02561688   
    0.200200185        0.762656964E-5      1.02561831   
    0.220220223        0.839057248E-5      1.02561986   
    0.240240216        0.915494456E-5      1.02562165   
    0.260260254        0.991972956E-5      1.02562356   
    0.280280262        0.106849157E-4      1.02562559   
    0.300300270        0.114506174E-4      1.02562785   
    0.320320308        0.122168140E-4      1.02563024   
    0.340340316        0.129835717E-4      1.02563274   
    0.360360324        0.137508678E-4      1.02563548   
    0.380380362        0.145188051E-4      1.02563822   
    0.400400370        0.152873818E-4      1.02564120   
    0.420420378        0.160566469E-4      1.02564442   
    0.440440446        0.168265906E-4      1.02564764   
    0.460460424        0.175973182E-4      1.02565110   
    0.480480433        0.183688317E-4      1.02565467   
    0.500500441        0.191411600E-4      1.02565849   
    0.520520508        0.199143324E-4      1.02566230   
    0.540540516        0.206884015E-4      1.02566648   
    0.560560524        0.214634110E-4      1.02567065   
    0.580580533        0.222393592E-4      1.02567506   
    0.600600541        0.230163168E-4      1.02567959   
    0.620620608        0.237943186E-4      1.02568424   
    0.640640616        0.245733827E-4      1.02568913   
    0.660660625        0.253535309E-4      1.02569401   
    0.680680633        0.261348523E-4      1.02569926   
    0.700700700        0.269173470E-4      1.02570450   
    0.720720649        0.277010531E-4      1.02570999   
    0.740740716        0.284860052E-4      1.02571559   
    0.760760725        0.292722507E-4      1.02572143   
    0.780780733        0.300598331E-4      1.02572727   
    0.800800741        0.308487761E-4      1.02573347   
    0.820820808        0.316390979E-4      1.02573967   
    0.840840757        0.324308894E-4      1.02574611   
    0.860860825        0.332241434E-4      1.02575266   
    0.880880892        0.340189217E-4      1.02575934   
    0.900900781        0.348152389E-4      1.02576625   
    0.920920849        0.356131677E-4      1.02577329   
    0.940940857        0.364127300E-4      1.02578056   
    0.960960865        0.372139475E-4      1.02578795   
    0.980980933        0.380169004E-4      1.02579546   
     1.00100088        0.388215849E-4      1.02580309   
     1.02102101        0.396280739E-4      1.02581096   
     1.04104102        0.404364073E-4      1.02581894   
     1.06106102        0.412465888E-4      1.02582717   
     1.08108103        0.420586839E-4      1.02583551   
     1.10110104        0.428727581E-4      1.02584398   
     1.12112105        0.436888113E-4      1.02585268   
     1.14114118        0.445069054E-4      1.02586150   
     1.16116107        0.453270986E-4      1.02587044   
     1.18118107        0.461494164E-4      1.02587962   
     1.20120108        0.469738734E-4      1.02588892   
     1.22122109        0.478005750E-4      1.02589846   
     1.24124122        0.486295066E-4      1.02590811   
     1.26126122        0.494607411E-4      1.02591789   
     1.28128123        0.502943258E-4      1.02592790   
     1.30130124        0.511302896E-4      1.02593803   
     1.32132125        0.519686873E-4      1.02594829   
     1.34134126        0.528095843E-4      1.02595878   
     1.36136127        0.536529842E-4      1.02596951   
     1.38138139        0.544989744E-4      1.02598023   
     1.40140140        0.553475620E-4      1.02599132   
     1.42142129        0.561988418E-4      1.02600241   
     1.44144130        0.570528027E-4      1.02601373   
     1.46146131        0.579095613E-4      1.02602530   
     1.48148143        0.587691029E-4      1.02603698   
     1.50150144        0.596315003E-4      1.02604878   
     1.52152145        0.604968372E-4      1.02606082   
     1.54154146        0.613651064E-4      1.02607298   
     1.56156147        0.622364169E-4      1.02608538   
     1.58158147        0.631107905E-4      1.02609789   
     1.60160148        0.639882419E-4      1.02611065   
     1.62162161        0.648688583E-4      1.02612352   
     1.64164162        0.657527562E-4      1.02613664   
     1.66166162        0.666398773E-4      1.02614987   
     1.68168151        0.675303309E-4      1.02616322   
     1.70170164        0.684241822E-4      1.02617681   
     1.72172165        0.693214752E-4      1.02619064   
     1.74174178        0.702222605E-4      1.02620459   
     1.76176178        0.711265893E-4      1.02621877   
     1.78178179        0.720345342E-4      1.02623308   
     1.80180156        0.729461317E-4      1.02624762   
     1.82182169        0.738614690E-4      1.02626228   
     1.84184170        0.747805680E-4      1.02627718   
     1.86186171        0.757035377E-4      1.02629220   
     1.88188171        0.766304001E-4      1.02630746   
     1.90190172        0.775612643E-4      1.02632284   
     1.92192173        0.784961594E-4      1.02633846   
     1.94194174        0.794350999E-4      1.02635431   
     1.96196187        0.803782314E-4      1.02637029   
     1.98198187        0.813255683E-4      1.02638650   
     2.00200176        0.822772126E-4      1.02640283   
     2.02202201        0.832332153E-4      1.02641940   
     2.04204202        0.841936198E-4      1.02643609   
     2.06206203        0.851585355E-4      1.02645314   
     2.08208203        0.861280278E-4      1.02647018   
     2.10210204        0.871021548E-4      1.02648759   
     2.12212205        0.880809384E-4      1.02650511   
     2.14214206        0.890645169E-4      1.02652287   
     2.16216207        0.900529558E-4      1.02654076   
     2.18218207        0.910463204E-4      1.02655888   
     2.20220208        0.920446764E-4      1.02657712   
     2.22222209        0.930481110E-4      1.02659571   
     2.24224210        0.940567188E-4      1.02661443   
     2.26226211        0.950705362E-4      1.02663338   
     2.28228235        0.960896650E-4      1.02665246   
     2.30230236        0.971141781E-4      1.02667177   
     2.32232213        0.981442063E-4      1.02669132   
     2.34234214        0.991797569E-4      1.02671111   
     2.36236215        0.100220968E-3      1.02673101   
     2.38238215        0.101267920E-3      1.02675116   
     2.40240216        0.102320693E-3      1.02677155   
     2.42242217        0.103379360E-3      1.02679217   
     2.44244218        0.104444021E-3      1.02681291   
     2.46246219        0.105514795E-3      1.02683389   
     2.48248243        0.106591760E-3      1.02685511   
     2.50250244        0.107674954E-3      1.02687657   
     2.52252245        0.108764551E-3      1.02689826   
     2.54254246        0.109860637E-3      1.02692008   
     2.56256247        0.110963294E-3      1.02694225   
     2.58258247        0.112072586E-3      1.02696455   
     2.60260248        0.113188689E-3      1.02698708   
     2.62262249        0.114311646E-3      1.02700984   
     2.64264250        0.115441639E-3      1.02703285   
     2.66266251        0.116578682E-3      1.02705598   
     2.68268251        0.117722986E-3      1.02707946   
     2.70270252        0.118874559E-3      1.02710319   
     2.72272253        0.120033590E-3      1.02712703   
     2.74274278        0.121200130E-3      1.02715123   
     2.76276278        0.122374389E-3      1.02717555   
     2.78278279        0.123556383E-3      1.02720010   
     2.80280280        0.124746352E-3      1.02722502   
     2.82282257        0.125944265E-3      1.02725005   
     2.84284258        0.127150415E-3      1.02727544   
     2.86286259        0.128364831E-3      1.02730095   
     2.88288260        0.129587657E-3      1.02732670   
     2.90290260        0.130819040E-3      1.02735281   
     2.92292261        0.132059155E-3      1.02737916   
     2.94294262        0.133308073E-3      1.02740562   
     2.96296287        0.134565926E-3      1.02743244   
     2.98298287        0.135832961E-3      1.02745950   
     3.00300288        0.137109251E-3      1.02748680   
     3.02302289        0.138394957E-3      1.02751434   
     3.04304290        0.139690281E-3      1.02754223   
     3.06306291        0.140995282E-3      1.02757025   
     3.08308291        0.142310178E-3      1.02759862   
     3.10310292        0.143635145E-3      1.02762723   
     3.12312293        0.144970254E-3      1.02765608   
     3.14314294        0.146315797E-3      1.02768528   
     3.16316295        0.147671904E-3      1.02771461   
     3.18318295        0.149038766E-3      1.02774429   
     3.20320296        0.150416541E-3      1.02777433   
     3.22322321        0.151805376E-3      1.02780449   
     3.24324322        0.153205590E-3      1.02783501   
     3.26326323        0.154617213E-3      1.02786589   
     3.28328323        0.156040507E-3      1.02789688   
     3.30330324        0.157475661E-3      1.02792823   
     3.32332325        0.158922980E-3      1.02795994   
     3.34334302        0.160382566E-3      1.02799189   
     3.36336303        0.161854652E-3      1.02802408   
     3.38338304        0.163339486E-3      1.02805662   
     3.40340328        0.164837242E-3      1.02808940   
     3.42342329        0.166348196E-3      1.02812254   
     3.44344330        0.167872568E-3      1.02815604   
     3.46346331        0.169410574E-3      1.02818978   
     3.48348355        0.170962507E-3      1.02822375   
     3.50350332        0.172528540E-3      1.02825820   
     3.52352357        0.174109082E-3      1.02829289   
     3.54354334        0.175704248E-3      1.02832782   
     3.56356359        0.177314359E-3      1.02836311   
     3.58358335        0.178939707E-3      1.02839875   
     3.60360312        0.180580479E-3      1.02843475   
     3.62362337        0.182237112E-3      1.02847099   
     3.64364338        0.183909826E-3      1.02850771   
     3.66366339        0.185598939E-3      1.02854466   
     3.68368340        0.187304744E-3      1.02858186   
     3.70370364        0.189027560E-3      1.02861953   
     3.72372341        0.190767736E-3      1.02865756   
     3.74374366        0.192525637E-3      1.02869582   
     3.76376343        0.194301538E-3      1.02873456   
     3.78378367        0.196095833E-3      1.02877367   
     3.80380344        0.197908856E-3      1.02881300   
     3.82382369        0.199741015E-3      1.02885282   
     3.84384346        0.201592717E-3      1.02889299   
     3.86386371        0.203464326E-3      1.02893341   
     3.88388348        0.205356206E-3      1.02897429   
     3.90390372        0.207268822E-3      1.02901566   
     3.92392373        0.209202553E-3      1.02905726   
     3.94394398        0.211157938E-3      1.02909935   
     3.96396375        0.213135281E-3      1.02914178   
     3.98398399        0.215135151E-3      1.02918458   
     4.00400352        0.217157984E-3      1.02922785   
     4.02402401        0.219204347E-3      1.02927148   
     4.04404402        0.221274575E-3      1.02931547   
     4.06406403        0.223369338E-3      1.02935994   
     4.08408403        0.225489173E-3      1.02940488   
     4.10410357        0.227634475E-3      1.02945018   
     4.12412405        0.229806072E-3      1.02949595   
     4.14414358        0.232004168E-3      1.02954209   
     4.16416407        0.234229767E-3      1.02958870   
     4.18418360        0.236483247E-3      1.02963579   
     4.20420408        0.238765337E-3      1.02968335   
     4.22422361        0.241076501E-3      1.02973127   
     4.24424410        0.243417788E-3      1.02977979   
     4.26426411        0.245789590E-3      1.02982867   
     4.28428411        0.248192810E-3      1.02987802   
     4.30430412        0.250627956E-3      1.02992797   
     4.32432413        0.253096106E-3      1.02997828   
     4.34434414        0.255597872E-3      1.03002918   
     4.36436415        0.258134009E-3      1.03008056   
     4.38438416        0.260705536E-3      1.03013241   
     4.40440416        0.263313326E-3      1.03018475   
     4.42442417        0.265958050E-3      1.03023767   
     4.44444418        0.268640957E-3      1.03029120   
     4.46446419        0.271362776E-3      1.03034520   
     4.48448420        0.274124701E-3      1.03039968   
     4.50450420        0.276927574E-3      1.03045475   
     4.52452421        0.279772677E-3      1.03051043   
     4.54454422        0.282660971E-3      1.03056669   
     4.56456470        0.285593531E-3      1.03062344   
     4.58458424        0.288571755E-3      1.03068089   
     4.60460472        0.291596923E-3      1.03073883   
     4.62462425        0.294669997E-3      1.03079748   
     4.64464426        0.297792547E-3      1.03085673   
     4.66466427        0.300966029E-3      1.03091657   
     4.68468428        0.304191635E-3      1.03097701   
     4.70470428        0.307471113E-3      1.03103817   
     4.72472429        0.310805801E-3      1.03109992   
     4.74474430        0.314197474E-3      1.03116238   
     4.76476431        0.317647646E-3      1.03122556   
     4.78478479        0.321158208E-3      1.03128946   
     4.80480433        0.324730674E-3      1.03135395   
     4.82482481        0.328367314E-3      1.03141928   
     4.84484434        0.332069874E-3      1.03148520   
     4.86486483        0.335840450E-3      1.03155196   
     4.88488436        0.339681137E-3      1.03161943   
     4.90490484        0.343594118E-3      1.03168774   
     4.92492437        0.347581721E-3      1.03175676   
     4.94494486        0.351646420E-3      1.03182662   
     4.96496487        0.355790689E-3      1.03189731   
     4.98498487        0.360017119E-3      1.03196883   
     5.00500488        0.364328385E-3      1.03204119   
     5.02502489        0.368727546E-3      1.03211439   
     5.04504490        0.373217335E-3      1.03218853   
     5.06506491        0.377801247E-3      1.03226352   
     5.08508492        0.382482074E-3      1.03233945   
     5.10510492        0.387263688E-3      1.03241634   
     5.12512493        0.392149261E-3      1.03249419   
     5.14514446        0.397142809E-3      1.03257298   
     5.16516495        0.402248435E-3      1.03265285   
     5.18518496        0.407469808E-3      1.03273368   
     5.20520496        0.412811671E-3      1.03281558   
     5.22522497        0.418278301E-3      1.03289855   
     5.24524498        0.423874619E-3      1.03298271   
     5.26526499        0.429605512E-3      1.03306794   
     5.28528500        0.435476599E-3      1.03315425   
     5.30530500        0.441492972E-3      1.03324175   
     5.32532501        0.447660801E-3      1.03333056   
     5.34534502        0.453985995E-3      1.03342044   
     5.36536503        0.460475218E-3      1.03351176   
     5.38538504        0.467135455E-3      1.03360426   
     5.40540504        0.473973720E-3      1.03369820   
     5.42542505        0.480997522E-3      1.03379345   
     5.44544506        0.488215155E-3      1.03389013   
     5.46546507        0.495635031E-3      1.03398824   
     5.48548555        0.503266288E-3      1.03408790   
     5.50550508        0.511118269E-3      1.03418911   
     5.52552557        0.519201101E-3      1.03429186   
     5.54554510        0.527525612E-3      1.03439617   
     5.56556559        0.536103209E-3      1.03450215   
     5.58558512        0.544945884E-3      1.03460991   
     5.60560560        0.554066384E-3      1.03471947   
     5.62562513        0.563478388E-3      1.03483081   
     5.64564514        0.573196565E-3      1.03494406   
     5.66566515        0.583236222E-3      1.03505933   
     5.68568516        0.593613775E-3      1.03517652   
     5.70570564        0.604347209E-3      1.03529584   
     5.72572517        0.615454512E-3      1.03541732   
     5.74574566        0.626956753E-3      1.03554094   
     5.76576519        0.638874655E-3      1.03566694   
     5.78578568        0.651231618E-3      1.03579533   
     5.80580521        0.664051797E-3      1.03592622   
     5.82582569        0.677362608E-3      1.03605962   
     5.84584522        0.691191352E-3      1.03619564   
     5.86586571        0.705569284E-3      1.03633451   
     5.88588524        0.720528944E-3      1.03647625   
     5.90590572        0.736106012E-3      1.03662097   
     5.92592573        0.752338616E-3      1.03676891   
     5.94594574        0.769267965E-3      1.03691995   
     5.96596575        0.786938588E-3      1.03707445   
     5.98598576        0.805399381E-3      1.03723240   
     6.00600576        0.824702031E-3      1.03739417   
     6.02602577        0.844904222E-3      1.03755975   
     6.04604578        0.866067188E-3      1.03772926   
     6.06606579        0.888259150E-3      1.03790307   
     6.08608580        0.911552401E-3      1.03808129   
     6.10610580        0.936028606E-3      1.03826416   
     6.12612581        0.961774203E-3      1.03845191   
     6.14614582        0.988886110E-3      1.03864479   
     6.16616583        0.101746956E-2      1.03884304   
     6.18618584        0.104764034E-2      1.03904688   
     6.20620584        0.107952696E-2      1.03925681   
     6.22622585        0.111326925E-2      1.03947294   
     6.24624586        0.114902470E-2      1.03969586   
     6.26626587        0.118696399E-2      1.03992581   
     6.28628588        0.122728036E-2      1.04016328   
     6.30630589        0.127018569E-2      1.04040861   
     6.32632589        0.131591968E-2      1.04066241   
     6.34634590        0.136474578E-2      1.04092526   
     6.36636591        0.141696411E-2      1.04119754   
     6.38638592        0.147290726E-2      1.04148018   
     6.40640593        0.153295416E-2      1.04177368   
     6.42642593        0.159752835E-2      1.04207885   
     6.44644642        0.166711444E-2      1.04239655   
     6.46646595        0.174225902E-2      1.04272771   
     6.48648643        0.182358955E-2      1.04307342   
     6.50650597        0.191181898E-2      1.04343474   
     6.52652645        0.200777175E-2      1.04381287   
     6.54654598        0.211239094E-2      1.04420936   
     6.56656647        0.222677714E-2      1.04462564   
     6.58658600        0.235219742E-2      1.04506361   
     6.60660648        0.249014306E-2      1.04552495   
     6.62662601        0.264235074E-2      1.04601204   
     6.64664650        0.281087821E-2      1.04652727   
     6.66666651        0.299815019E-2      1.04707325   
     6.68668604        0.320706377E-2      1.04765320   
     6.70670652        0.344109093E-2      1.04827058   
     6.72672606        0.370439724E-2      1.04892933   
     6.74674654        0.400206121E-2      1.04963386   
     6.76676607        0.434025703E-2      1.05038929   
     6.78678656        0.472660735E-2      1.05120122   
     6.80680656        0.517054042E-2      1.05207634   
     6.82682610        0.568381744E-2      1.05302155   
     6.84684658        0.628133118E-2      1.05404520   
     6.86686659        0.698193209E-2      1.05515587   
     6.88688660        0.780982850E-2      1.05636322   
     6.90690613        0.879629515E-2      1.05767655   
     6.92692661        0.998228975E-2      1.05910492   
     6.94694662        0.114215482E-1      1.06065440   
     6.96696711        0.131852366E-1      1.06232572   
     6.98698616        0.153677072E-1      1.06410754   
     7.00700665        0.180939678E-1      1.06596625   
     7.02702665        0.215264391E-1      1.06782615   
     7.04704714        0.258683171E-1      1.06953621   
     7.06706667        0.313507579E-1      1.07081485   
     7.08708668        0.381788984E-1      1.07117009   
     7.10710669        0.463818274E-1      1.06981575   
     7.12712717        0.555124208E-1      1.06568313   
     7.14714670        0.642477497E-1      1.05776238   
     7.16716671        0.703247637E-1      1.04596686   
     7.18718719        0.715148225E-1      1.03202200   
     7.20720625        0.673166513E-1      1.01899278   
     7.22722673        0.594089217E-1      1.00934565   
     7.24724674        0.502319783E-1      1.00370288   
     7.26726723        0.415471271E-1      1.00131512   
     7.28728676        0.341287404E-1      1.00106728   
     7.30730677        0.281029642E-1      1.00203955   
     7.32732677        0.233140364E-1      1.00362313   
     7.34734726        0.195312221E-1      1.00545800   
     7.36736679        0.165363010E-1      1.00734580   
     7.38738680        0.141490968E-1      1.00918424   
     7.40740728        0.122296968E-1      1.01092458   
     7.42742729        0.106716584E-1      1.01254773   
     7.44744682        0.939476956E-2      1.01405036   
     7.46746683        0.833839271E-2      1.01543689   
     7.48748732        0.745669426E-2      1.01671517   
     7.50750732        0.671463693E-2      1.01789463   
     7.52752686        0.608527148E-2      1.01898491   
     7.54754686        0.554759195E-2      1.01999521   
     7.56756735        0.508520380E-2      1.02093363   
     7.58758736        0.468511926E-2      1.02180803   
     7.60760689        0.433699554E-2      1.02262509   
     7.62762737        0.403248193E-2      1.02339089   
     7.64764738        0.376483961E-2      1.02411067   
     7.66766787        0.352856331E-2      1.02478909   
     7.68768692        0.331913284E-2      1.02543056   
     7.70770741        0.313278264E-2      1.02603853   
     7.72772741        0.296640140E-2      1.02661633   
     7.74774694        0.281738187E-2      1.02716684   
     7.76776695        0.268350914E-2      1.02769279   
     7.78778744        0.256292662E-2      1.02819622   
     7.80780745        0.245404849E-2      1.02867925   
     7.82782698        0.235552061E-2      1.02914381   
     7.84784746        0.226617069E-2      1.02959144   
     7.86786747        0.218499918E-2      1.03002369   
     7.88788795        0.211113668E-2      1.03044176   
     7.90790701        0.204382930E-2      1.03084695   
     7.92792749        0.198241253E-2      1.03124034   
     7.94794750        0.192631269E-2      1.03162289   
     7.96796799        0.187502371E-2      1.03199553   
     7.98798704        0.182809983E-2      1.03235912   
     8.00800705        0.178514491E-2      1.03271437   
     8.02802753        0.174581062E-2      1.03306186   
     8.04804802        0.170978822E-2      1.03340232   
     8.06806755        0.167680276E-2      1.03373635   
     8.08808804        0.164660532E-2      1.03406441   
     8.10810757        0.161897729E-2      1.03438711   
     8.12812805        0.159372215E-2      1.03470480   
     8.14814758        0.157066260E-2      1.03501797   
     8.16816807        0.154963834E-2      1.03532696   
     8.18818760        0.153050642E-2      1.03563225   
     8.20820713        0.151313795E-2      1.03593397   
     8.22822762        0.149741466E-2      1.03623259   
     8.24824810        0.148323097E-2      1.03652847   
     8.26826763        0.147049117E-2      1.03682172   
     8.28828716        0.145910843E-2      1.03711271   
     8.30830765        0.144900219E-2      1.03740180   
     8.32832813        0.144010107E-2      1.03768897   
     8.34834862        0.143233966E-2      1.03797460   
     8.36836720        0.142565789E-2      1.03825891   
     8.38838768        0.142000162E-2      1.03854203   
     8.40840816        0.141532114E-2      1.03882432   
     8.42842865        0.141157105E-2      1.03910577   
     8.44844723        0.140871038E-2      1.03938651   
     8.46846771        0.140670140E-2      1.03966701   
     8.48848820        0.140550965E-2      1.03994715   
     8.50850868        0.140510465E-2      1.04022717   
     8.52852821        0.140545703E-2      1.04050720   
     8.54854774        0.140654121E-2      1.04078746   
     8.56856823        0.140833482E-2      1.04106808   
     8.58858871        0.141081528E-2      1.04134917   
     8.60860825        0.141396397E-2      1.04163074   
     8.62862778        0.141776435E-2      1.04191315   
     8.64864826        0.142220012E-2      1.04219639   
     8.66866875        0.142725755E-2      1.04248059   
     8.68868828        0.143292418E-2      1.04276586   
     8.70870781        0.143919012E-2      1.04305232   
     8.72872829        0.144604547E-2      1.04334021   
     8.74874783        0.145348138E-2      1.04362941   
     8.76876831        0.146149250E-2      1.04392028   
     8.78878880        0.147007219E-2      1.04421270   
     8.80880833        0.147921639E-2      1.04450703   
     8.82882786        0.148892100E-2      1.04480314   
     8.84884834        0.149918441E-2      1.04510140   
     8.86886883        0.151000405E-2      1.04540169   
     8.88888836        0.152138085E-2      1.04570413   
     8.90890789        0.153331389E-2      1.04600894   
     8.92892838        0.154580583E-2      1.04631627   
     8.94894886        0.155885844E-2      1.04662609   
     8.96896839        0.157247507E-2      1.04693866   
     8.98898792        0.158665841E-2      1.04725385   
     9.00900841        0.160141522E-2      1.04757202   
     9.02902889        0.161675049E-2      1.04789317   
     9.04904842        0.163267064E-2      1.04821742   
     9.06906796        0.164918345E-2      1.04854500   
     9.08908844        0.166629686E-2      1.04887581   
     9.10910892        0.168402097E-2      1.04921019   
     9.12912941        0.170236512E-2      1.04954815   
     9.14914799        0.172133918E-2      1.04988968   
     9.16916847        0.174095738E-2      1.05023515   
     9.18918896        0.176123064E-2      1.05058467   
     9.20920944        0.178217434E-2      1.05093825   
     9.22922897        0.180380070E-2      1.05129600   
     9.24924850        0.182612822E-2      1.05165815   
     9.26926899        0.184917182E-2      1.05202484   
     9.28928852        0.187295047E-2      1.05239618   
     9.30930901        0.189748197E-2      1.05277228   
     9.32932854        0.192278728E-2      1.05315340   
     9.34934902        0.194888748E-2      1.05353963   
     9.36936855        0.197580410E-2      1.05393100   
     9.38938904        0.200356217E-2      1.05432796   
     9.40940857        0.203218660E-2      1.05473042   
     9.42942905        0.206170324E-2      1.05513871   
     9.44944859        0.209214003E-2      1.05555296   
     9.46946907        0.212352839E-2      1.05597329   
     9.48948860        0.215589860E-2      1.05639994   
     9.50950909        0.218928303E-2      1.05683315   
     9.52952862        0.222371588E-2      1.05727315   
     9.54954910        0.225923746E-2      1.05772007   
     9.56956959        0.229588314E-2      1.05817401   
     9.58958912        0.233369507E-2      1.05863547   
     9.60960865        0.237271516E-2      1.05910444   
     9.62962914        0.241299137E-2      1.05958140   
     9.64964962        0.245457143E-2      1.06006634   
     9.66966915        0.249750516E-2      1.06055975   
     9.68968868        0.254184566E-2      1.06106174   
     9.70970917        0.258765300E-2      1.06157267   
     9.72972965        0.263498537E-2      1.06209290   
     9.74974918        0.268390472E-2      1.06262255   
     9.76976871        0.273448322E-2      1.06316209   
     9.78978920        0.278678956E-2      1.06371176   
     9.80980968        0.284089963E-2      1.06427205   
     9.82982922        0.289689167E-2      1.06484306   
     9.84984875        0.295485533E-2      1.06542552   
     9.86986923        0.301487884E-2      1.06601954   
     9.88988972        0.307705975E-2      1.06662560   
     9.90990925        0.314149517E-2      1.06724405   
     9.92992973        0.320830080E-2      1.06787562   
     9.94994926        0.327758817E-2      1.06852055   
     9.96996975        0.334948348E-2      1.06917942   
     9.98998928        0.342411269E-2      1.06985271   
     10.0100098        0.350162294E-2      1.07054102   
     10.0300293        0.358216139E-2      1.07124484   
     10.0500498        0.366588891E-2      1.07196486   
     10.0700693        0.375297223E-2      1.07270169   
     10.0900898        0.384360226E-2      1.07345593   
     10.1101093        0.393797318E-2      1.07422829   
     10.1301298        0.403629616E-2      1.07501972   
     10.1501493        0.413879240E-2      1.07583070   
     10.1701698        0.424571522E-2      1.07666230   
     10.1901894        0.435732165E-2      1.07751524   
     10.2102098        0.447389903E-2      1.07839060   
     10.2302294        0.459574303E-2      1.07928932   
     10.2502499        0.472319499E-2      1.08021235   
     10.2702703        0.485660648E-2      1.08116090   
     10.2902889        0.499635888E-2      1.08213603   
     10.3103094        0.514288014E-2      1.08313906   
     10.3303299        0.529662194E-2      1.08417141   
     10.3503504        0.545807602E-2      1.08523440   
     10.3703699        0.562777789E-2      1.08632958   
     10.3903894        0.580632268E-2      1.08745861   
     10.4104099        0.599434972E-2      1.08862317   
     10.4304304        0.619256077E-2      1.08982515   
     10.4504499        0.640171394E-2      1.09106648   
     10.4704695        0.662266975E-2      1.09234941   
     10.4904900        0.685635163E-2      1.09367609   
     10.5105104        0.710378075E-2      1.09504914   
     10.5305300        0.736607658E-2      1.09647119   
     10.5505495        0.764450943E-2      1.09794509   
     10.5705700        0.794045441E-2      1.09947395   
     10.5905905        0.825545099E-2      1.10106122   
     10.6106100        0.859119650E-2      1.10271049   
     10.6306295        0.894963555E-2      1.10442579   
     10.6506500        0.933289342E-2      1.10621142   
     10.6706705        0.974336918E-2      1.10807204   
     10.6906900        0.101837488E-1      1.11001277   
     10.7107105        0.106571149E-1      1.11203945   
     10.7307301        0.111668929E-1      1.11415827   
     10.7507505        0.117170038E-1      1.11637580   
     10.7707701        0.123118702E-1      1.11869955   
     10.7907906        0.129566286E-1      1.12113798   
     10.8108101        0.136570940E-1      1.12370014   
     10.8308296        0.144199366E-1      1.12639594   
     10.8508501        0.152529888E-1      1.12923694   
     10.8708706        0.161652025E-1      1.13223541   
     10.8908901        0.171670672E-1      1.13540542   
     10.9109097        0.182707943E-1      1.13876235   
     10.9309301        0.194909088E-1      1.14232409   
     10.9509506        0.208444204E-1      1.14610994   
     10.9709711        0.223515909E-1      1.15014231   
     10.9909897        0.240365863E-1      1.15444565   
     11.0110102        0.259286724E-1      1.15904868   
     11.0310307        0.280630477E-1      1.16398311   
     11.0510511        0.304826796E-1      1.16928494   
     11.0710697        0.332401916E-1      1.17499471   
     11.0910902        0.364009738E-1      1.18115914   
     11.1111107        0.400462188E-1      1.18782949   
     11.1311312        0.442780443E-1      1.19506371   
     11.1511507        0.492256992E-1      1.20292509   
     11.1711702        0.550551936E-1      1.21148252   
     11.1911907        0.619800463E-1      1.22080660   
     11.2112112        0.702785105E-1      1.23096466   
     11.2312307        0.803154111E-1      1.24201012   
     11.2512503        0.925742090E-1      1.25396371   
     11.2712708        0.107694872         1.26677322   
     11.2912903        0.126524672         1.28024888   
     11.3113108        0.150175467         1.29394281   
     11.3313303        0.180056199         1.30693460   
     11.3513508        0.217829153         1.31748009   
     11.3713703        0.265121251         1.32247019   
     11.3913908        0.322682440         1.31678629   
     11.4114113        0.388503581         1.29306161   
     11.4314308        0.454934895         1.24328542   
     11.4514503        0.506981075         1.16411674   
     11.4714708        0.526990592         1.06421494   
     11.4914913        0.506710231        0.964492381   
     11.5115108        0.454591900        0.885756314   
     11.5315304        0.388331234        0.836485505   
     11.5515509        0.322829396        0.813219428   
     11.5715714        0.265646726        0.807933927   
     11.5915909        0.218737409        0.813288391   
     11.6116104        0.181336194        0.824194074   
     11.6316309        0.151807532        0.837566137   
     11.6516514        0.128493860        0.851674616   
     11.6716719        0.109990411        0.865609407   
     11.6916904        0.951920003E-1     0.878926694   
     11.7117109        0.832533836E-1     0.891442001   
     11.7317314        0.735382289E-1     0.903106272   
     11.7517519        0.655668154E-1     0.913941681   
     11.7717705        0.589765981E-1     0.924003899   
     11.7917910        0.534910336E-1     0.933363616   
     11.8118114        0.488988422E-1     0.942093670   
     11.8318310        0.450366251E-1     0.950264812   
     11.8518515        0.417766683E-1     0.957944214   
     11.8718710        0.390191823E-1     0.965192616   
     11.8918915        0.366851352E-1     0.972065449   
     11.9119110        0.347119048E-1     0.978612363   
     11.9319315        0.330492146E-1     0.984879136   
     11.9519510        0.316571407E-1     0.990906477   
     11.9719715        0.305036865E-1     0.996731579   
     11.9919910        0.295633934E-1      1.00238836   
     12.0120115        0.288160536E-1      1.00790882   
     12.0320311        0.282461084E-1      1.01332223   
     12.0520515        0.278417747E-1      1.01865625   
     12.0720711        0.275946837E-1      1.02393711   
     12.0920916        0.274994839E-1      1.02919090   
     12.1121120        0.275537558E-1      1.03444254   
     12.1321316        0.277577862E-1      1.03971684   
     12.1521511        0.281146783E-1      1.04503894   
     12.1721716        0.286304690E-1      1.05043483   
     12.1921921        0.293143410E-1      1.05593097   
     12.2122116        0.301789884E-1      1.06155539   
     12.2322311        0.312411748E-1      1.06733739   
     12.2522516        0.325225666E-1      1.07330930   
     12.2722721        0.340504982E-1      1.07950532   
     12.2922916        0.358594954E-1      1.08596301   
     12.3123112        0.379927792E-1      1.09272313   
     12.3323317        0.405051075E-1      1.09983146   
     12.3523521        0.434652157E-1      1.10733724   
     12.3723717        0.469603688E-1      1.11529446   
     12.3923912        0.511024334E-1      1.12376189   
     12.4124117        0.560348891E-1      1.13280106   
     12.4324322        0.619439445E-1      1.14247358   
     12.4524517        0.690726042E-1      1.15283561   
     12.4724712        0.777418017E-1      1.16392791   
     12.4924917        0.883749649E-1      1.17575264   
     12.5125122        0.101533420         1.18823743   
     12.5325317        0.117955402         1.20116544   
     12.5525522        0.138595507         1.21405625   
     12.5725718        0.164623395         1.22595370   
     12.5925922        0.197315797         1.23509359   
     12.6126118        0.237652019         1.23844373   
     12.6326323        0.285319716         1.23131776   
     12.6526518        0.336856842         1.20777607   
     12.6726723        0.383670866         1.16320872   
     12.6926918        0.412925303         1.09954953   
     12.7127123        0.414489776         1.02871156   
     12.7327318        0.389247686        0.967263579   
     12.7527523        0.348250151        0.925800979   
     12.7727718        0.303888470        0.905103385   
     12.7927923        0.263901353        0.900427639   
     12.8128119        0.231396154        0.906393886   
     12.8328314        0.206984818        0.918893099   
     12.8528519        0.190327093        0.935141563   
     12.8728724        0.180863842        0.953303874   
     12.8928928        0.178146064        0.972136199   
     12.9129114        0.181978732        0.990666091   
     12.9329319        0.192441836         1.00791359   
     12.9529524        0.209838793         1.02263832   
     12.9729729        0.234607249         1.03304887   
     12.9929924        0.267025352         1.03630829   
     13.0130119        0.306195825         1.02799642   
     13.0330324        0.347968757         1.00258613   
     13.0530529        0.383073986        0.956515253   
     13.0730724        0.398975313        0.893520176   
     13.0930920        0.387587577        0.826686442   
     13.1131124        0.352189779        0.771515071   
     13.1331329        0.304423243        0.736188710   
     13.1531525        0.255599320        0.719778776   
     13.1731720        0.212093666        0.716978788   
     13.1931925        0.175926745        0.722391367   
     13.2132130        0.146810278        0.732108057   
     13.2332325        0.123636812        0.743707895   
     13.2532520        0.105195373        0.755821049   
     13.2732725        0.904364884E-1     0.767721713   
     13.2932930        0.785229057E-1     0.779055417   
     13.3133125        0.688116997E-1     0.789672434   
     13.3333330        0.608147383E-1     0.799533904   
     13.3533525        0.541642532E-1     0.808656156   
     13.3733721        0.485812947E-1     0.817082524   
     13.3933926        0.438523740E-1     0.824868500   
     13.4134130        0.398138501E-1     0.832070947   
     13.4334326        0.363384858E-1     0.838745415   
     13.4534521        0.333267078E-1     0.844943225   
     13.4734726        0.306994617E-1     0.850712061   
     13.4934931        0.283940006E-1     0.856094003   
     13.5135126        0.263597313E-1     0.861126781   
     13.5335321        0.245557036E-1     0.865844011   
     13.5535526        0.229482315E-1     0.870275795   
     13.5735731        0.215097740E-1     0.874448538   
     13.5935936        0.202174429E-1     0.878385901   
     13.6136131        0.190521441E-1     0.882108629   
     13.6336327        0.179978833E-1     0.885635495   
     13.6536522        0.170410648E-1     0.888983369   
     13.6736736        0.161701441E-1     0.892167330   
     13.6936932        0.153754586E-1     0.895200372   
     13.7137136        0.146484850E-1     0.898095071   
     13.7337332        0.139820976E-1     0.900861859   
     13.7537527        0.133699989E-1     0.903510928   
     13.7737732        0.128067238E-1     0.906051338   
     13.7937927        0.122876465E-1     0.908490956   
     13.8138123        0.118086059E-1     0.910837352   
     13.8338337        0.113659482E-1     0.913097560   
     13.8538532        0.109565910E-1     0.915277421   
     13.8738728        0.105777094E-1     0.917382956   
     13.8938932        0.102268169E-1     0.919419587   
     13.9139128        0.990181603E-2     0.921391904   
     13.9339342        0.960073620E-2     0.923304796   
     13.9539528        0.932194479E-2     0.925162196   
     13.9739723        0.906392839E-2     0.926968277   
     13.9939938        0.882535335E-2     0.928726971   
     14.0140133        0.860510860E-2     0.930441380   
     14.0340328        0.840216596E-2     0.932115078   
     14.0540533        0.821563881E-2     0.933751285   
     14.0740728        0.804479886E-2     0.935352802   
     14.0940943        0.788897928E-2     0.936922789   
     14.1141138        0.774766365E-2     0.938463688   
     14.1341333        0.762040820E-2     0.939978421   
     14.1541538        0.750686461E-2     0.941469610   
     14.1741734        0.740681030E-2     0.942939639   
     14.1941929        0.732008787E-2     0.944391131   
     14.2142134        0.724663632E-2     0.945826709   
     14.2342329        0.718651945E-2     0.947248578   
     14.2542543        0.713987229E-2     0.948659539   
     14.2742739        0.710696587E-2     0.950061858   
     14.2942934        0.708817085E-2     0.951458275   
     14.3143139        0.708399154E-2     0.952851415   
     14.3343334        0.709507428E-2     0.954243958   
     14.3543530        0.712222746E-2     0.955638647   
     14.3743744        0.716644013E-2     0.957038760   
     14.3943930        0.722889928E-2     0.958447099   
     14.4144125        0.731103681E-2     0.959867120   
     14.4344339        0.741458312E-2     0.961302519   
     14.4544535        0.754155684E-2     0.962756932   
     14.4744740        0.769441295E-2     0.964234710   
     14.4944935        0.787602365E-2     0.965740204   
     14.5145130        0.808987487E-2     0.967278481   
     14.5345345        0.834012311E-2     0.968855143   
     14.5545540        0.863171834E-2     0.970475912   
     14.5745735        0.897069927E-2     0.972147703   
     14.5945940        0.936440565E-2     0.973878026   
     14.6146135        0.982168783E-2     0.975675106   
     14.6346350        0.103535727E-1     0.977548480   
     14.6546535        0.109735215E-1     0.979508281   
     14.6746731        0.116984593E-1     0.981566191   
     14.6946945        0.125496713E-1     0.983735263   
     14.7147141        0.135539016E-1     0.986029088   
     14.7347336        0.147455679E-1     0.988462746   
     14.7547541        0.161691103E-1     0.991051614   
     14.7747736        0.178818982E-1     0.993809402   
     14.7947950        0.199597012E-1     0.996746957   
     14.8148146        0.225015264E-1     0.999866128   
     14.8348331        0.256383773E-1      1.00315189   
     14.8548546        0.295415949E-1      1.00655663   
     14.8748741        0.344286449E-1      1.00997031   
     14.8948936        0.405621901E-1      1.01317608   
     14.9149141        0.482171178E-1      1.01577532   
     14.9349337        0.575741529E-1      1.01709819   
     14.9549532        0.684871674E-1      1.01616013   
     14.9749746        0.801052749E-1      1.01184559   
     14.9949942        0.906256214E-1      1.00357354   
     15.0150146        0.978698432E-1     0.992254198   
     15.0350342        0.100857481        0.980354011   
     15.0550537        0.100818306        0.970219910   
     15.0750751        0.100128651        0.962300897   
     15.0950937        0.100378588        0.955130875   
     15.1151133        0.101303950        0.946645260   
     15.1351347        0.100941278        0.935779989   
     15.1551542        0.970007926E-1     0.923573494   
     15.1751747        0.887967274E-1     0.912644327   
     15.1951942        0.777957514E-1     0.905185759   
     15.2152138        0.662344396E-1     0.901662767   
     15.2352352        0.557054579E-1     0.901248455   
     15.2552547        0.468543954E-1     0.902788877   
     15.2752733        0.396987423E-1     0.905341506   
     15.2952948        0.339783467E-1     0.908290923   
     15.3153143        0.293633863E-1     0.911302209   
     15.3353357        0.255640484E-1     0.914241970   
     15.3553543        0.223854370E-1     0.917082608   
     15.3753738        0.197135843E-1     0.919821262   
     15.3953953        0.174728092E-1     0.922445416   
     15.4154148        0.155975092E-1     0.924937606   
     15.4354343        0.140255531E-1     0.927287042   
     15.4554548        0.127017759E-1     0.929491878   
     15.4754744        0.115801776E-1     0.931556523   
     15.4954939        0.106232427E-1     0.933489740   
     15.5155153        0.980113912E-2     0.935302198   
     15.5355339        0.909042452E-2     0.937004268   
     15.5555553        0.847227033E-2     0.938606739   
     15.5755749        0.793186855E-2     0.940119088   
     15.5955944        0.745720323E-2     0.941550314   
     15.6156149        0.703857653E-2     0.942908585   
     15.6356344        0.666819792E-2     0.944200993   
     15.6556540        0.633959891E-2     0.945434093   
     15.6756754        0.604747515E-2     0.946613908   
     15.6956949        0.578750577E-2     0.947745621   
     15.7157154        0.555603765E-2     0.948834062   
     15.7357349        0.535011338E-2     0.949883580   
     15.7557545        0.516723609E-2     0.950898170   
     15.7757759        0.500535686E-2     0.951881588   
     15.7957945        0.486283191E-2     0.952837050   
     15.8158140        0.473831268E-2     0.953767955   
     15.8358355        0.463074818E-2     0.954677284   
     15.8558550        0.453937985E-2     0.955567718   
     15.8758755        0.446366472E-2     0.956442237   
     15.8958950        0.440333644E-2     0.957303226   
     15.9159145        0.435835309E-2     0.958153546   
     15.9359360        0.432893215E-2     0.958995759   
     15.9559555        0.431557326E-2     0.959832430   
     15.9759741        0.431907317E-2     0.960666358   
     15.9959955        0.434058346E-2     0.961500287   
     16.0160141        0.438165572E-2     0.962337077   
     16.0360336        0.444434630E-2     0.963179886   
     16.0560551        0.453131367E-2     0.964031994   
     16.0760746        0.464595016E-2     0.964896917   
     16.0960960        0.479263067E-2     0.965778470   
     16.1161156        0.497690588E-2     0.966680765   
     16.1361351        0.520593673E-2     0.967608213   
     16.1561565        0.548898103E-2     0.968565464   
     16.1761761        0.583796017E-2     0.969557345   
     16.1961937        0.626852782E-2     0.970588326   
     16.2162151        0.680126902E-2     0.971662521   
     16.2362347        0.746321538E-2     0.972781479   
     16.2562561        0.829035323E-2     0.973943472   
     16.2762756        0.932981167E-2     0.975138783   
     16.2962952        0.106430985E-1     0.976343870   
     16.3163166        0.123078935E-1     0.977510691   
     16.3363361        0.144159691E-1     0.978548706   
     16.3563557        0.170622375E-1     0.979297638   
     16.3763752        0.203061029E-1     0.979489625   
     16.3963947        0.240767486E-1     0.978723943   
     16.4164143        0.280139446E-1     0.976527929   
     16.4364357        0.313353315E-1     0.972615778   
     16.4564552        0.330074690E-1     0.967314601   
     16.4764767        0.323755071E-1     0.961707175   
     16.4964962        0.297055524E-1     0.957069218   
     16.5165157        0.259474721E-1     0.954092979   
     16.5365353        0.220463462E-1     0.952729344   
     16.5565548        0.185574498E-1     0.952551842   
     16.5765743        0.156712420E-1     0.953109205   
     16.5965958        0.133778676E-1     0.954067826   
     16.6166153        0.115935178E-1     0.955217719   
     16.6366367        0.102225924E-1     0.956438720   
     16.6566563        0.918265339E-2     0.957665443   
     16.6766758        0.840906147E-2     0.958864570   
     16.6966972        0.785449520E-2     0.960020602   
     16.7167149        0.748733198E-2     0.961126804   
     16.7367344        0.729074003E-2     0.962179601   
     16.7567558        0.726132467E-2     0.963170171   
     16.7767754        0.740421005E-2     0.964076161   
     16.7967968        0.772370212E-2     0.964854181   
     16.8168163        0.820604432E-2     0.965433955   
     16.8368359        0.879009813E-2     0.965725005   
     16.8568573        0.933517329E-2     0.965656042   
     16.8768768        0.963253528E-2     0.965257645   
     16.8968945        0.951343123E-2     0.964719355   
     16.9169159        0.898335129E-2     0.964309871   
     16.9369354        0.821494032E-2     0.964206874   
     16.9569550        0.740868598E-2     0.964429438   
     16.9769764        0.669249194E-2     0.964901984   
     16.9969959        0.611598371E-2     0.965534508   
     17.0170174        0.568310684E-2     0.966258824   
     17.0370369        0.538060348E-2     0.967032611   
     17.0570564        0.519255362E-2     0.967832983   
     17.0770760        0.510649011E-2     0.968649268   
     17.0970955        0.511527015E-2     0.969477892   
     17.1171150        0.521749165E-2     0.970319092   
     17.1371365        0.541775161E-2     0.971174955   
     17.1571560        0.572705828E-2     0.972047329   
     17.1771774        0.616391469E-2     0.972936571   
     17.1971970        0.675562676E-2     0.973838389   
     17.2172165        0.754042156E-2     0.974740326   
     17.2372360        0.856911950E-2     0.975614190   
     17.2572556        0.990442373E-2     0.976403713   
     17.2772751        0.116141355E-1     0.977005661   
     17.2972965        0.137463184E-1     0.977243781   
     17.3173161        0.162688289E-1     0.976848722   
     17.3373375        0.189636201E-1     0.975488186   
     17.3573570        0.213195514E-1     0.972925723   
     17.3773766        0.226092618E-1     0.969318151   
     17.3973980        0.223034583E-1     0.965377986   
     17.4174156        0.205134656E-1     0.962029636   
     17.4374352        0.178897530E-1     0.959820211   
     17.4574566        0.151192695E-1     0.958748996   
     17.4774761        0.126146628E-1     0.958521366   
     17.4974957        0.105205169E-1     0.958815098   
     17.5175171        0.883279089E-2     0.959390163   
     17.5375366        0.749176322E-2     0.960095346   
     17.5575581        0.642769551E-2     0.960844040   
     17.5775776        0.557923783E-2     0.961589634   
     17.5975952        0.489693228E-2     0.962308764   
     17.6176167        0.434273714E-2     0.962991178   
     17.6376362        0.388797140E-2     0.963633299   
     17.6576557        0.351089379E-2     0.964235365   
     17.6776772        0.319508184E-2     0.964799464   
     17.6976967        0.292811659E-2     0.965328276   
     17.7177181        0.270039449E-2     0.965824783   
     17.7377377        0.250456133E-2     0.966291964   
     17.7577572        0.233483175E-2     0.966732621   
     17.7777767        0.218665134E-2     0.967149258   
     17.7977962        0.205643964E-2     0.967544198   
     17.8178158        0.194129220E-2     0.967919409   
     17.8378372        0.183886744E-2     0.968276858   
     17.8578568        0.174728152E-2     0.968617976   
     17.8778782        0.166496087E-2     0.968944311   
     17.8978977        0.159063074E-2     0.969257116   
     17.9179173        0.152321532E-2     0.969557464   
     17.9379368        0.146181358E-2     0.969846427   
     17.9579563        0.140568241E-2     0.970124841   
     17.9779758        0.135417876E-2     0.970393479   
     17.9979973        0.130675710E-2     0.970653236   
     18.0180168        0.126296037E-2     0.970904529   
     18.0380363        0.122238649E-2     0.971148014   
     18.0580578        0.118468900E-2     0.971384287   
     18.0780773        0.114957499E-2     0.971613705   
     18.0980968        0.111677975E-2     0.971836805   
     18.1181164        0.108608161E-2     0.972053826   
     18.1381359        0.105727941E-2     0.972265303   
     18.1581573        0.103019597E-2     0.972471476   
     18.1781769        0.100468076E-2     0.972672582   
     18.1981964        0.980594894E-3     0.972868979   
     18.2182178        0.957814860E-3     0.973060846   
     18.2382374        0.936236116E-3     0.973248482   
     18.2582588        0.915758195E-3     0.973432064   
     18.2782784        0.896297977E-3     0.973611772   
     18.2982960        0.877775135E-3     0.973787844   
     18.3183174        0.860118249E-3     0.973960400   
     18.3383369        0.843267073E-3     0.974129558   
     18.3583565        0.827162352E-3     0.974295557   
     18.3783779        0.811750710E-3     0.974458456   
     18.3983974        0.796987908E-3     0.974618435   
     18.4184189        0.782827905E-3     0.974775612   
     18.4384384        0.769234088E-3     0.974930048   
     18.4584579        0.756169204E-3     0.975081861   
     18.4784775        0.743599201E-3     0.975231171   
     18.4984970        0.731495908E-3     0.975378036   
     18.5185165        0.719830801E-3     0.975522578   
     18.5385380        0.708577107E-3     0.975664914   
     18.5585575        0.697713287E-3     0.975805044   
     18.5785770        0.687216758E-3     0.975943089   
     18.5985985        0.677066273E-3     0.976079047   
     18.6186180        0.667245185E-3     0.976213098   
     18.6386375        0.657734403E-3     0.976345181   
     18.6586571        0.648519315E-3     0.976475477   
     18.6786766        0.639584265E-3     0.976603925   
     18.6986980        0.630914990E-3     0.976730704   
     18.7187176        0.622499443E-3     0.976855755   
     18.7387371        0.614324992E-3     0.976979136   
     18.7587585        0.606379879E-3     0.977100968   
     18.7787781        0.598654617E-3     0.977221191   
     18.7987976        0.591138029E-3     0.977339983   
     18.8188171        0.583822315E-3     0.977457285   
     18.8388367        0.576697756E-3     0.977573097   
     18.8588581        0.569755910E-3     0.977687597   
     18.8788776        0.562989968E-3     0.977800667   
     18.8988972        0.556392362E-3     0.977912426   
     18.9189186        0.549955643E-3     0.978022933   
     18.9389381        0.543674279E-3     0.978132129   
     18.9589596        0.537541346E-3     0.978240132   
     18.9789772        0.531552127E-3     0.978346884   
     18.9989967        0.525700510E-3     0.978452504   
     19.0190182        0.519981026E-3     0.978556931   
     19.0390377        0.514389831E-3     0.978660285   
     19.0590572        0.508921628E-3     0.978762507   
     19.0790787        0.503571937E-3     0.978863657   
     19.0990982        0.498337205E-3     0.978963792   
     19.1191177        0.493213302E-3     0.979062855   
     19.1391392        0.488195859E-3     0.979160905   
     19.1591587        0.483282318E-3     0.979257941   
     19.1791782        0.478468573E-3     0.979354084   
     19.1991978        0.473751861E-3     0.979449213   
     19.2192173        0.469129271E-3     0.979543447   
     19.2392387        0.464596989E-3     0.979636788   
     19.2592583        0.460153329E-3     0.979729176   
     19.2792778        0.455795263E-3     0.979820728   
     19.2992992        0.451519823E-3     0.979911447   
     19.3193188        0.447325350E-3     0.980001271   
     19.3393383        0.443208934E-3     0.980090261   
     19.3593578        0.439168944E-3     0.980178475   
     19.3793774        0.435203285E-3     0.980265856   
     19.3993988        0.431309192E-3     0.980352521   
     19.4194183        0.427485706E-3     0.980438352   
     19.4394379        0.423730729E-3     0.980523407   
     19.4594593        0.420042081E-3     0.980607808   
     19.4794788        0.416418829E-3     0.980691433   
     19.4994984        0.412859139E-3     0.980774283   
     19.5195179        0.409361150E-3     0.980856538   
     19.5395374        0.405924075E-3     0.980938017   
     19.5595589        0.402545964E-3     0.981018841   
     19.5795784        0.399226206E-3     0.981099010   
     19.5995979        0.395963201E-3     0.981178522   
     19.6196194        0.392755552E-3     0.981257379   
     19.6396389        0.389602734E-3     0.981335580   
     19.6596584        0.386503496E-3     0.981413186   
     19.6796780        0.383456470E-3     0.981490195   
     19.6996975        0.380461483E-3     0.981566548   
     19.7197189        0.377517048E-3     0.981642365   
     19.7397385        0.374622847E-3     0.981717527   
     19.7597580        0.371778093E-3     0.981792212   
     19.7797794        0.368981768E-3     0.981866241   
     19.7997990        0.366233784E-3     0.981939793   
     19.8198185        0.363533269E-3     0.982012749   
     19.8398399        0.360879756E-3     0.982085168   
     19.8598595        0.358273101E-3     0.982157111   
     19.8798790        0.355712633E-3     0.982228458   
     19.8998985        0.353198557E-3     0.982299387   
     19.9199181        0.350730377E-3     0.982369721   
     19.9399395        0.348307891E-3     0.982439637   
     19.9599590        0.345931534E-3     0.982509077   
     19.9799786        0.343601103E-3     0.982577980   
     20.0000000        0.341316743E-3     0.982646465   
# 
# 06/14/2021 at 20:14 yambo @ unimi-XPS-8930 [start]
# 06/14/2021 at 20:14                        [end]
#
# .-Input file  yambo.in
# | optics                           # [R] Linear Response optical properties
# | dipoles                          # [R] Oscillator strenghts (or dipoles)
# | chi                              # [R][CHI] Dyson equation for Chi.
# | ElecTemp= 0.025869         eV    # Electronic Temperature
# | BoseTemp= 0.025861         eV    # Bosonic Temperature
# | FFTGvecs=  9999            RL    # [FFT] Plane-waves
# | DIP_Threads= 1                   # [OPENMP/X] Number of threads for dipoles
# | X_nCPU_LinAlg_INV= 1             # [PARALLEL] CPUs for Linear Algebra (if -1 it is automatically set)
# | X_Threads= 1                     # [OPENMP/X] Number of threads for response functions
# | Chimod= "IP"                     # [X] IP/Hartree/ALDA/LRC/PF/BSfxc
# | DipComputed= "R V P"             # [DIP] [default R P V; extra P2 Spin Orb]
# | % QpntsRXd
# |  1 | 1 |                             # [Xd] Transferred momenta
# | %
# | % BndsRnXd
# |   1 | 19 |                           # [Xd] Polarization function bands
# | %
# | GrFnTpXd= "R"                    # [Xd] Green`s function (T)ordered,(R)etarded,(r)senant,(a)ntiresonant [T, R, r, Ta, Ra]
# | % EnRngeXd
# |   0.00000 | 20.00000 |         eV    # [Xd] Energy range
# | %
# | % DmRngeXd
# |  0.100000 | 0.100000 |         eV    # [Xd] Damping range
# | %
# | ETStpsXd= 1000                   # [Xd] Total Energy steps
# | % LongDrXd
# |  0.100000E-4 |  0.00000    |  0.00000    # [Xd] [cc] Electric Field
# | %
# | XfnQPdb= "E < 02_QP_PPA/ndb.QP"  # [EXTQP Xd] Database action
