#  __      __   ______   __       __  _______    ______               
# |  \    /  \ /      \ |  \     /  \|       \  /      \              
#  \$$\  /  $$|  $$$$$$\| $$\   /  $$| $$$$$$$\|  $$$$$$\             
#   \$$\/  $$ | $$__| $$| $$$\ /  $$$| $$__/ $$| $$  | $$             
#    \$$  $$  | $$    $$| $$$$\  $$$$| $$    $$| $$  | $$             
#     \$$$$   | $$$$$$$$| $$\$$ $$ $$| $$$$$$$\| $$  | $$             
#     | $$    | $$  | $$| $$ \$$$| $$| $$__/ $$| $$__/ $$             
#     | $$    | $$  | $$| $$  \$ | $$| $$    $$ \$$    $$             
#      \$$     \$$   \$$ \$$      \$$ \$$$$$$$   \$$$$$$              
#                                                                     
#       Version 4.5.0 Revision 18072 Hash 2bf448bd1                   
#                   Branch is bug-fixes                               
#         MPI+OpenMP+SLK+SLEPC+HDF5_MPI_IO Build                      
#                http://www.yambo-code.org                            
#
# Absorption @ Q(1)                 q->0 direction:   1.00000000      0.00000000      0.00000000   
#
# [GEN] GF Energies                               :  E < 02_QP_PPA/ndb.QP
# [GEN] Wavefunctions                             : Perdew, Burke & Ernzerhof(X)+Perdew, Burke & Ernzerhof(C)
# [GEN] Green`s Function                          : Retarded
# [GEN] Gauge                                     : Length
# [GEN] [r,Vnl] included                          : yes
#
#    E/ev[1]            EPS-Im[2]          EPS-Re[3]
#
     0.0000000        -0.39419554E-09      1.0256124    
    0.200200193E-1     0.762346303E-6      1.02561247   
    0.400400385E-1     0.152509233E-5      1.02561271   
    0.600600541E-1     0.228794147E-5      1.02561307   
    0.800800771E-1     0.305088543E-5      1.02561355   
    0.100100093        0.381396831E-5      1.02561426   
    0.120120108        0.457718943E-5      1.02561510   
    0.140140131        0.534063929E-5      1.02561617   
    0.160160154        0.610433017E-5      1.02561724   
    0.180180162        0.686829253E-5      1.02561855   
    0.200200185        0.763253047E-5      1.02561998   
    0.220220223        0.839713721E-5      1.02562165   
    0.240240216        0.916210956E-5      1.02562332   
    0.260260254        0.992749392E-5      1.02562523   
    0.280280262        0.106932976E-4      1.02562737   
    0.300300270        0.114595969E-4      1.02562952   
    0.320320308        0.122264109E-4      1.02563190   
    0.340340316        0.129937698E-4      1.02563441   
    0.360360324        0.137616780E-4      1.02563715   
    0.380380362        0.145302265E-4      1.02564001   
    0.400400370        0.152994198E-4      1.02564299   
    0.420420378        0.160693071E-4      1.02564609   
    0.440440446        0.168398838E-4      1.02564943   
    0.460460424        0.176112226E-4      1.02565289   
    0.480480433        0.183833654E-4      1.02565646   
    0.500500441        0.191563031E-4      1.02566016   
    0.520520508        0.199301248E-4      1.02566409   
    0.540540516        0.207048361E-4      1.02566814   
    0.560560524        0.214804841E-4      1.02567244   
    0.580580533        0.222570688E-4      1.02567673   
    0.600600541        0.230346832E-4      1.02568126   
    0.620620608        0.238133325E-4      1.02568603   
    0.640640616        0.245930460E-4      1.02569079   
    0.660660625        0.253738563E-4      1.02569580   
    0.680680633        0.261558325E-4      1.02570093   
    0.700700700        0.269389984E-4      1.02570629   
    0.720720649        0.277233685E-4      1.02571177   
    0.740740716        0.285089900E-4      1.02571738   
    0.760760725        0.292959176E-4      1.02572322   
    0.780780733        0.300841893E-4      1.02572906   
    0.800800741        0.308738054E-4      1.02573526   
    0.820820808        0.316648257E-4      1.02574146   
    0.840840757        0.324573193E-4      1.02574790   
    0.860860825        0.332512936E-4      1.02575445   
    0.880880892        0.340467850E-4      1.02576125   
    0.900900781        0.348438007E-4      1.02576804   
    0.920920849        0.356424571E-4      1.02577519   
    0.940940857        0.364427469E-4      1.02578235   
    0.960960865        0.372447103E-4      1.02578974   
    0.980980933        0.380483798E-4      1.02579725   
     1.00100088        0.388538283E-4      1.02580500   
     1.02102101        0.396610667E-4      1.02581286   
     1.04104102        0.404701423E-4      1.02582085   
     1.06106102        0.412811023E-4      1.02582896   
     1.08108103        0.420940050E-4      1.02583730   
     1.10110104        0.429088323E-4      1.02584589   
     1.12112105        0.437257040E-4      1.02585459   
     1.14114118        0.445445767E-4      1.02586341   
     1.16116107        0.453655666E-4      1.02587235   
     1.18118107        0.461886993E-4      1.02588153   
     1.20120108        0.470139785E-4      1.02589083   
     1.22122109        0.478415095E-4      1.02590036   
     1.24124122        0.486712852E-4      1.02591002   
     1.26126122        0.495033855E-4      1.02591980   
     1.28128123        0.503378033E-4      1.02592981   
     1.30130124        0.511746475E-4      1.02593994   
     1.32132125        0.520139329E-4      1.02595031   
     1.34134126        0.528557102E-4      1.02596080   
     1.36136127        0.536999942E-4      1.02597141   
     1.38138139        0.545468902E-4      1.02598226   
     1.40140140        0.553964164E-4      1.02599323   
     1.42142129        0.562486020E-4      1.02600443   
     1.44144130        0.571035125E-4      1.02601576   
     1.46146131        0.579612315E-4      1.02602732   
     1.48148143        0.588217481E-4      1.02603900   
     1.50150144        0.596850987E-4      1.02605081   
     1.52152145        0.605513997E-4      1.02606285   
     1.54154146        0.614207238E-4      1.02607512   
     1.56156147        0.622930020E-4      1.02608752   
     1.58158147        0.631683870E-4      1.02610004   
     1.60160148        0.640469225E-4      1.02611279   
     1.62162161        0.649286085E-4      1.02612567   
     1.64164162        0.658135541E-4      1.02613878   
     1.66166162        0.667017521E-4      1.02615201   
     1.68168151        0.675933115E-4      1.02616549   
     1.70170164        0.684882689E-4      1.02617908   
     1.72172165        0.693866969E-4      1.02619290   
     1.74174178        0.702885882E-4      1.02620685   
     1.76176178        0.711940884E-4      1.02622104   
     1.78178179        0.721032266E-4      1.02623534   
     1.80180156        0.730159663E-4      1.02624989   
     1.82182169        0.739325405E-4      1.02626455   
     1.84184170        0.748528837E-4      1.02627945   
     1.86186171        0.757770977E-4      1.02629447   
     1.88188171        0.767052188E-4      1.02630973   
     1.90190172        0.776373345E-4      1.02632523   
     1.92192173        0.785735174E-4      1.02634084   
     1.94194174        0.795138112E-4      1.02635670   
     1.96196187        0.804582232E-4      1.02637267   
     1.98198187        0.814069499E-4      1.02638888   
     2.00200176        0.823599839E-4      1.02640522   
     2.02202201        0.833173690E-4      1.02642179   
     2.04204202        0.842792069E-4      1.02643859   
     2.06206203        0.852455560E-4      1.02645552   
     2.08208203        0.862164961E-4      1.02647269   
     2.10210204        0.871921220E-4      1.02649009   
     2.12212205        0.881723900E-4      1.02650762   
     2.14214206        0.891575546E-4      1.02652538   
     2.16216207        0.901475214E-4      1.02654326   
     2.18218207        0.911424795E-4      1.02656138   
     2.20220208        0.921424653E-4      1.02657974   
     2.22222209        0.931475224E-4      1.02659833   
     2.24224210        0.941577819E-4      1.02661705   
     2.26226211        0.951733236E-4      1.02663600   
     2.28228235        0.961941332E-4      1.02665508   
     2.30230236        0.972204143E-4      1.02667451   
     2.32232213        0.982522324E-4      1.02669406   
     2.34234214        0.992895657E-4      1.02671385   
     2.36236215        0.100332632E-3      1.02673376   
     2.38238215        0.101381454E-3      1.02675390   
     2.40240216        0.102436141E-3      1.02677429   
     2.42242217        0.103496743E-3      1.02679491   
     2.44244218        0.104563354E-3      1.02681577   
     2.46246219        0.105636122E-3      1.02683675   
     2.48248243        0.106715139E-3      1.02685809   
     2.50250244        0.107800399E-3      1.02687955   
     2.52252245        0.108892120E-3      1.02690113   
     2.54254246        0.109990353E-3      1.02692306   
     2.56256247        0.111095178E-3      1.02694523   
     2.58258247        0.112206733E-3      1.02696753   
     2.60260248        0.113325106E-3      1.02699006   
     2.62262249        0.114450377E-3      1.02701294   
     2.64264250        0.115582719E-3      1.02703595   
     2.66266251        0.116722134E-3      1.02705920   
     2.68268251        0.117868876E-3      1.02708256   
     2.70270252        0.119022967E-3      1.02710629   
     2.72272253        0.120184530E-3      1.02713025   
     2.74274278        0.121353645E-3      1.02715445   
     2.76276278        0.122530546E-3      1.02717876   
     2.78278279        0.123715246E-3      1.02720344   
     2.80280280        0.124907921E-3      1.02722836   
     2.82282257        0.126108585E-3      1.02725339   
     2.84284258        0.127317588E-3      1.02727878   
     2.86286259        0.128534928E-3      1.02730441   
     2.88288260        0.129760723E-3      1.02733028   
     2.90290260        0.130995104E-3      1.02735627   
     2.92292261        0.132238260E-3      1.02738261   
     2.94294262        0.133490350E-3      1.02740920   
     2.96296287        0.134751448E-3      1.02743602   
     2.98298287        0.136021714E-3      1.02746320   
     3.00300288        0.137301293E-3      1.02749050   
     3.02302289        0.138590447E-3      1.02751815   
     3.04304290        0.139889176E-3      1.02754593   
     3.06306291        0.141197728E-3      1.02757406   
     3.08308291        0.142516234E-3      1.02760243   
     3.10310292        0.143844853E-3      1.02763116   
     3.12312293        0.145183803E-3      1.02766001   
     3.14314294        0.146533144E-3      1.02768922   
     3.16316295        0.147893181E-3      1.02771866   
     3.18318295        0.149264029E-3      1.02774835   
     3.20320296        0.150645879E-3      1.02777839   
     3.22322321        0.152038934E-3      1.02780867   
     3.24324322        0.153443354E-3      1.02783918   
     3.26326323        0.154859386E-3      1.02787006   
     3.28328323        0.156287118E-3      1.02790117   
     3.30330324        0.157726856E-3      1.02793264   
     3.32332325        0.159178817E-3      1.02796435   
     3.34334302        0.160643191E-3      1.02799630   
     3.36336303        0.162120094E-3      1.02802861   
     3.38338304        0.163609919E-3      1.02806115   
     3.40340328        0.165112753E-3      1.02809405   
     3.42342329        0.166628874E-3      1.02812731   
     3.44344330        0.168158585E-3      1.02816069   
     3.46346331        0.169702049E-3      1.02819455   
     3.48348355        0.171259540E-3      1.02822864   
     3.50350332        0.172831278E-3      1.02826309   
     3.52352357        0.174417568E-3      1.02829778   
     3.54354334        0.176018686E-3      1.02833283   
     3.56356359        0.177634938E-3      1.02836823   
     3.58358335        0.179266484E-3      1.02840388   
     3.60360312        0.180913688E-3      1.02844000   
     3.62362337        0.182576900E-3      1.02847636   
     3.64364338        0.184256234E-3      1.02851295   
     3.66366339        0.185952274E-3      1.02855003   
     3.68368340        0.187665079E-3      1.02858746   
     3.70370364        0.189395068E-3      1.02862513   
     3.72372341        0.191142652E-3      1.02866316   
     3.74374366        0.192908075E-3      1.02870154   
     3.76376343        0.194691776E-3      1.02874041   
     3.78378367        0.196493987E-3      1.02877951   
     3.80380344        0.198315131E-3      1.02881896   
     3.82382369        0.200155671E-3      1.02885878   
     3.84384346        0.202015857E-3      1.02889907   
     3.86386371        0.203896270E-3      1.02893960   
     3.88388348        0.205797129E-3      1.02898061   
     3.90390372        0.207719000E-3      1.02902198   
     3.92392373        0.209662161E-3      1.02906370   
     3.94394398        0.211627281E-3      1.02910590   
     3.96396375        0.213614607E-3      1.02914834   
     3.98398399        0.215624736E-3      1.02919137   
     4.00400352        0.217658075E-3      1.02923465   
     4.02402401        0.219715177E-3      1.02927840   
     4.04404402        0.221796538E-3      1.02932250   
     4.06406403        0.223902622E-3      1.02936709   
     4.08408403        0.226034128E-3      1.02941215   
     4.10410357        0.228191479E-3      1.02945757   
     4.12412405        0.230375372E-3      1.02950335   
     4.14414358        0.232586230E-3      1.02954972   
     4.16416407        0.234824809E-3      1.02959645   
     4.18418360        0.237091677E-3      1.02964365   
     4.20420408        0.239387518E-3      1.02969134   
     4.22422361        0.241712958E-3      1.02973938   
     4.24424410        0.244068782E-3      1.02978802   
     4.26426411        0.246455573E-3      1.02983701   
     4.28428411        0.248874159E-3      1.02988648   
     4.30430412        0.251325313E-3      1.02993655   
     4.32432413        0.253809732E-3      1.02998710   
     4.34434414        0.256328232E-3      1.03003812   
     4.36436415        0.258881832E-3      1.03008962   
     4.38438416        0.261471199E-3      1.03014159   
     4.40440416        0.264097267E-3      1.03019416   
     4.42442417        0.266761053E-3      1.03024721   
     4.44444418        0.269463431E-3      1.03030086   
     4.46446419        0.272205449E-3      1.03035498   
     4.48448420        0.274988124E-3      1.03040969   
     4.50450420        0.277812331E-3      1.03046501   
     4.52452421        0.280679553E-3      1.03052080   
     4.54454422        0.283590547E-3      1.03057718   
     4.56456470        0.286546710E-3      1.03063416   
     4.58458424        0.289549207E-3      1.03069174   
     4.60460472        0.292599289E-3      1.03074992   
     4.62462425        0.295698293E-3      1.03080881   
     4.64464426        0.298847648E-3      1.03086817   
     4.66466427        0.302048691E-3      1.03092825   
     4.68468428        0.305302819E-3      1.03098893   
     4.70470428        0.308611809E-3      1.03105032   
     4.72472429        0.311976881E-3      1.03111231   
     4.74474430        0.315400073E-3      1.03117502   
     4.76476431        0.318882812E-3      1.03123844   
     4.78478479        0.322427106E-3      1.03130257   
     4.80480433        0.326034555E-3      1.03136730   
     4.82482481        0.329707458E-3      1.03143287   
     4.84484434        0.333447359E-3      1.03149915   
     4.86486483        0.337256701E-3      1.03156614   
     4.88488436        0.341137522E-3      1.03163397   
     4.90490484        0.345092179E-3      1.03170252   
     4.92492437        0.349122914E-3      1.03177190   
     4.94494486        0.353232404E-3      1.03184199   
     4.96496487        0.357423094E-3      1.03191304   
     4.98498487        0.361697719E-3      1.03198493   
     5.00500488        0.366059103E-3      1.03205752   
     5.02502489        0.370510155E-3      1.03213120   
     5.04504490        0.375053991E-3      1.03220558   
     5.06506491        0.379693869E-3      1.03228104   
     5.08508492        0.384432962E-3      1.03235734   
     5.10510492        0.389275228E-3      1.03243458   
     5.12512493        0.394223898E-3      1.03251290   
     5.14514446        0.399283017E-3      1.03259206   
     5.16516495        0.404456805E-3      1.03267241   
     5.18518496        0.409749366E-3      1.03275371   
     5.20520496        0.415165297E-3      1.03283596   
     5.22522497        0.420709053E-3      1.03291941   
     5.24524498        0.426385901E-3      1.03300405   
     5.26526499        0.432200701E-3      1.03308976   
     5.28528500        0.438159244E-3      1.03317666   
     5.30530500        0.444267032E-3      1.03326464   
     5.32532501        0.450530410E-3      1.03335392   
     5.34534502        0.456955284E-3      1.03344452   
     5.36536503        0.463548960E-3      1.03353643   
     5.38538504        0.470318162E-3      1.03362954   
     5.40540504        0.477270369E-3      1.03372407   
     5.42542505        0.484413584E-3      1.03382003   
     5.44544506        0.491756364E-3      1.03391743   
     5.46546507        0.499307178E-3      1.03401625   
     5.48548555        0.507075863E-3      1.03411663   
     5.50550508        0.515071908E-3      1.03421855   
     5.52552557        0.523305964E-3      1.03432202   
     5.54554510        0.531789323E-3      1.03442729   
     5.56556559        0.540533743E-3      1.03453410   
     5.58558512        0.549551856E-3      1.03464282   
     5.60560560        0.558856875E-3      1.03475320   
     5.62562513        0.568463176E-3      1.03486562   
     5.64564514        0.578385778E-3      1.03497982   
     5.66566515        0.588641269E-3      1.03509605   
     5.68568516        0.599246239E-3      1.03521442   
     5.70570564        0.610219664E-3      1.03533483   
     5.72572517        0.621580577E-3      1.03545737   
     5.74574566        0.633350632E-3      1.03558230   
     5.76576519        0.645551889E-3      1.03570962   
     5.78578568        0.658208795E-3      1.03583932   
     5.80580521        0.671346963E-3      1.03597152   
     5.82582569        0.684994506E-3      1.03610647   
     5.84584522        0.699180760E-3      1.03624403   
     5.86586571        0.713938440E-3      1.03638458   
     5.88588524        0.729301421E-3      1.03652799   
     5.90590572        0.745308236E-3      1.03667438   
     5.92592573        0.761997653E-3      1.03682411   
     5.94594574        0.779414491E-3      1.03697717   
     5.96596575        0.797605026E-3      1.03713369   
     5.98598576        0.816621236E-3      1.03729379   
     6.00600576        0.836517836E-3      1.03745770   
     6.02602577        0.857355946E-3      1.03762567   
     6.04604578        0.879200175E-3      1.03779769   
     6.06606579        0.902123225E-3      1.03797412   
     6.08608580        0.926201697E-3      1.03815508   
     6.10610580        0.951522379E-3      1.03834081   
     6.12612581        0.978177297E-3      1.03853166   
     6.14614582        0.100627041E-2      1.03872776   
     6.16616583        0.103591324E-2      1.03892946   
     6.18618584        0.106722990E-2      1.03913701   
     6.20620584        0.110035774E-2      1.03935075   
     6.22622585        0.113544660E-2      1.03957105   
     6.24624586        0.117266574E-2      1.03979838   
     6.26626587        0.121219805E-2      1.04003298   
     6.28628588        0.125425193E-2      1.04027534   
     6.30630589        0.129905529E-2      1.04052603   
     6.32632589        0.134686672E-2      1.04078543   
     6.34634590        0.139797211E-2      1.04105437   
     6.36636591        0.145269569E-2      1.04133320   
     6.38638592        0.151139835E-2      1.04162276   
     6.40640593        0.157449266E-2      1.04192364   
     6.42642593        0.164243963E-2      1.04223692   
     6.44644642        0.171576929E-2      1.04256332   
     6.46646595        0.179507805E-2      1.04290378   
     6.48648643        0.188105658E-2      1.04325962   
     6.50650597        0.197448651E-2      1.04363191   
     6.52652645        0.207627728E-2      1.04402208   
     6.54654598        0.218747323E-2      1.04443157   
     6.56656647        0.230929139E-2      1.04486203   
     6.58658600        0.244314293E-2      1.04531527   
     6.60660648        0.259069004E-2      1.04579365   
     6.62662601        0.275387685E-2      1.04629922   
     6.64664650        0.293501443E-2      1.04683483   
     6.66666651        0.313683483E-2      1.04740334   
     6.68668604        0.336261792E-2      1.04800808   
     6.70670652        0.361630809E-2      1.04865301   
     6.72672606        0.390266418E-2      1.04934216   
     6.74674654        0.422750553E-2      1.05008066   
     6.76676607        0.459795166E-2      1.05087376   
     6.78678656        0.502283173E-2      1.05172789   
     6.80680656        0.551313022E-2      1.05264997   
     6.82682610        0.608263025E-2      1.05364764   
     6.84684658        0.674888073E-2      1.05472970   
     6.86686659        0.753423991E-2      1.05590546   
     6.88688660        0.846760068E-2      1.05718422   
     6.90690613        0.958650652E-2      1.05857527   
     6.92692661        0.109403953E-1      1.06008613   
     6.94694662        0.125944391E-1      1.06171942   
     6.96696711        0.146351317E-1      1.06346858   
     6.98698616        0.171769634E-1      1.06530833   
     7.00700665        0.203702692E-1      1.06717896   
     7.02702665        0.244057868E-1      1.06895745   
     7.04704714        0.295093041E-1      1.07041037   
     7.06706667        0.359037481E-1      1.07112062   
     7.08708668        0.436976552E-1      1.07040000   
     7.10710669        0.526335910E-1      1.06725228   
     7.12712717        0.616974644E-1      1.06058085   
     7.14714670        0.688724890E-1      1.04989672   
     7.16716671        0.717432350E-1      1.03632188   
     7.18718719        0.691239759E-1      1.02267432   
     7.20720625        0.621051006E-1      1.01182008   
     7.22722673        0.530855805E-1      1.00497079   
     7.24724674        0.441231392E-1      1.00169039   
     7.26726723        0.362759493E-1      1.00089025   
     7.28728676        0.298270173E-1      1.00156212   
     7.30730677        0.246778112E-1      1.00300336   
     7.32732677        0.206074137E-1      1.00478661   
     7.34734726        0.173889715E-1      1.00667155   
     7.36736679        0.148298750E-1      1.00853145   
     7.38738680        0.127780056E-1      1.01030445   
     7.40740728        0.111173922E-1      1.01196408   
     7.42742729        0.976041425E-2      1.01350296   
     7.44744682        0.864106044E-2      1.01492381   
     7.46746683        0.770926243E-2      1.01623380   
     7.48748732        0.692700595E-2      1.01744199   
     7.50750732        0.626506144E-2      1.01855803   
     7.52752686        0.570080942E-2      1.01959109   
     7.54754686        0.521650817E-2      1.02055001   
     7.56756735        0.479822839E-2      1.02144253   
     7.58758736        0.443486916E-2      1.02227569   
     7.60760689        0.411753682E-2      1.02305579   
     7.62762737        0.383901317E-2      1.02378821   
     7.64764738        0.359344715E-2      1.02447796   
     7.66766787        0.337603083E-2      1.02512944   
     7.68768692        0.318279956E-2      1.02574623   
     7.70770741        0.301043759E-2      1.02633202   
     7.72772741        0.285619218E-2      1.02688968   
     7.74774694        0.271774852E-2      1.02742171   
     7.76776695        0.259313337E-2      1.02793074   
     7.78778744        0.248068594E-2      1.02841878   
     7.80780745        0.237898319E-2      1.02888763   
     7.82782698        0.228680624E-2      1.02933908   
     7.84784746        0.220309873E-2      1.02977479   
     7.86786747        0.212695473E-2      1.03019583   
     7.88788795        0.205758447E-2      1.03060365   
     7.90790701        0.199430366E-2      1.03099930   
     7.92792749        0.193650485E-2      1.03138375   
     7.94794750        0.188366545E-2      1.03175807   
     7.96796799        0.183532014E-2      1.03212297   
     7.98798704        0.179106102E-2      1.03247929   
     8.00800705        0.175052322E-2      1.03282773   
     8.02802753        0.171338639E-2      1.03316891   
     8.04804802        0.167936448E-2      1.03350341   
     8.06806755        0.164820475E-2      1.03383183   
     8.08808804        0.161967590E-2      1.03415465   
     8.10810757        0.159357511E-2      1.03447235   
     8.12812805        0.156971964E-2      1.03478527   
     8.14814758        0.154794590E-2      1.03509390   
     8.16816807        0.152810360E-2      1.03539872   
     8.18818760        0.151005958E-2      1.03569984   
     8.20820713        0.149369345E-2      1.03599775   
     8.22822762        0.147889520E-2      1.03629279   
     8.24824810        0.146556564E-2      1.03658509   
     8.26826763        0.145361491E-2      1.03687501   
     8.28828716        0.144296221E-2      1.03716278   
     8.30830765        0.143353164E-2      1.03744876   
     8.32832813        0.142525649E-2      1.03773296   
     8.34834862        0.141807471E-2      1.03801584   
     8.36836720        0.141193066E-2      1.03829741   
     8.38838768        0.140677288E-2      1.03857791   
     8.40840816        0.140255492E-2      1.03885758   
     8.42842865        0.139923347E-2      1.03913653   
     8.44844723        0.139677059E-2      1.03941500   
     8.46846771        0.139513018E-2      1.03969312   
     8.48848820        0.139428023E-2      1.03997099   
     8.50850868        0.139419152E-2      1.04024887   
     8.52852821        0.139483693E-2      1.04052687   
     8.54854774        0.139619224E-2      1.04080498   
     8.56856823        0.139823544E-2      1.04108357   
     8.58858871        0.140094652E-2      1.04136264   
     8.60860825        0.140430743E-2      1.04164243   
     8.62862778        0.140830223E-2      1.04192293   
     8.64864826        0.141291600E-2      1.04220426   
     8.66866875        0.141813629E-2      1.04248667   
     8.68868828        0.142395112E-2      1.04277015   
     8.70870781        0.143035047E-2      1.04305494   
     8.72872829        0.143732596E-2      1.04334092   
     8.74874783        0.144486933E-2      1.04362857   
     8.76876831        0.145297544E-2      1.04391766   
     8.78878880        0.146163849E-2      1.04420853   
     8.80880833        0.147085392E-2      1.04450107   
     8.82882786        0.148061907E-2      1.04479563   
     8.84884834        0.149093231E-2      1.04509211   
     8.86886883        0.150179153E-2      1.04539084   
     8.88888836        0.151319697E-2      1.04569173   
     8.90890789        0.152514922E-2      1.04599488   
     8.92892838        0.153765071E-2      1.04630053   
     8.94894886        0.155070343E-2      1.04660881   
     8.96896839        0.156431017E-2      1.04691958   
     8.98898792        0.157847442E-2      1.04723334   
     9.00900841        0.159320328E-2      1.04754984   
     9.02902889        0.160850130E-2      1.04786932   
     9.04904842        0.162437523E-2      1.04819202   
     9.06906796        0.164083194E-2      1.04851782   
     9.08908844        0.165788084E-2      1.04884708   
     9.10910892        0.167553115E-2      1.04917967   
     9.12912941        0.169379171E-2      1.04951596   
     9.14914799        0.171267369E-2      1.04985583   
     9.16916847        0.173218991E-2      1.05019963   
     9.18918896        0.175235234E-2      1.05054736   
     9.20920944        0.177317439E-2      1.05089915   
     9.22922897        0.179466943E-2      1.05125511   
     9.24924850        0.181685574E-2      1.05161536   
     9.26926899        0.183974754E-2      1.05198026   
     9.28928852        0.186336366E-2      1.05234969   
     9.30930901        0.188772148E-2      1.05272388   
     9.32932854        0.191284297E-2      1.05310309   
     9.34934902        0.193874724E-2      1.05348730   
     9.36936855        0.196545501E-2      1.05387664   
     9.38938904        0.199299236E-2      1.05427146   
     9.40940857        0.202138396E-2      1.05467188   
     9.42942905        0.205065380E-2      1.05507803   
     9.44944859        0.208083051E-2      1.05549002   
     9.46946907        0.211194367E-2      1.05590808   
     9.48948860        0.214402308E-2      1.05633247   
     9.50950909        0.217710272E-2      1.05676329   
     9.52952862        0.221121334E-2      1.05720079   
     9.54954910        0.224639522E-2      1.05764520   
     9.56956959        0.228268327E-2      1.05809665   
     9.58958912        0.232011941E-2      1.05855536   
     9.60960865        0.235874369E-2      1.05902171   
     9.62962914        0.239860313E-2      1.05949581   
     9.64964962        0.243974477E-2      1.05997789   
     9.66966915        0.248221750E-2      1.06046832   
     9.68968868        0.252607348E-2      1.06096721   
     9.70970917        0.257136906E-2      1.06147504   
     9.72972965        0.261816382E-2      1.06199193   
     9.74974918        0.266651739E-2      1.06251824   
     9.76976871        0.271649961E-2      1.06305420   
     9.78978920        0.276817800E-2      1.06360030   
     9.80980968        0.282162661E-2      1.06415689   
     9.82982922        0.287692132E-2      1.06472409   
     9.84984875        0.293414993E-2      1.06530237   
     9.86986923        0.299339811E-2      1.06589234   
     9.88988972        0.305475993E-2      1.06649411   
     9.90990925        0.311833224E-2      1.06710815   
     9.92992973        0.318422541E-2      1.06773496   
     9.94994926        0.325255049E-2      1.06837511   
     9.96996975        0.332342624E-2      1.06902897   
     9.98998928        0.339697720E-2      1.06969702   
     10.0100098        0.347334752E-2      1.07037985   
     10.0300293        0.355267874E-2      1.07107806   
     10.0500498        0.363512523E-2      1.07179213   
     10.0700693        0.372085301E-2      1.07252276   
     10.0900898        0.381004321E-2      1.07327056   
     10.1101093        0.390288467E-2      1.07403636   
     10.1301298        0.399958342E-2      1.07482064   
     10.1501493        0.410035206E-2      1.07562435   
     10.1701698        0.420543598E-2      1.07644832   
     10.1901894        0.431508757E-2      1.07729316   
     10.2102098        0.442957645E-2      1.07816017   
     10.2302294        0.454919320E-2      1.07904994   
     10.2502499        0.467426702E-2      1.07996368   
     10.2702703        0.480513554E-2      1.08090246   
     10.2902889        0.494216708E-2      1.08186734   
     10.3103094        0.508577470E-2      1.08285964   
     10.3303299        0.523639191E-2      1.08388054   
     10.3503504        0.539449230E-2      1.08493161   
     10.3703699        0.556059089E-2      1.08601415   
     10.3903894        0.573525811E-2      1.08712983   
     10.4104099        0.591910491E-2      1.08828032   
     10.4304304        0.611280790E-2      1.08946729   
     10.4504499        0.631709304E-2      1.09069276   
     10.4704695        0.653278409E-2      1.09195900   
     10.4904900        0.676076254E-2      1.09326792   
     10.5105104        0.700200442E-2      1.09462214   
     10.5305300        0.725757983E-2      1.09602404   
     10.5505495        0.752869481E-2      1.09747660   
     10.5705700        0.781666394E-2      1.09898269   
     10.5905905        0.812295545E-2      1.10054564   
     10.6106100        0.844917353E-2      1.10216880   
     10.6306295        0.879716966E-2      1.10385633   
     10.6506500        0.916895550E-2      1.10561216   
     10.6706705        0.956681278E-2      1.10744083   
     10.6906900        0.999326631E-2      1.10934734   
     10.7107105        0.104512349E-1      1.11133707   
     10.7307301        0.109439529E-1      1.11341596   
     10.7507505        0.114751020E-1      1.11559045   
     10.7707701        0.120488498E-1      1.11786771   
     10.7907906        0.126700168E-1      1.12025583   
     10.8108101        0.133440420E-1      1.12276328   
     10.8308296        0.140771726E-1      1.12539959   
     10.8508501        0.148767140E-1      1.12817585   
     10.8708706        0.157510079E-1      1.13110363   
     10.8908901        0.167098064E-1      1.13419628   
     10.9109097        0.177644379E-1      1.13746858   
     10.9309301        0.189283434E-1      1.14093709   
     10.9509506        0.202172194E-1      1.14462042   
     10.9709711        0.216497201E-1      1.14853954   
     10.9909897        0.232480355E-1      1.15271771   
     11.0110102        0.250389539E-1      1.15718198   
     11.0310307        0.270546060E-1      1.16196215   
     11.0510511        0.293340757E-1      1.16709232   
     11.0710697        0.319250450E-1      1.17261076   
     11.0910902        0.348866135E-1      1.17856145   
     11.1111107        0.382917896E-1      1.18499315   
     11.1311312        0.422321148E-1      1.19196081   
     11.1511507        0.468229316E-1      1.19952488   
     11.1711702        0.522117466E-1      1.20775247   
     11.1911907        0.585875027E-1      1.21671331   
     11.2112112        0.661953762E-1      1.22647738   
     11.2312307        0.753556490E-1      1.23710656   
     11.2512503        0.864914954E-1      1.24864066   
     11.2712708        0.100162342         1.26106811   
     11.2912903        0.117109947         1.27427530   
     11.3113108        0.138314888         1.28795779   
     11.3313303        0.165042281         1.30145288   
     11.3513508        0.198850065         1.31346393   
     11.3713703        0.241442591         1.32160950   
     11.3913908        0.294149131         1.32180142   
     11.4114113        0.356582135         1.30770135   
     11.4314308        0.424152792         1.27120233   
     11.4514503        0.485299289         1.20582688   
     11.4714708        0.522462368         1.11378181   
     11.4914913        0.521303117         1.01100445   
     11.5115108        0.482367843        0.920348585   
     11.5315304        0.420589864        0.856943130   
     11.5515509        0.353335232        0.822228670   
     11.5715714        0.291689575        0.809447229   
     11.5915909        0.239889324        0.810545087   
     11.6116104        0.198154941        0.819329023   
     11.6316309        0.165106237        0.831838429   
     11.6516514        0.139038891        0.845777154   
     11.6716719        0.118412353        0.859900296   
     11.6916904        0.101981416        0.873575926   
     11.7117109        0.887828022E-1     0.886516452   
     11.7317314        0.780887008E-1     0.898618758   
     11.7517519        0.693503395E-1     0.909877539   
     11.7717705        0.621540323E-1     0.920335770   
     11.7917910        0.561852120E-1     0.930059671   
     11.8118114        0.512045138E-1     0.939121366   
     11.8318310        0.470275097E-1     0.947593391   
     11.8518515        0.435107052E-1     0.955545485   
     11.8718710        0.405423120E-1     0.963041246   
     11.8918915        0.380342118E-1     0.970138967   
     11.9119110        0.359167457E-1     0.976891220   
     11.9319315        0.341342129E-1     0.983346283   
     11.9519510        0.326424353E-1     0.989547074   
     11.9719715        0.314061195E-1     0.995532990   
     11.9919910        0.303972103E-1      1.00133979   
     12.0120115        0.295934696E-1      1.00700116   
     12.0320311        0.289777480E-1      1.01254773   
     12.0520515        0.285370350E-1      1.01800871   
     12.0720711        0.282620396E-1      1.02341163   
     12.0920916        0.281467643E-1      1.02878356   
     12.1121120        0.281883162E-1      1.03415072   
     12.1321316        0.283867959E-1      1.03953898   
     12.1521511        0.287452396E-1      1.04497433   
     12.1721716        0.292698722E-1      1.05048418   
     12.1921921        0.299702547E-1      1.05609572   
     12.2122116        0.308597162E-1      1.06183827   
     12.2322311        0.319559202E-1      1.06774223   
     12.2522516        0.332817771E-1      1.07384121   
     12.2722721        0.348663069E-1      1.08017075   
     12.2922916        0.367461778E-1      1.08676970   
     12.3123112        0.389675237E-1      1.09368050   
     12.3323317        0.415888019E-1      1.10095036   
     12.3523521        0.446837470E-1      1.10863030   
     12.3723717        0.483460985E-1      1.11677575   
     12.3923912        0.526963770E-1      1.12544703   
     12.4124117        0.578896552E-1      1.13470614   
     12.4324322        0.641276240E-1      1.14461410   
     12.4524517        0.716743320E-1      1.15522337   
     12.4724712        0.808789432E-1      1.16656613   
     12.4924917        0.922028944E-1      1.17862689   
     12.5125122        0.106257126         1.19129801   
     12.5325317        0.123841986         1.20429730   
     12.5525522        0.145980731         1.21702611   
     12.5725718        0.173895270         1.22832167   
     12.5925922        0.208833143         1.23608220   
     12.6126118        0.251515985         1.23679245   
     12.6326323        0.300892740         1.22526860   
     12.6526518        0.352074951         1.19557059   
     12.6726723        0.394808888         1.14449692   
     12.6926918        0.416090041         1.07702386   
     12.7127123        0.408579379         1.00755918   
     12.7327318        0.377001405        0.951859772   
     12.7527523        0.333887786        0.917364120   
     12.7727718        0.290538639        0.902411878   
     12.7927923        0.252991915        0.901560903   
     12.8128119        0.223207280        0.909742653   
     12.8328314        0.201295227        0.923402905   
     12.8528519        0.186814621        0.940209508   
     12.8728724        0.179282486        0.958602846   
     12.8928928        0.178381592        0.977470398   
     12.9129114        0.184060246        0.995862544   
     12.9329319        0.196537063         1.01271939   
     12.9529524        0.216214895         1.02659321   
     12.9729729        0.243503794         1.03533256   
     12.9929924        0.278366655         1.03562295   
     13.0130119        0.319091439         1.02264786   
     13.0330324        0.360121548        0.991101086   
     13.0530529        0.390811384        0.939061105   
     13.0730724        0.398999423        0.873169124   
     13.0930920        0.379600793        0.808294177   
     13.1131124        0.339145541        0.758551955   
     13.1331329        0.290028751        0.729186296   
     13.1531525        0.242295921        0.717396617   
     13.1731720        0.200845137        0.717526197   
     13.1931925        0.166811988        0.724549055   
     13.2132130        0.139549762        0.735027790   
     13.2332325        0.117872253        0.746897936   
     13.2532520        0.100599974        0.759015203   
     13.2732725        0.867445692E-1     0.770785689   
     13.2932930        0.755287185E-1     0.781928539   
     13.3133125        0.663590282E-1     0.792333782   
     13.3333330        0.587856360E-1     0.801983535   
     13.3533525        0.524694808E-1     0.810904384   
     13.3733721        0.471529439E-1     0.819144189   
     13.3933926        0.426384099E-1     0.826759815   
     13.4134130        0.387740061E-1     0.833808005   
     13.4334326        0.354413316E-1     0.840343416   
     13.4534521        0.325474776E-1     0.846416116   
     13.4734726        0.300184656E-1     0.852072299   
     13.4934931        0.277954545E-1     0.857352853   
     13.5135126        0.258308854E-1     0.862294197   
     13.5335321        0.240861475E-1     0.866928816   
     13.5535526        0.225294326E-1     0.871285915   
     13.5735731        0.211346745E-1     0.875390887   
     13.5935936        0.198801737E-1     0.879266620   
     13.6136131        0.187477805E-1     0.882933259   
     13.6336327        0.177222658E-1     0.886408865   
     13.6536522        0.167906955E-1     0.889709830   
     13.6736736        0.159420315E-1     0.892850816   
     13.6936932        0.151670314E-1     0.895844340   
     13.7137136        0.144575480E-1     0.898702741   
     13.7337332        0.138067510E-1     0.901435971   
     13.7537527        0.132085867E-1     0.904053986   
     13.7737732        0.126578156E-1     0.906565726   
     13.7937927        0.121499803E-1     0.908978701   
     13.8138123        0.116810752E-1     0.911300361   
     13.8338337        0.112475874E-1     0.913537502   
     13.8538532        0.108465413E-1     0.915695906   
     13.8738728        0.104752062E-1     0.917781413   
     13.8938932        0.101311961E-1     0.919799268   
     13.9139128        0.981246587E-2     0.921754062   
     13.9339342        0.951712392E-2     0.923650503   
     13.9539528        0.924358517E-2     0.925492525   
     13.9739723        0.899038836E-2     0.927284122   
     13.9939938        0.875624176E-2     0.929029107   
     14.0140133        0.854007527E-2     0.930730760   
     14.0340328        0.834089331E-2     0.932392299   
     14.0540533        0.815783348E-2     0.934017062   
     14.0740728        0.799020100E-2     0.935607791   
     14.0940943        0.783734769E-2     0.937167466   
     14.1141138        0.769878086E-2     0.938698709   
     14.1341333        0.757407164E-2     0.940204203   
     14.1541538        0.746289128E-2     0.941686690   
     14.1741734        0.736503024E-2     0.943148375   
     14.1941929        0.728034368E-2     0.944591939   
     14.2142134        0.720878644E-2     0.946020007   
     14.2342329        0.715042744E-2     0.947434723   
     14.2542543        0.710541243E-2     0.948838830   
     14.2742739        0.707402267E-2     0.950234592   
     14.2942934        0.705663487E-2     0.951624691   
     14.3143139        0.705375802E-2     0.953011870   
     14.3343334        0.706604542E-2     0.954398632   
     14.3543530        0.709430827E-2     0.955787778   
     14.3743744        0.713953981E-2     0.957182527   
     14.3943930        0.720293028E-2     0.958585739   
     14.4144125        0.728591532E-2     0.960000813   
     14.4344339        0.739022112E-2     0.961431384   
     14.4544535        0.751786958E-2     0.962881148   
     14.4744740        0.767131196E-2     0.964354396   
     14.4944935        0.785341952E-2     0.965855479   
     14.5145130        0.806766562E-2     0.967389464   
     14.5345345        0.831821468E-2     0.968961835   
     14.5545540        0.860999431E-2     0.970578492   
     14.5745735        0.894904044E-2     0.972246110   
     14.5945940        0.934266858E-2     0.973972440   
     14.6146135        0.979971047E-2     0.975765467   
     14.6346350        0.103311688E-1     0.977634788   
     14.6546535        0.109504629E-1     0.979590476   
     14.6746731        0.116744749E-1     0.981644273   
     14.6946945        0.125244213E-1     0.983809173   
     14.7147141        0.135269677E-1     0.986098707   
     14.7347336        0.147164203E-1     0.988528013   
     14.7547541        0.161370616E-1     0.991112411   
     14.7747736        0.178460702E-1     0.993865609   
     14.7947950        0.199189391E-1     0.996798694   
     14.8148146        0.224543232E-1     0.999913454   
     14.8348331        0.255827382E-1      1.00319541   
     14.8548546        0.294749551E-1      1.00659716   
     14.8748741        0.343477987E-1      1.01001036   
     14.8948936        0.404634885E-1      1.01321936   
     14.9149141        0.480972305E-1      1.01582909   
     14.9349337        0.574322902E-1      1.01717365   
     14.9549532        0.683293194E-1      1.01627254   
     14.9749746        0.799496621E-1      1.01200831   
     14.9949942        0.905022398E-1      1.00378633   
     15.0150146        0.978047177E-1     0.992491841   
     15.0350342        0.100849785        0.980578005   
     15.0550537        0.100839734        0.970407426   
     15.0750751        0.100148275        0.962458313   
     15.0950937        0.100384377        0.955282807   
     15.1151133        0.101308003        0.946814179   
     15.1351347        0.100970082        0.935968757   
     15.1551542        0.970734656E-1     0.923760593   
     15.1751747        0.889077932E-1     0.912800789   
     15.1951942        0.779219270E-1     0.905297518   
     15.2152138        0.663537160E-1     0.901734471   
     15.2352352        0.558064133E-1     0.901293039   
     15.2552547        0.469347648E-1     0.902819157   
     15.2752733        0.397613831E-1     0.905366540   
     15.2952948        0.340283364E-1     0.908316016   
     15.3153143        0.294059087E-1     0.911328673   
     15.3353357        0.256023016E-1     0.914268434   
     15.3553543        0.224200748E-1     0.917107582   
     15.3753738        0.197439995E-1     0.919844210   
     15.3953953        0.174985919E-1     0.922467053   
     15.4154148        0.156188598E-1     0.924958825   
     15.4354343        0.140430517E-1     0.927308619   
     15.4554548        0.127160931E-1     0.929514170   
     15.4754744        0.115919393E-1     0.931579649   
     15.4954939        0.106329676E-1     0.933513761   
     15.5155153        0.980924722E-2     0.935327113   
     15.5355339        0.909724645E-2     0.937030077   
     15.5555553        0.847807340E-2     0.938633323   
     15.5755749        0.793686323E-2     0.940146387   
     15.5955944        0.746155530E-2     0.941578209   
     15.6156149        0.704242522E-2     0.942937076   
     15.6356344        0.667165546E-2     0.944230020   
     15.6556540        0.634276262E-2     0.945463598   
     15.6756754        0.605042418E-2     0.946643949   
     15.6956949        0.579031324E-2     0.947776079   
     15.7157154        0.555876596E-2     0.948864996   
     15.7357349        0.535282027E-2     0.949914932   
     15.7557545        0.516997557E-2     0.950929940   
     15.7757759        0.500818109E-2     0.951913834   
     15.7957945        0.486579444E-2     0.952869833   
     15.8158140        0.474146940E-2     0.953801215   
     15.8358355        0.463415124E-2     0.954711080   
     15.8558550        0.454308931E-2     0.955602169   
     15.8758755        0.446774671E-2     0.956477284   
     15.8958950        0.440786313E-2     0.957339048   
     15.9159145        0.436340645E-2     0.958190143   
     15.9359360        0.433460809E-2     0.959033251   
     15.9559555        0.432198308E-2     0.959870934   
     15.9759741        0.432634633E-2     0.960705936   
     15.9959955        0.434887642E-2     0.961541116   
     16.0160141        0.439115707E-2     0.962379336   
     16.0360336        0.445528235E-2     0.963223696   
     16.0560551        0.454396615E-2     0.964077592   
     16.0760746        0.466066599E-2     0.964944482   
     16.0960960        0.480984384E-2     0.965828359   
     16.1161156        0.499716168E-2     0.966733098   
     16.1361351        0.522993738E-2     0.967663407   
     16.1561565        0.551761827E-2     0.968623877   
     16.1761761        0.587239908E-2     0.969619215   
     16.1961937        0.631029205E-2     0.970654011   
     16.2162151        0.685237488E-2     0.971732140   
     16.2362347        0.752634648E-2     0.972855091   
     16.2562561        0.836910494E-2     0.974020541   
     16.2762756        0.942898728E-2     0.975217819   
     16.2962952        0.107690413E-1     0.976421773   
     16.3163166        0.124685764E-1     0.977581084   
     16.3363361        0.146202240E-1     0.978599310   
     16.3563557        0.173167065E-1     0.979307115   
     16.3763752        0.206078663E-1     0.979424894   
     16.3963947        0.244001076E-1     0.978543401   
     16.4164143        0.282960217E-1     0.976200163   
     16.4364357        0.314826109E-1     0.972158909   
     16.4564552        0.329506584E-1     0.966822684   
     16.4764767        0.321351103E-1     0.961303294   
     16.4964962        0.293757152E-1     0.956817806   
     16.5165157        0.256169979E-1     0.953980207   
     16.5365353        0.217587166E-1     0.952709138   
     16.5565548        0.183215998E-1     0.952583492   
     16.5765743        0.154813072E-1     0.953166127   
     16.5965958        0.132242832E-1     0.954134822   
     16.6166153        0.114671364E-1     0.955286622   
     16.6366367        0.101157352E-1     0.956505418   
     16.6566563        0.908909459E-2     0.957728148   
     16.6766758        0.832374394E-2     0.958922863   
     16.6966972        0.777309807E-2     0.960074544   
     16.7167149        0.740570249E-2     0.961177170   
     16.7367344        0.720433705E-2     0.962228000   
     16.7567558        0.716515211E-2     0.963220119   
     16.7767754        0.729350327E-2     0.964134216   
     16.7967968        0.759566715E-2     0.964931130   
     16.8168163        0.806349795E-2     0.965545475   
     16.8368359        0.864738692E-2     0.965888619   
     16.8568573        0.922246091E-2     0.965880811   
     16.8768768        0.958740432E-2     0.965528011   
     16.8968945        0.955537427E-2     0.964992583   
     16.9169159        0.909615774E-2     0.964541495   
     16.9369354        0.836156774E-2     0.964378357   
     16.9569550        0.755760446E-2     0.964547992   
     16.9769764        0.682788482E-2     0.964984894   
     16.9969959        0.623409450E-2     0.965597630   
     17.0170174        0.578610413E-2     0.966313481   
     17.0370369        0.547269452E-2     0.967085779   
     17.0570564        0.527825579E-2     0.967888892   
     17.0770760        0.519011635E-2     0.968710542   
     17.0970955        0.520094251E-2     0.969546020   
     17.1171150        0.530935358E-2     0.970395088   
     17.1371365        0.552028418E-2     0.971259356   
     17.1571560        0.584544614E-2     0.972140193   
     17.1771774        0.630448153E-2     0.973037243   
     17.1971970        0.692632422E-2     0.973944783   
     17.2172165        0.775132002E-2     0.974848032   
     17.2372360        0.883266795E-2     0.975714326   
     17.2572556        0.102348188E-1     0.976479769   
     17.2772751        0.120242964E-1     0.977028847   
     17.2972965        0.142393950E-1     0.977167547   
     17.3173161        0.168204270E-1     0.976608634   
     17.3373375        0.194969289E-1     0.975020826   
     17.3573570        0.216980875E-1     0.972220719   
     17.3773766        0.226933938E-1     0.968476176   
     17.3973980        0.220575444E-1     0.964586914   
     17.4174156        0.200391170E-1     0.961443365   
     17.4374352        0.173371341E-1     0.959477663   
     17.4574566        0.145962536E-1     0.958604038   
     17.4774761        0.121681727E-1     0.958505929   
     17.4974957        0.101580434E-1     0.958873332   
     17.5175171        0.854479522E-2     0.959485233   
     17.5375366        0.726427510E-2     0.960205555   
     17.5575581        0.624754885E-2     0.960957408   
     17.5775776        0.543559529E-2     0.961700022   
     17.5975952        0.478136726E-2     0.962413251   
     17.6176167        0.424885144E-2     0.963088572   
     17.6376362        0.381094241E-2     0.963723361   
     17.6576557        0.344708329E-2     0.964318395   
     17.6776772        0.314173568E-2     0.964875937   
     17.6976967        0.288313068E-2     0.965398729   
     17.7177181        0.266215089E-2     0.965889812   
     17.7377377        0.247180299E-2     0.966352105   
     17.7577572        0.230657309E-2     0.966788292   
     17.7777767        0.216211542E-2     0.967201054   
     17.7977962        0.203500525E-2     0.967592418   
     17.8178158        0.192246074E-2     0.967964411   
     17.8378372        0.182223541E-2     0.968318999   
     17.8578568        0.173251843E-2     0.968657494   
     17.8778782        0.165179616E-2     0.968981504   
     17.8978977        0.157884066E-2     0.969292164   
     17.9179173        0.151261268E-2     0.969590604   
     17.9379368        0.145224307E-2     0.969877779   
     17.9579563        0.139701169E-2     0.970154583   
     17.9779758        0.134629675E-2     0.970421791   
     17.9979973        0.129956915E-2     0.970680118   
     18.0180168        0.125638547E-2     0.970930219   
     18.0380363        0.121635513E-2     0.971172571   
     18.0580578        0.117914076E-2     0.971407771   
     18.0780773        0.114445842E-2     0.971636176   
     18.0980968        0.111204991E-2     0.971858382   
     18.1181164        0.108169846E-2     0.972074568   
     18.1381359        0.105320872E-2     0.972285271   
     18.1581573        0.102640770E-2     0.972490668   
     18.1781769        0.100114790E-2     0.972691119   
     18.1981964        0.977294054E-3     0.972886801   
     18.2182178        0.954725081E-3     0.973078132   
     18.2382374        0.933338888E-3     0.973265171   
     18.2582588        0.913036871E-3     0.973448217   
     18.2782784        0.893737655E-3     0.973627448   
     18.2982960        0.875362603E-3     0.973803043   
     18.3183174        0.857841631E-3     0.973975122   
     18.3383369        0.841115543E-3     0.974143863   
     18.3583565        0.825126306E-3     0.974309444   
     18.3783779        0.809821475E-3     0.974471986   
     18.3983974        0.795157568E-3     0.974631608   
     18.4184189        0.781089358E-3     0.974788427   
     18.4384384        0.767580641E-3     0.974942505   
     18.4584579        0.754594861E-3     0.975094020   
     18.4784775        0.742098608E-3     0.975243032   
     18.4984970        0.730064232E-3     0.975389659   
     18.5185165        0.718463212E-3     0.975533903   
     18.5385380        0.707269821E-3     0.975675941   
     18.5585575        0.696462404E-3     0.975815833   
     18.5785770        0.686018670E-3     0.975953639   
     18.5985985        0.675917778E-3     0.976089418   
     18.6186180        0.666143140E-3     0.976223171   
     18.6386375        0.656676013E-3     0.976355135   
     18.6586571        0.647502253E-3     0.976485193   
     18.6786766        0.638605969E-3     0.976613462   
     18.6986980        0.629973365E-3     0.976740003   
     18.7187176        0.621592510E-3     0.976864874   
     18.7387371        0.613451062E-3     0.976988077   
     18.7587585        0.605536858E-3     0.977109730   
     18.7787781        0.597841048E-3     0.977229834   
     18.7987976        0.590352516E-3     0.977348447   
     18.8188171        0.583062938E-3     0.977465570   
     18.8388367        0.575963641E-3     0.977581263   
     18.8588581        0.569045777E-3     0.977695584   
     18.8788776        0.562302535E-3     0.977808535   
     18.8988972        0.555726641E-3     0.977920175   
     18.9189186        0.549310294E-3     0.978030562   
     18.9389381        0.543048722E-3     0.978139639   
     18.9589596        0.536934531E-3     0.978247464   
     18.9789772        0.530963123E-3     0.978354156   
     18.9989967        0.525128678E-3     0.978459656   
     19.0190182        0.519425608E-3     0.978563964   
     19.0390377        0.513850013E-3     0.978667200   
     19.0590572        0.508396770E-3     0.978769302   
     19.0790787        0.503061456E-3     0.978870392   
     19.0990982        0.497840345E-3     0.978970408   
     19.1191177        0.492729654E-3     0.979069352   
     19.1391392        0.487724930E-3     0.979167342   
     19.1591587        0.482823409E-3     0.979264319   
     19.1791782        0.478021422E-3     0.979360342   
     19.1991978        0.473316031E-3     0.979455352   
     19.2192173        0.468704005E-3     0.979549527   
     19.2392387        0.464182260E-3     0.979642749   
     19.2592583        0.459748466E-3     0.979735076   
     19.2792778        0.455400033E-3     0.979826570   
     19.2992992        0.451133907E-3     0.979917169   
     19.3193188        0.446948281E-3     0.980006933   
     19.3393383        0.442840537E-3     0.980095863   
     19.3593578        0.438808958E-3     0.980184019   
     19.3793774        0.434851157E-3     0.980271339   
     19.3993988        0.430964865E-3     0.980357885   
     19.4194183        0.427148771E-3     0.980443656   
     19.4394379        0.423400983E-3     0.980528712   
     19.4594593        0.419719319E-3     0.980612993   
     19.4794788        0.416102790E-3     0.980696499   
     19.4994984        0.412549649E-3     0.980779350   
     19.5195179        0.409057917E-3     0.980861485   
     19.5395374        0.405626954E-3     0.980942965   
     19.5595589        0.402254809E-3     0.981023729   
     19.5795784        0.398940727E-3     0.981103837   
     19.5995979        0.395683252E-3     0.981183290   
     19.6196194        0.392480957E-3     0.981262088   
     19.6396389        0.389333261E-3     0.981340230   
     19.6596584        0.386239059E-3     0.981417775   
     19.6796780        0.383196922E-3     0.981494725   
     19.6996975        0.380206591E-3     0.981571078   
     19.7197189        0.377266842E-3     0.981646776   
     19.7397385        0.374377123E-3     0.981721938   
     19.7597580        0.371536589E-3     0.981796563   
     19.7797794        0.368744397E-3     0.981870532   
     19.7997990        0.366000429E-3     0.981944025   
     19.8198185        0.363303814E-3     0.982016981   
     19.8398399        0.360654056E-3     0.982089341   
     19.8598595        0.358051126E-3     0.982161224   
     19.8798790        0.355494150E-3     0.982232571   
     19.8998985        0.352983450E-3     0.982303381   
     19.9199181        0.350518647E-3     0.982373714   
     19.9399395        0.348099391E-3     0.982443571   
     19.9599590        0.345726177E-3     0.982512951   
     19.9799786        0.343398744E-3     0.982581854   
     20.0000000        0.341117266E-3     0.982650280   
# 
# 04/09/2020 at 12:13 yambo @ narro [start]
# 04/09/2020 at 12:13               [end]
#
# .-Input file  yambo.in
# | optics                         # [R] Linear Response optical properties
# | dipoles                        # [R] Oscillator strenghts (or dipoles)
# | chi                            # [R][CHI] Dyson equation for Chi.
# | ElecTemp= 0.025869     eV      # Electronic Temperature
# | BoseTemp= 0.025861     eV      # Bosonic Temperature
# | FFTGvecs=  9999        RL      # [FFT] Plane-waves
# | DIP_Threads= 1                 # [OPENMP/X] Number of threads for dipoles
# | X_Threads= 1                   # [OPENMP/X] Number of threads for response functions
# | Chimod= "IP"                   # [X] IP/Hartree/ALDA/LRC/PF/BSfxc
# | % QpntsRXd
# |  1 | 1 |                       # [Xd] Transferred momenta
# | %
# | % BndsRnXd
# |   1 | 19 |                     # [Xd] Polarization function bands
# | %
# | GrFnTpXd= "R"                  # [Xd] Green`s function (T)ordered,(R)etarded,(r)senant,(a)ntiresonant [T, R, r, Ta, Ra]
# | % EnRngeXd
# |   0.00000 | 20.00000 | eV      # [Xd] Energy range
# | %
# | % DmRngeXd
# |  0.100000 | 0.100000 | eV      # [Xd] Damping range
# | %
# | ETStpsXd= 1000                 # [Xd] Total Energy steps
# | % LongDrXd
# |  0.100000E-4 |  0.00000    |  0.00000    # [Xd] [cc] Electric Field
# | %
# | XfnQPdb= "E < 02_QP_PPA/ndb.QP ubi" # [EXTQP Xd] Database action
