#                                                                     
# ooooo   oooo ..     ooo        ooo ooooooooo.    .oooo.             
#  `88.   .8" .88.    `88.       .88 `88"   `Y8b  dP"  `Yb            
#   `88. .8" .8"88.    888b     d"88  88     888 88      88           
#    `88.8" .8" `88.   8 Y88. .P  88  88oooo888" 88      88           
#     `88" .88ooo888.  8  `888"   88  88    `88b 88      88           
#      88 .8"     `88. 8    Y     88  88    .88P `8b    d8"           
#     o88o88o      888o8          88 o88bood8P"   `Ybod8P"            
#                                                                     
#                                                                     
#        Version 5.0.1 Revision 19034 Hash 9840da05f                  
#                  Branch is devel-magnons                            
#          MPI+OpenMP+SLK+SLEPC+HDF5_MPI_IO Build                     
#                 http://www.yambo-code.org                           
#
# Absorption @ Q(1)                 q->0 direction:  0.100000000E-4   0.00000000      0.00000000   
#
# [GEN] GF Energies                               : Perdew, Burke & Ernzerhof(X)+Perdew, Burke & Ernzerhof(C)
# [GEN] Wavefunctions                             : Perdew, Burke & Ernzerhof(X)+Perdew, Burke & Ernzerhof(C)
# [GEN] Green`s Function                          : Resonant
# [GEN] Gauge                                     : Length
# [GEN] [r,Vnl] included                          : yes
#
#
# [K] Identifier                                  :   471
# [K] Dimension                                   :  22
# [K] Bands                                       :  12  18
# [K] Exchange                                    : yes
# [K] Correlation                                 : no
# [K] Kernel`s coupling                           : no
# [K] Exchange                                    : no
# [K] Correlation                                 : no
# [K] W interaction is bare                       : no
# [K] ALDA kernel in R-space                      : yes
# [K] RL vectors                                  :  2003 [exchange]
# [K] E/h energy range                            :  -1.00000000     -1.00000000    [ev]
# [K] Coupling range                              :   100.000000      100.000000    [o/o]
#
#    Diamagnetic term
#    A [nel]            A0[nel]
#:     0.00000000        -29.8940026   
#
#    E/ev[1]            EPS-Im[2]          EPS-Re[3]          EPSo-Im[4]         EPSo-Re[5]
#
    -10.0000000        0.358881186E-4      1.00649168        0.587848174E-4      1.00884098   
    -9.99000000        0.359278402E-4      1.00649527        0.588640296E-4      1.00884686   
    -9.98000000        0.359676278E-4      1.00649886        0.589434045E-4      1.00885275   
    -9.97000000        0.360074815E-4      1.00650246        0.590229426E-4      1.00885865   
    -9.96000000        0.360474016E-4      1.00650607        0.591026442E-4      1.00886455   
    -9.95000000        0.360873881E-4      1.00650967        0.591825100E-4      1.00887047   
    -9.94000000        0.361274412E-4      1.00651328        0.592625403E-4      1.00887639   
    -9.93000000        0.361675610E-4      1.00651690        0.593427356E-4      1.00888232   
    -9.92000000        0.362077477E-4      1.00652052        0.594230963E-4      1.00888825   
    -9.91000000        0.362480014E-4      1.00652414        0.595036230E-4      1.00889420   
    -9.90000000        0.362883223E-4      1.00652776        0.595843160E-4      1.00890015   
    -9.89000000        0.363287106E-4      1.00653140        0.596651759E-4      1.00890612   
    -9.88000000        0.363691663E-4      1.00653503        0.597462031E-4      1.00891209   
    -9.87000000        0.364096897E-4      1.00653867        0.598273981E-4      1.00891806   
    -9.86000000        0.364502808E-4      1.00654231        0.599087614E-4      1.00892405   
    -9.85000000        0.364909399E-4      1.00654596        0.599902934E-4      1.00893004   
    -9.84000000        0.365316671E-4      1.00654961        0.600719947E-4      1.00893605   
    -9.83000000        0.365724625E-4      1.00655326        0.601538656E-4      1.00894206   
    -9.82000000        0.366133263E-4      1.00655692        0.602359067E-4      1.00894808   
    -9.81000000        0.366542587E-4      1.00656059        0.603181185E-4      1.00895410   
    -9.80000000        0.366952597E-4      1.00656425        0.604005014E-4      1.00896014   
    -9.79000000        0.367363296E-4      1.00656793        0.604830559E-4      1.00896618   
    -9.78000000        0.367774685E-4      1.00657160        0.605657826E-4      1.00897223   
    -9.77000000        0.368186766E-4      1.00657528        0.606486818E-4      1.00897829   
    -9.76000000        0.368599540E-4      1.00657896        0.607317541E-4      1.00898436   
    -9.75000000        0.369013008E-4      1.00658265        0.608150000E-4      1.00899044   
    -9.74000000        0.369427173E-4      1.00658634        0.608984200E-4      1.00899653   
    -9.73000000        0.369842036E-4      1.00659004        0.609820146E-4      1.00900262   
    -9.72000000        0.370257598E-4      1.00659374        0.610657842E-4      1.00900872   
    -9.71000000        0.370673861E-4      1.00659744        0.611497294E-4      1.00901483   
    -9.70000000        0.371090827E-4      1.00660115        0.612338506E-4      1.00902095   
    -9.69000000        0.371508497E-4      1.00660487        0.613181485E-4      1.00902708   
    -9.68000000        0.371926872E-4      1.00660858        0.614026234E-4      1.00903321   
    -9.67000000        0.372345955E-4      1.00661230        0.614872758E-4      1.00903936   
    -9.66000000        0.372765747E-4      1.00661603        0.615721064E-4      1.00904551   
    -9.65000000        0.373186249E-4      1.00661976        0.616571156E-4      1.00905167   
    -9.64000000        0.373607464E-4      1.00662349        0.617423039E-4      1.00905784   
    -9.63000000        0.374029392E-4      1.00662723        0.618276718E-4      1.00906402   
    -9.62000000        0.374452036E-4      1.00663097        0.619132198E-4      1.00907020   
    -9.61000000        0.374875396E-4      1.00663472        0.619989486E-4      1.00907640   
    -9.60000000        0.375299475E-4      1.00663847        0.620848585E-4      1.00908260   
    -9.59000000        0.375724275E-4      1.00664222        0.621709500E-4      1.00908881   
    -9.58000000        0.376149796E-4      1.00664598        0.622572239E-4      1.00909503   
    -9.57000000        0.376576041E-4      1.00664975        0.623436804E-4      1.00910126   
    -9.56000000        0.377003010E-4      1.00665351        0.624303203E-4      1.00910750   
    -9.55000000        0.377430707E-4      1.00665729        0.625171439E-4      1.00911375   
    -9.54000000        0.377859132E-4      1.00666106        0.626041519E-4      1.00912000   
    -9.53000000        0.378288287E-4      1.00666484        0.626913448E-4      1.00912627   
    -9.52000000        0.378718174E-4      1.00666863        0.627787230E-4      1.00913254   
    -9.51000000        0.379148794E-4      1.00667242        0.628662872E-4      1.00913882   
    -9.50000000        0.379580150E-4      1.00667621        0.629540379E-4      1.00914511   
    -9.49000000        0.380012242E-4      1.00668001        0.630419756E-4      1.00915141   
    -9.48000000        0.380445073E-4      1.00668381        0.631301009E-4      1.00915772   
    -9.47000000        0.380878643E-4      1.00668762        0.632184143E-4      1.00916404   
    -9.46000000        0.381312956E-4      1.00669143        0.633069164E-4      1.00917036   
    -9.45000000        0.381748012E-4      1.00669524        0.633956076E-4      1.00917670   
    -9.44000000        0.382183813E-4      1.00669906        0.634844887E-4      1.00918304   
    -9.43000000        0.382620361E-4      1.00670289        0.635735600E-4      1.00918939   
    -9.42000000        0.383057658E-4      1.00670671        0.636628222E-4      1.00919575   
    -9.41000000        0.383495705E-4      1.00671055        0.637522758E-4      1.00920212   
    -9.40000000        0.383934504E-4      1.00671438        0.638419214E-4      1.00920850   
    -9.39000000        0.384374057E-4      1.00671822        0.639317596E-4      1.00921489   
    -9.38000000        0.384814365E-4      1.00672207        0.640217909E-4      1.00922129   
    -9.37000000        0.385255431E-4      1.00672592        0.641120158E-4      1.00922769   
    -9.36000000        0.385697255E-4      1.00672977        0.642024350E-4      1.00923411   
    -9.35000000        0.386139840E-4      1.00673363        0.642930490E-4      1.00924053   
    -9.34000000        0.386583188E-4      1.00673750        0.643838584E-4      1.00924697   
    -9.33000000        0.387027300E-4      1.00674136        0.644748638E-4      1.00925341   
    -9.32000000        0.387472178E-4      1.00674524        0.645660657E-4      1.00925986   
    -9.31000000        0.387917824E-4      1.00674911        0.646574647E-4      1.00926632   
    -9.30000000        0.388364239E-4      1.00675299        0.647490615E-4      1.00927279   
    -9.29000000        0.388811425E-4      1.00675688        0.648408565E-4      1.00927927   
    -9.28000000        0.389259384E-4      1.00676077        0.649328504E-4      1.00928576   
    -9.27000000        0.389708119E-4      1.00676467        0.650250437E-4      1.00929225   
    -9.26000000        0.390157630E-4      1.00676856        0.651174371E-4      1.00929876   
    -9.25000000        0.390607919E-4      1.00677247        0.652100311E-4      1.00930528   
    -9.24000000        0.391058988E-4      1.00677638        0.653028264E-4      1.00931180   
    -9.23000000        0.391510840E-4      1.00678029        0.653958234E-4      1.00931834   
    -9.22000000        0.391963475E-4      1.00678421        0.654890230E-4      1.00932488   
    -9.21000000        0.392416896E-4      1.00678813        0.655824255E-4      1.00933143   
    -9.20000000        0.392871105E-4      1.00679205        0.656760317E-4      1.00933799   
    -9.19000000        0.393326103E-4      1.00679598        0.657698421E-4      1.00934457   
    -9.18000000        0.393781892E-4      1.00679992        0.658638574E-4      1.00935115   
    -9.17000000        0.394238473E-4      1.00680386        0.659580781E-4      1.00935774   
    -9.16000000        0.394695850E-4      1.00680780        0.660525049E-4      1.00936434   
    -9.15000000        0.395154023E-4      1.00681175        0.661471384E-4      1.00937095   
    -9.14000000        0.395612995E-4      1.00681571        0.662419791E-4      1.00937757   
    -9.13000000        0.396072767E-4      1.00681966        0.663370279E-4      1.00938419   
    -9.12000000        0.396533342E-4      1.00682363        0.664322851E-4      1.00939083   
    -9.11000000        0.396994720E-4      1.00682759        0.665277515E-4      1.00939748   
    -9.10000000        0.397456904E-4      1.00683157        0.666234278E-4      1.00940414   
    -9.09000000        0.397919897E-4      1.00683554        0.667193144E-4      1.00941080   
    -9.08000000        0.398383698E-4      1.00683952        0.668154121E-4      1.00941748   
    -9.07000000        0.398848312E-4      1.00684351        0.669117216E-4      1.00942416   
    -9.06000000        0.399313739E-4      1.00684750        0.670082433E-4      1.00943086   
    -9.05000000        0.399779981E-4      1.00685150        0.671049780E-4      1.00943756   
    -9.04000000        0.400247041E-4      1.00685550        0.672019263E-4      1.00944428   
    -9.03000000        0.400714920E-4      1.00685950        0.672990889E-4      1.00945100   
    -9.02000000        0.401183620E-4      1.00686351        0.673964664E-4      1.00945774   
    -9.01000000        0.401653144E-4      1.00686752        0.674940594E-4      1.00946448   
    -9.00000000        0.402123492E-4      1.00687154        0.675918687E-4      1.00947123   
    -8.99000000        0.402594667E-4      1.00687557        0.676898948E-4      1.00947800   
    -8.98000000        0.403066671E-4      1.00687959        0.677881384E-4      1.00948477   
    -8.97000000        0.403539506E-4      1.00688363        0.678866002E-4      1.00949155   
    -8.96000000        0.404013173E-4      1.00688766        0.679852808E-4      1.00949835   
    -8.95000000        0.404487675E-4      1.00689171        0.680841810E-4      1.00950515   
    -8.94000000        0.404963014E-4      1.00689575        0.681833013E-4      1.00951196   
    -8.93000000        0.405439192E-4      1.00689980        0.682826424E-4      1.00951878   
    -8.92000000        0.405916210E-4      1.00690386        0.683822051E-4      1.00952562   
    -8.91000000        0.406394071E-4      1.00690792        0.684819899E-4      1.00953246   
    -8.90000000        0.406872777E-4      1.00691199        0.685819976E-4      1.00953931   
    -8.89000000        0.407352329E-4      1.00691606        0.686822289E-4      1.00954617   
    -8.88000000        0.407832729E-4      1.00692013        0.687826844E-4      1.00955305   
    -8.87000000        0.408313980E-4      1.00692422        0.688833648E-4      1.00955993   
    -8.86000000        0.408796084E-4      1.00692830        0.689842708E-4      1.00956682   
    -8.85000000        0.409279043E-4      1.00693239        0.690854031E-4      1.00957372   
    -8.84000000        0.409762858E-4      1.00693649        0.691867623E-4      1.00958064   
    -8.83000000        0.410247532E-4      1.00694059        0.692883493E-4      1.00958756   
    -8.82000000        0.410733066E-4      1.00694469        0.693901647E-4      1.00959449   
    -8.81000000        0.411219463E-4      1.00694880        0.694922091E-4      1.00960144   
    -8.80000000        0.411706725E-4      1.00695291        0.695944833E-4      1.00960839   
    -8.79000000        0.412194854E-4      1.00695703        0.696969881E-4      1.00961535   
    -8.78000000        0.412683852E-4      1.00696116        0.697997240E-4      1.00962233   
    -8.77000000        0.413173720E-4      1.00696529        0.699026919E-4      1.00962931   
    -8.76000000        0.413664462E-4      1.00696942        0.700058924E-4      1.00963631   
    -8.75000000        0.414156079E-4      1.00697356        0.701093262E-4      1.00964331   
    -8.74000000        0.414648573E-4      1.00697770        0.702129942E-4      1.00965033   
    -8.73000000        0.415141946E-4      1.00698185        0.703168969E-4      1.00965735   
    -8.72000000        0.415636201E-4      1.00698600        0.704210352E-4      1.00966439   
    -8.71000000        0.416131339E-4      1.00699016        0.705254097E-4      1.00967144   
    -8.70000000        0.416627363E-4      1.00699433        0.706300213E-4      1.00967849   
    -8.69000000        0.417124274E-4      1.00699850        0.707348705E-4      1.00968556   
    -8.68000000        0.417622076E-4      1.00700267        0.708399583E-4      1.00969264   
    -8.67000000        0.418120769E-4      1.00700685        0.709452853E-4      1.00969973   
    -8.66000000        0.418620356E-4      1.00701103        0.710508522E-4      1.00970683   
    -8.65000000        0.419120839E-4      1.00701522        0.711566598E-4      1.00971394   
    -8.64000000        0.419622221E-4      1.00701941        0.712627089E-4      1.00972106   
    -8.63000000        0.420124504E-4      1.00702361        0.713690002E-4      1.00972819   
    -8.62000000        0.420627689E-4      1.00702781        0.714755345E-4      1.00973533   
    -8.61000000        0.421131779E-4      1.00703202        0.715823125E-4      1.00974248   
    -8.60000000        0.421636775E-4      1.00703624        0.716893350E-4      1.00974964   
    -8.59000000        0.422142682E-4      1.00704045        0.717966028E-4      1.00975682   
    -8.58000000        0.422649499E-4      1.00704468        0.719041166E-4      1.00976400   
    -8.57000000        0.423157230E-4      1.00704891        0.720118772E-4      1.00977120   
    -8.56000000        0.423665877E-4      1.00705314        0.721198854E-4      1.00977840   
    -8.55000000        0.424175442E-4      1.00705738        0.722281420E-4      1.00978562   
    -8.54000000        0.424685926E-4      1.00706162        0.723366477E-4      1.00979285   
    -8.53000000        0.425197334E-4      1.00706587        0.724454033E-4      1.00980008   
    -8.52000000        0.425709666E-4      1.00707013        0.725544097E-4      1.00980733   
    -8.51000000        0.426222925E-4      1.00707439        0.726636676E-4      1.00981459   
    -8.50000000        0.426737112E-4      1.00707865        0.727731777E-4      1.00982186   
    -8.49000000        0.427252232E-4      1.00708292        0.728829410E-4      1.00982915   
    -8.48000000        0.427768284E-4      1.00708720        0.729929582E-4      1.00983644   
    -8.47000000        0.428285273E-4      1.00709148        0.731032301E-4      1.00984374   
    -8.46000000        0.428803200E-4      1.00709576        0.732137575E-4      1.00985106   
    -8.45000000        0.429322067E-4      1.00710005        0.733245412E-4      1.00985838   
    -8.44000000        0.429841877E-4      1.00710435        0.734355821E-4      1.00986572   
    -8.43000000        0.430362631E-4      1.00710865        0.735468809E-4      1.00987307   
    -8.42000000        0.430884333E-4      1.00711295        0.736584386E-4      1.00988043   
    -8.41000000        0.431406985E-4      1.00711726        0.737702558E-4      1.00988780   
    -8.40000000        0.431930588E-4      1.00712158        0.738823335E-4      1.00989518   
    -8.39000000        0.432455146E-4      1.00712590        0.739946724E-4      1.00990257   
    -8.38000000        0.432980660E-4      1.00713023        0.741072735E-4      1.00990998   
    -8.37000000        0.433507133E-4      1.00713456        0.742201375E-4      1.00991739   
    -8.36000000        0.434034567E-4      1.00713890        0.743332653E-4      1.00992482   
    -8.35000000        0.434562964E-4      1.00714324        0.744466577E-4      1.00993226   
    -8.34000000        0.435092327E-4      1.00714759        0.745603156E-4      1.00993971   
    -8.33000000        0.435622659E-4      1.00715194        0.746742398E-4      1.00994717   
    -8.32000000        0.436153961E-4      1.00715630        0.747884313E-4      1.00995464   
    -8.31000000        0.436686236E-4      1.00716066        0.749028907E-4      1.00996212   
    -8.30000000        0.437219486E-4      1.00716503        0.750176191E-4      1.00996962   
    -8.29000000        0.437753714E-4      1.00716941        0.751326173E-4      1.00997713   
    -8.28000000        0.438288922E-4      1.00717379        0.752478861E-4      1.00998464   
    -8.27000000        0.438825112E-4      1.00717817        0.753634265E-4      1.00999217   
    -8.26000000        0.439362287E-4      1.00718256        0.754792392E-4      1.00999972   
    -8.25000000        0.439900450E-4      1.00718696        0.755953253E-4      1.01000727   
    -8.24000000        0.440439602E-4      1.00719136        0.757116855E-4      1.01001483   
    -8.23000000        0.440979747E-4      1.00719577        0.758283207E-4      1.01002241   
    -8.22000000        0.441520886E-4      1.00720018        0.759452319E-4      1.01003000   
    -8.21000000        0.442063022E-4      1.00720460        0.760624200E-4      1.01003760   
    -8.20000000        0.442606158E-4      1.00720902        0.761798858E-4      1.01004521   
    -8.19000000        0.443150295E-4      1.00721345        0.762976303E-4      1.01005283   
    -8.18000000        0.443695437E-4      1.00721788        0.764156543E-4      1.01006046   
    -8.17000000        0.444241586E-4      1.00722232        0.765339588E-4      1.01006811   
    -8.16000000        0.444788744E-4      1.00722677        0.766525447E-4      1.01007577   
    -8.15000000        0.445336915E-4      1.00723122        0.767714128E-4      1.01008344   
    -8.14000000        0.445886099E-4      1.00723567        0.768905642E-4      1.01009112   
    -8.13000000        0.446436300E-4      1.00724014        0.770099998E-4      1.01009882   
    -8.12000000        0.446987521E-4      1.00724460        0.771297205E-4      1.01010652   
    -8.11000000        0.447539763E-4      1.00724907        0.772497272E-4      1.01011424   
    -8.10000000        0.448093030E-4      1.00725355        0.773700208E-4      1.01012197   
    -8.09000000        0.448647324E-4      1.00725804        0.774906023E-4      1.01012971   
    -8.08000000        0.449202648E-4      1.00726252        0.776114727E-4      1.01013747   
    -8.07000000        0.449759003E-4      1.00726702        0.777326329E-4      1.01014523   
    -8.06000000        0.450316393E-4      1.00727152        0.778540839E-4      1.01015301   
    -8.05000000        0.450874821E-4      1.00727602        0.779758266E-4      1.01016080   
    -8.04000000        0.451434288E-4      1.00728054        0.780978619E-4      1.01016860   
    -8.03000000        0.451994797E-4      1.00728505        0.782201909E-4      1.01017642   
    -8.02000000        0.452556351E-4      1.00728957        0.783428145E-4      1.01018425   
    -8.01000000        0.453118953E-4      1.00729410        0.784657338E-4      1.01019209   
    -8.00000000        0.453682605E-4      1.00729864        0.785889496E-4      1.01019994   
    -7.99000000        0.454247310E-4      1.00730318        0.787124629E-4      1.01020780   
    -7.98000000        0.454813070E-4      1.00730772        0.788362748E-4      1.01021568   
    -7.97000000        0.455379888E-4      1.00731227        0.789603862E-4      1.01022357   
    -7.96000000        0.455947767E-4      1.00731683        0.790847982E-4      1.01023147   
    -7.95000000        0.456516709E-4      1.00732139        0.792095117E-4      1.01023938   
    -7.94000000        0.457086717E-4      1.00732596        0.793345277E-4      1.01024731   
    -7.93000000        0.457657794E-4      1.00733053        0.794598474E-4      1.01025525   
    -7.92000000        0.458229942E-4      1.00733511        0.795854715E-4      1.01026320   
    -7.91000000        0.458803164E-4      1.00733969        0.797114013E-4      1.01027116   
    -7.90000000        0.459377463E-4      1.00734428        0.798376376E-4      1.01027914   
    -7.89000000        0.459952841E-4      1.00734888        0.799641816E-4      1.01028713   
    -7.88000000        0.460529301E-4      1.00735348        0.800910343E-4      1.01029513   
    -7.87000000        0.461106846E-4      1.00735809        0.802181967E-4      1.01030314   
    -7.86000000        0.461685478E-4      1.00736270        0.803456698E-4      1.01031117   
    -7.85000000        0.462265201E-4      1.00736732        0.804734547E-4      1.01031921   
    -7.84000000        0.462846017E-4      1.00737195        0.806015524E-4      1.01032726   
    -7.83000000        0.463427928E-4      1.00737658        0.807299641E-4      1.01033533   
    -7.82000000        0.464010938E-4      1.00738122        0.808586907E-4      1.01034341   
    -7.81000000        0.464595049E-4      1.00738586        0.809877333E-4      1.01035150   
    -7.80000000        0.465180265E-4      1.00739051        0.811170930E-4      1.01035960   
    -7.79000000        0.465766587E-4      1.00739516        0.812467709E-4      1.01036772   
    -7.78000000        0.466354019E-4      1.00739982        0.813767680E-4      1.01037585   
    -7.77000000        0.466942563E-4      1.00740449        0.815070854E-4      1.01038399   
    -7.76000000        0.467532222E-4      1.00740916        0.816377242E-4      1.01039215   
    -7.75000000        0.468123000E-4      1.00741384        0.817686856E-4      1.01040032   
    -7.74000000        0.468714898E-4      1.00741852        0.818999705E-4      1.01040850   
    -7.73000000        0.469307920E-4      1.00742321        0.820315801E-4      1.01041670   
    -7.72000000        0.469902069E-4      1.00742791        0.821635156E-4      1.01042490   
    -7.71000000        0.470497347E-4      1.00743261        0.822957779E-4      1.01043313   
    -7.70000000        0.471093758E-4      1.00743732        0.824283683E-4      1.01044136   
    -7.69000000        0.471691303E-4      1.00744203        0.825612879E-4      1.01044961   
    -7.68000000        0.472289987E-4      1.00744675        0.826945377E-4      1.01045787   
    -7.67000000        0.472889812E-4      1.00745148        0.828281190E-4      1.01046615   
    -7.66000000        0.473490780E-4      1.00745621        0.829620328E-4      1.01047444   
    -7.65000000        0.474092896E-4      1.00746094        0.830962803E-4      1.01048274   
    -7.64000000        0.474696161E-4      1.00746569        0.832308626E-4      1.01049105   
    -7.63000000        0.475300578E-4      1.00747044        0.833657809E-4      1.01049938   
    -7.62000000        0.475906152E-4      1.00747519        0.835010364E-4      1.01050772   
    -7.61000000        0.476512883E-4      1.00747996        0.836366302E-4      1.01051608   
    -7.60000000        0.477120777E-4      1.00748472        0.837725635E-4      1.01052445   
    -7.59000000        0.477729834E-4      1.00748950        0.839088374E-4      1.01053283   
    -7.58000000        0.478340059E-4      1.00749428        0.840454532E-4      1.01054123   
    -7.57000000        0.478951455E-4      1.00749906        0.841824119E-4      1.01054964   
    -7.56000000        0.479564024E-4      1.00750386        0.843197149E-4      1.01055806   
    -7.55000000        0.480177769E-4      1.00750865        0.844573633E-4      1.01056650   
    -7.54000000        0.480792694E-4      1.00751346        0.845953583E-4      1.01057495   
    -7.53000000        0.481408801E-4      1.00751827        0.847337010E-4      1.01058342   
    -7.52000000        0.482026093E-4      1.00752309        0.848723928E-4      1.01059190   
    -7.51000000        0.482644575E-4      1.00752791        0.850114348E-4      1.01060039   
    -7.50000000        0.483264247E-4      1.00753274        0.851508283E-4      1.01060890   
    -7.49000000        0.483885115E-4      1.00753757        0.852905744E-4      1.01061742   
    -7.48000000        0.484507180E-4      1.00754241        0.854306744E-4      1.01062595   
    -7.47000000        0.485130446E-4      1.00754726        0.855711296E-4      1.01063450   
    -7.46000000        0.485754915E-4      1.00755212        0.857119412E-4      1.01064306   
    -7.45000000        0.486380592E-4      1.00755698        0.858531104E-4      1.01065164   
    -7.44000000        0.487007479E-4      1.00756184        0.859946385E-4      1.01066023   
    -7.43000000        0.487635579E-4      1.00756672        0.861365268E-4      1.01066884   
    -7.42000000        0.488264896E-4      1.00757160        0.862787765E-4      1.01067746   
    -7.41000000        0.488895432E-4      1.00757648        0.864213888E-4      1.01068609   
    -7.40000000        0.489527191E-4      1.00758137        0.865643652E-4      1.01069474   
    -7.39000000        0.490160175E-4      1.00758627        0.867077068E-4      1.01070340   
    -7.38000000        0.490794389E-4      1.00759117        0.868514150E-4      1.01071208   
    -7.37000000        0.491429834E-4      1.00759609        0.869954910E-4      1.01072077   
    -7.36000000        0.492066516E-4      1.00760100        0.871399361E-4      1.01072947   
    -7.35000000        0.492704435E-4      1.00760593        0.872847517E-4      1.01073819   
    -7.34000000        0.493343597E-4      1.00761086        0.874299391E-4      1.01074693   
    -7.33000000        0.493984004E-4      1.00761579        0.875754995E-4      1.01075568   
    -7.32000000        0.494625658E-4      1.00762073        0.877214344E-4      1.01076444   
    -7.31000000        0.495268565E-4      1.00762568        0.878677450E-4      1.01077322   
    -7.30000000        0.495912726E-4      1.00763064        0.880144327E-4      1.01078201   
    -7.29000000        0.496558145E-4      1.00763560        0.881614988E-4      1.01079082   
    -7.28000000        0.497204826E-4      1.00764057        0.883089447E-4      1.01079964   
    -7.27000000        0.497852771E-4      1.00764554        0.884567718E-4      1.01080848   
    -7.26000000        0.498501984E-4      1.00765053        0.886049813E-4      1.01081733   
    -7.25000000        0.499152469E-4      1.00765551        0.887535747E-4      1.01082620   
    -7.24000000        0.499804228E-4      1.00766051        0.889025534E-4      1.01083508   
    -7.23000000        0.500457264E-4      1.00766551        0.890519187E-4      1.01084398   
    -7.22000000        0.501111583E-4      1.00767052        0.892016720E-4      1.01085289   
    -7.21000000        0.501767185E-4      1.00767553        0.893518147E-4      1.01086181   
    -7.20000000        0.502424076E-4      1.00768055        0.895023483E-4      1.01087075   
    -7.19000000        0.503082258E-4      1.00768558        0.896532741E-4      1.01087971   
    -7.18000000        0.503741735E-4      1.00769061        0.898045935E-4      1.01088868   
    -7.17000000        0.504402509E-4      1.00769565        0.899563080E-4      1.01089767   
    -7.16000000        0.505064586E-4      1.00770070        0.901084190E-4      1.01090667   
    -7.15000000        0.505727967E-4      1.00770575        0.902609279E-4      1.01091569   
    -7.14000000        0.506392657E-4      1.00771081        0.904138362E-4      1.01092472   
    -7.13000000        0.507058658E-4      1.00771588        0.905671453E-4      1.01093377   
    -7.12000000        0.507725975E-4      1.00772095        0.907208567E-4      1.01094283   
    -7.11000000        0.508394611E-4      1.00772603        0.908749718E-4      1.01095191   
    -7.10000000        0.509064569E-4      1.00773112        0.910294922E-4      1.01096100   
    -7.09000000        0.509735852E-4      1.00773621        0.911844192E-4      1.01097011   
    -7.08000000        0.510408465E-4      1.00774131        0.913397544E-4      1.01097924   
    -7.07000000        0.511082411E-4      1.00774642        0.914954993E-4      1.01098838   
    -7.06000000        0.511757692E-4      1.00775153        0.916516554E-4      1.01099753   
    -7.05000000        0.512434314E-4      1.00775665        0.918082241E-4      1.01100671   
    -7.04000000        0.513112279E-4      1.00776178        0.919652070E-4      1.01101589   
    -7.03000000        0.513791591E-4      1.00776692        0.921226056E-4      1.01102510   
    -7.02000000        0.514472253E-4      1.00777206        0.922804215E-4      1.01103431   
    -7.01000000        0.515154270E-4      1.00777720        0.924386561E-4      1.01104355   
    -7.00000000        0.515837644E-4      1.00778236        0.925973110E-4      1.01105280   
    -6.99000000        0.516522380E-4      1.00778752        0.927563878E-4      1.01106207   
    -6.98000000        0.517208480E-4      1.00779269        0.929158880E-4      1.01107135   
    -6.97000000        0.517895949E-4      1.00779786        0.930758132E-4      1.01108065   
    -6.96000000        0.518584790E-4      1.00780305        0.932361649E-4      1.01108996   
    -6.95000000        0.519275007E-4      1.00780823        0.933969448E-4      1.01109929   
    -6.94000000        0.519966603E-4      1.00781343        0.935581544E-4      1.01110864   
    -6.93000000        0.520659582E-4      1.00781863        0.937197953E-4      1.01111800   
    -6.92000000        0.521353949E-4      1.00782384        0.938818691E-4      1.01112738   
    -6.91000000        0.522049706E-4      1.00782906        0.940443775E-4      1.01113677   
    -6.90000000        0.522746857E-4      1.00783428        0.942073220E-4      1.01114618   
    -6.89000000        0.523445406E-4      1.00783951        0.943707043E-4      1.01115561   
    -6.88000000        0.524145357E-4      1.00784475        0.945345260E-4      1.01116506   
    -6.87000000        0.524846714E-4      1.00784999        0.946987887E-4      1.01117452   
    -6.86000000        0.525549480E-4      1.00785525        0.948634942E-4      1.01118399   
    -6.85000000        0.526253659E-4      1.00786050        0.950286440E-4      1.01119349   
    -6.84000000        0.526959255E-4      1.00786577        0.951942399E-4      1.01120299   
    -6.83000000        0.527666271E-4      1.00787104        0.953602834E-4      1.01121252   
    -6.82000000        0.528374712E-4      1.00787632        0.955267764E-4      1.01122206   
    -6.81000000        0.529084581E-4      1.00788161        0.956937204E-4      1.01123162   
    -6.80000000        0.529795883E-4      1.00788690        0.958611173E-4      1.01124120   
    -6.79000000        0.530508620E-4      1.00789220        0.960289686E-4      1.01125079   
    -6.78000000        0.531222797E-4      1.00789751        0.961972761E-4      1.01126040   
    -6.77000000        0.531938419E-4      1.00790283        0.963660415E-4      1.01127003   
    -6.76000000        0.532655487E-4      1.00790815        0.965352666E-4      1.01127967   
    -6.75000000        0.533374008E-4      1.00791348        0.967049532E-4      1.01128933   
    -6.74000000        0.534093983E-4      1.00791882        0.968751029E-4      1.01129901   
    -6.73000000        0.534815419E-4      1.00792416        0.970457175E-4      1.01130871   
    -6.72000000        0.535538317E-4      1.00792951        0.972167988E-4      1.01131842   
    -6.71000000        0.536262683E-4      1.00793487        0.973883486E-4      1.01132815   
    -6.70000000        0.536988521E-4      1.00794024        0.975603686E-4      1.01133789   
    -6.69000000        0.537715833E-4      1.00794561        0.977328607E-4      1.01134765   
    -6.68000000        0.538444625E-4      1.00795099        0.979058266E-4      1.01135743   
    -6.67000000        0.539174901E-4      1.00795638        0.980792682E-4      1.01136723   
    -6.66000000        0.539906663E-4      1.00796177        0.982531873E-4      1.01137705   
    -6.65000000        0.540639917E-4      1.00796717        0.984275857E-4      1.01138688   
    -6.64000000        0.541374667E-4      1.00797258        0.986024653E-4      1.01139673   
    -6.63000000        0.542110916E-4      1.00797800        0.987778279E-4      1.01140660   
    -6.62000000        0.542848668E-4      1.00798343        0.989536754E-4      1.01141648   
    -6.61000000        0.543587929E-4      1.00798886        0.991300097E-4      1.01142638   
    -6.60000000        0.544328701E-4      1.00799430        0.993068325E-4      1.01143630   
    -6.59000000        0.545070989E-4      1.00799974        0.994841459E-4      1.01144624   
    -6.58000000        0.545814798E-4      1.00800520        0.996619517E-4      1.01145620   
    -6.57000000        0.546560130E-4      1.00801066        0.998402518E-4      1.01146617   
    -6.56000000        0.547306991E-4      1.00801613        0.100019048E-3      1.01147616   
    -6.55000000        0.548055385E-4      1.00802160        0.100198343E-3      1.01148617   
    -6.54000000        0.548805315E-4      1.00802709        0.100378137E-3      1.01149620   
    -6.53000000        0.549556787E-4      1.00803258        0.100558434E-3      1.01150624   
    -6.52000000        0.550309803E-4      1.00803808        0.100739235E-3      1.01151631   
    -6.51000000        0.551064369E-4      1.00804358        0.100920541E-3      1.01152639   
    -6.50000000        0.551820489E-4      1.00804910        0.101102356E-3      1.01153649   
    -6.49000000        0.552578167E-4      1.00805462        0.101284680E-3      1.01154661   
    -6.48000000        0.553337408E-4      1.00806015        0.101467517E-3      1.01155674   
    -6.47000000        0.554098214E-4      1.00806568        0.101650867E-3      1.01156690   
    -6.46000000        0.554860592E-4      1.00807123        0.101834734E-3      1.01157707   
    -6.45000000        0.555624545E-4      1.00807678        0.102019118E-3      1.01158726   
    -6.44000000        0.556390078E-4      1.00808234        0.102204023E-3      1.01159747   
    -6.43000000        0.557157195E-4      1.00808791        0.102389449E-3      1.01160770   
    -6.42000000        0.557925900E-4      1.00809348        0.102575400E-3      1.01161794   
    -6.41000000        0.558696197E-4      1.00809907        0.102761877E-3      1.01162821   
    -6.40000000        0.559468092E-4      1.00810466        0.102948882E-3      1.01163849   
    -6.39000000        0.560241588E-4      1.00811025        0.103136417E-3      1.01164879   
    -6.38000000        0.561016691E-4      1.00811586        0.103324485E-3      1.01165912   
    -6.37000000        0.561793403E-4      1.00812147        0.103513088E-3      1.01166946   
    -6.36000000        0.562571731E-4      1.00812709        0.103702227E-3      1.01167982   
    -6.35000000        0.563351678E-4      1.00813272        0.103891906E-3      1.01169019   
    -6.34000000        0.564133249E-4      1.00813836        0.104082125E-3      1.01170059   
    -6.33000000        0.564916449E-4      1.00814400        0.104272888E-3      1.01171101   
    -6.32000000        0.565701281E-4      1.00814966        0.104464195E-3      1.01172144   
    -6.31000000        0.566487751E-4      1.00815532        0.104656051E-3      1.01173190   
    -6.30000000        0.567275862E-4      1.00816099        0.104848456E-3      1.01174237   
    -6.29000000        0.568065621E-4      1.00816666        0.105041413E-3      1.01175286   
    -6.28000000        0.568857030E-4      1.00817235        0.105234924E-3      1.01176337   
    -6.27000000        0.569650096E-4      1.00817804        0.105428992E-3      1.01177390   
    -6.26000000        0.570444822E-4      1.00818374        0.105623618E-3      1.01178446   
    -6.25000000        0.571241213E-4      1.00818945        0.105818805E-3      1.01179503   
    -6.24000000        0.572039273E-4      1.00819516        0.106014555E-3      1.01180562   
    -6.23000000        0.572839009E-4      1.00820089        0.106210871E-3      1.01181622   
    -6.22000000        0.573640423E-4      1.00820662        0.106407754E-3      1.01182685   
    -6.21000000        0.574443521E-4      1.00821236        0.106605208E-3      1.01183750   
    -6.20000000        0.575248307E-4      1.00821811        0.106803233E-3      1.01184817   
    -6.19000000        0.576054787E-4      1.00822386        0.107001834E-3      1.01185886   
    -6.18000000        0.576862965E-4      1.00822963        0.107201011E-3      1.01186957   
    -6.17000000        0.577672846E-4      1.00823540        0.107400768E-3      1.01188030   
    -6.16000000        0.578484434E-4      1.00824118        0.107601106E-3      1.01189104   
    -6.15000000        0.579297735E-4      1.00824697        0.107802029E-3      1.01190181   
    -6.14000000        0.580112753E-4      1.00825276        0.108003538E-3      1.01191260   
    -6.13000000        0.580929493E-4      1.00825857        0.108205636E-3      1.01192341   
    -6.12000000        0.581747960E-4      1.00826438        0.108408325E-3      1.01193424   
    -6.11000000        0.582568158E-4      1.00827020        0.108611608E-3      1.01194509   
    -6.10000000        0.583390094E-4      1.00827603        0.108815487E-3      1.01195596   
    -6.09000000        0.584213770E-4      1.00828187        0.109019965E-3      1.01196685   
    -6.08000000        0.585039194E-4      1.00828771        0.109225044E-3      1.01197776   
    -6.07000000        0.585866369E-4      1.00829357        0.109430726E-3      1.01198869   
    -6.06000000        0.586695300E-4      1.00829943        0.109637014E-3      1.01199964   
    -6.05000000        0.587525993E-4      1.00830530        0.109843912E-3      1.01201061   
    -6.04000000        0.588358452E-4      1.00831118        0.110051420E-3      1.01202160   
    -6.03000000        0.589192683E-4      1.00831707        0.110259542E-3      1.01203262   
    -6.02000000        0.590028690E-4      1.00832296        0.110468280E-3      1.01204365   
    -6.01000000        0.590866479E-4      1.00832887        0.110677636E-3      1.01205471   
    -6.00000000        0.591706054E-4      1.00833478        0.110887615E-3      1.01206578   
    -5.99000000        0.592547421E-4      1.00834070        0.111098217E-3      1.01207688   
    -5.98000000        0.593390584E-4      1.00834663        0.111309445E-3      1.01208800   
    -5.97000000        0.594235550E-4      1.00835256        0.111521303E-3      1.01209914   
    -5.96000000        0.595082322E-4      1.00835851        0.111733793E-3      1.01211030   
    -5.95000000        0.595930907E-4      1.00836447        0.111946917E-3      1.01212148   
    -5.94000000        0.596781309E-4      1.00837043        0.112160678E-3      1.01213268   
    -5.93000000        0.597633534E-4      1.00837640        0.112375079E-3      1.01214391   
    -5.92000000        0.598487586E-4      1.00838238        0.112590123E-3      1.01215515   
    -5.91000000        0.599343471E-4      1.00838837        0.112805812E-3      1.01216642   
    -5.90000000        0.600201195E-4      1.00839437        0.113022149E-3      1.01217771   
    -5.89000000        0.601060762E-4      1.00840037        0.113239136E-3      1.01218902   
    -5.88000000        0.601922178E-4      1.00840639        0.113456777E-3      1.01220035   
    -5.87000000        0.602785448E-4      1.00841241        0.113675074E-3      1.01221171   
    -5.86000000        0.603650578E-4      1.00841844        0.113894031E-3      1.01222308   
    -5.85000000        0.604517573E-4      1.00842448        0.114113649E-3      1.01223448   
    -5.84000000        0.605386437E-4      1.00843053        0.114333931E-3      1.01224590   
    -5.83000000        0.606257177E-4      1.00843659        0.114554881E-3      1.01225734   
    -5.82000000        0.607129799E-4      1.00844265        0.114776502E-3      1.01226881   
    -5.81000000        0.608004306E-4      1.00844873        0.114998796E-3      1.01228030   
    -5.80000000        0.608880705E-4      1.00845481        0.115221766E-3      1.01229180   
    -5.79000000        0.609759002E-4      1.00846090        0.115445414E-3      1.01230334   
    -5.78000000        0.610639202E-4      1.00846701        0.115669745E-3      1.01231489   
    -5.77000000        0.611521309E-4      1.00847312        0.115894761E-3      1.01232647   
    -5.76000000        0.612405331E-4      1.00847923        0.116120464E-3      1.01233806   
    -5.75000000        0.613291272E-4      1.00848536        0.116346859E-3      1.01234968   
    -5.74000000        0.614179138E-4      1.00849150        0.116573947E-3      1.01236133   
    -5.73000000        0.615068934E-4      1.00849764        0.116801731E-3      1.01237299   
    -5.72000000        0.615960667E-4      1.00850380        0.117030216E-3      1.01238468   
    -5.71000000        0.616854341E-4      1.00850996        0.117259403E-3      1.01239640   
    -5.70000000        0.617749963E-4      1.00851613        0.117489297E-3      1.01240813   
    -5.69000000        0.618647537E-4      1.00852232        0.117719899E-3      1.01241989   
    -5.68000000        0.619547071E-4      1.00852851        0.117951213E-3      1.01243167   
    -5.67000000        0.620448569E-4      1.00853471        0.118183243E-3      1.01244347   
    -5.66000000        0.621352037E-4      1.00854091        0.118415991E-3      1.01245530   
    -5.65000000        0.622257481E-4      1.00854713        0.118649460E-3      1.01246715   
    -5.64000000        0.623164906E-4      1.00855336        0.118883654E-3      1.01247903   
    -5.63000000        0.624074319E-4      1.00855959        0.119118576E-3      1.01249093   
    -5.62000000        0.624985726E-4      1.00856584        0.119354228E-3      1.01250285   
    -5.61000000        0.625899131E-4      1.00857209        0.119590615E-3      1.01251479   
    -5.60000000        0.626814542E-4      1.00857835        0.119827740E-3      1.01252676   
    -5.59000000        0.627731963E-4      1.00858463        0.120065605E-3      1.01253875   
    -5.58000000        0.628651401E-4      1.00859091        0.120304214E-3      1.01255077   
    -5.57000000        0.629572862E-4      1.00859720        0.120543571E-3      1.01256281   
    -5.56000000        0.630496352E-4      1.00860350        0.120783678E-3      1.01257487   
    -5.55000000        0.631421876E-4      1.00860981        0.121024539E-3      1.01258696   
    -5.54000000        0.632349440E-4      1.00861613        0.121266157E-3      1.01259907   
    -5.53000000        0.633279051E-4      1.00862245        0.121508536E-3      1.01261121   
    -5.52000000        0.634210715E-4      1.00862879        0.121751679E-3      1.01262337   
    -5.51000000        0.635144437E-4      1.00863514        0.121995590E-3      1.01263555   
    -5.50000000        0.636080225E-4      1.00864149        0.122240271E-3      1.01264776   
    -5.49000000        0.637018082E-4      1.00864786        0.122485727E-3      1.01266000   
    -5.48000000        0.637958017E-4      1.00865423        0.122731961E-3      1.01267225   
    -5.47000000        0.638900035E-4      1.00866061        0.122978977E-3      1.01268454   
    -5.46000000        0.639844143E-4      1.00866701        0.123226777E-3      1.01269684   
    -5.45000000        0.640790345E-4      1.00867341        0.123475366E-3      1.01270918   
    -5.44000000        0.641738649E-4      1.00867982        0.123724746E-3      1.01272153   
    -5.43000000        0.642689062E-4      1.00868624        0.123974923E-3      1.01273392   
    -5.42000000        0.643641588E-4      1.00869267        0.124225898E-3      1.01274632   
    -5.41000000        0.644596235E-4      1.00869911        0.124477677E-3      1.01275876   
    -5.40000000        0.645553008E-4      1.00870556        0.124730261E-3      1.01277121   
    -5.39000000        0.646511915E-4      1.00871202        0.124983657E-3      1.01278370   
    -5.38000000        0.647472960E-4      1.00871849        0.125237866E-3      1.01279621   
    -5.37000000        0.648436152E-4      1.00872497        0.125492892E-3      1.01280874   
    -5.36000000        0.649401496E-4      1.00873146        0.125748740E-3      1.01282130   
    -5.35000000        0.650368998E-4      1.00873796        0.126005413E-3      1.01283388   
    -5.34000000        0.651338666E-4      1.00874447        0.126262915E-3      1.01284649   
    -5.33000000        0.652310505E-4      1.00875098        0.126521250E-3      1.01285913   
    -5.32000000        0.653284521E-4      1.00875751        0.126780421E-3      1.01287179   
    -5.31000000        0.654260723E-4      1.00876405        0.127040432E-3      1.01288448   
    -5.30000000        0.655239115E-4      1.00877059        0.127301288E-3      1.01289720   
    -5.29000000        0.656219705E-4      1.00877715        0.127562992E-3      1.01290994   
    -5.28000000        0.657202500E-4      1.00878372        0.127825548E-3      1.01292270   
    -5.27000000        0.658187505E-4      1.00879029        0.128088961E-3      1.01293550   
    -5.26000000        0.659174727E-4      1.00879688        0.128353233E-3      1.01294831   
    -5.25000000        0.660164174E-4      1.00880348        0.128618369E-3      1.01296116   
    -5.24000000        0.661155852E-4      1.00881008        0.128884374E-3      1.01297403   
    -5.23000000        0.662149767E-4      1.00881670        0.129151251E-3      1.01298693   
    -5.22000000        0.663145926E-4      1.00882332        0.129419004E-3      1.01299986   
    -5.21000000        0.664144336E-4      1.00882996        0.129687637E-3      1.01301281   
    -5.20000000        0.665145005E-4      1.00883660        0.129957155E-3      1.01302579   
    -5.19000000        0.666147937E-4      1.00884326        0.130227561E-3      1.01303879   
    -5.18000000        0.667153142E-4      1.00884993        0.130498860E-3      1.01305183   
    -5.17000000        0.668160625E-4      1.00885660        0.130771057E-3      1.01306489   
    -5.16000000        0.669170393E-4      1.00886329        0.131044154E-3      1.01307798   
    -5.15000000        0.670182453E-4      1.00886998        0.131318158E-3      1.01309109   
    -5.14000000        0.671196812E-4      1.00887669        0.131593071E-3      1.01310423   
    -5.13000000        0.672213478E-4      1.00888341        0.131868898E-3      1.01311740   
    -5.12000000        0.673232456E-4      1.00889013        0.132145644E-3      1.01313060   
    -5.11000000        0.674253755E-4      1.00889687        0.132423312E-3      1.01314383   
    -5.10000000        0.675277381E-4      1.00890362        0.132701908E-3      1.01315708   
    -5.09000000        0.676303341E-4      1.00891037        0.132981436E-3      1.01317036   
    -5.08000000        0.677331643E-4      1.00891714        0.133261900E-3      1.01318367   
    -5.07000000        0.678362293E-4      1.00892392        0.133543305E-3      1.01319701   
    -5.06000000        0.679395298E-4      1.00893071        0.133825654E-3      1.01321037   
    -5.05000000        0.680430667E-4      1.00893750        0.134108954E-3      1.01322377   
    -5.04000000        0.681468406E-4      1.00894431        0.134393208E-3      1.01323719   
    -5.03000000        0.682508522E-4      1.00895113        0.134678421E-3      1.01325064   
    -5.02000000        0.683551023E-4      1.00895796        0.134964597E-3      1.01326412   
    -5.01000000        0.684595915E-4      1.00896480        0.135251742E-3      1.01327762   
    -5.00000000        0.685643207E-4      1.00897165        0.135539860E-3      1.01329116   
    -4.99000000        0.686692905E-4      1.00897851        0.135828956E-3      1.01330473   
    -4.98000000        0.687745018E-4      1.00898538        0.136119034E-3      1.01331832   
    -4.97000000        0.688799552E-4      1.00899227        0.136410099E-3      1.01333194   
    -4.96000000        0.689856514E-4      1.00899916        0.136702156E-3      1.01334560   
    -4.95000000        0.690915913E-4      1.00900606        0.136995210E-3      1.01335928   
    -4.94000000        0.691977756E-4      1.00901298        0.137289266E-3      1.01337299   
    -4.93000000        0.693042050E-4      1.00901990        0.137584329E-3      1.01338673   
    -4.92000000        0.694108803E-4      1.00902683        0.137880404E-3      1.01340050   
    -4.91000000        0.695178022E-4      1.00903378        0.138177495E-3      1.01341430   
    -4.90000000        0.696249716E-4      1.00904074        0.138475608E-3      1.01342813   
    -4.89000000        0.697323891E-4      1.00904770        0.138774748E-3      1.01344199   
    -4.88000000        0.698400556E-4      1.00905468        0.139074920E-3      1.01345588   
    -4.87000000        0.699479717E-4      1.00906167        0.139376128E-3      1.01346979   
    -4.86000000        0.700561384E-4      1.00906867        0.139678379E-3      1.01348374   
    -4.85000000        0.701645563E-4      1.00907568        0.139981677E-3      1.01349772   
    -4.84000000        0.702732263E-4      1.00908270        0.140286028E-3      1.01351173   
    -4.83000000        0.703821491E-4      1.00908973        0.140591437E-3      1.01352577   
    -4.82000000        0.704913255E-4      1.00909678        0.140897908E-3      1.01353984   
    -4.81000000        0.706007562E-4      1.00910383        0.141205449E-3      1.01355395   
    -4.80000000        0.707104422E-4      1.00911089        0.141514063E-3      1.01356808   
    -4.79000000        0.708203842E-4      1.00911797        0.141823756E-3      1.01358224   
    -4.78000000        0.709305829E-4      1.00912506        0.142134534E-3      1.01359644   
    -4.77000000        0.710410393E-4      1.00913215        0.142446402E-3      1.01361066   
    -4.76000000        0.711517540E-4      1.00913926        0.142759366E-3      1.01362492   
    -4.75000000        0.712627279E-4      1.00914638        0.143073431E-3      1.01363921   
    -4.74000000        0.713739618E-4      1.00915351        0.143388603E-3      1.01365353   
    -4.73000000        0.714854565E-4      1.00916066        0.143704888E-3      1.01366788   
    -4.72000000        0.715972129E-4      1.00916781        0.144022291E-3      1.01368226   
    -4.71000000        0.717092317E-4      1.00917497        0.144340817E-3      1.01369667   
    -4.70000000        0.718215138E-4      1.00918215        0.144660473E-3      1.01371112   
    -4.69000000        0.719340600E-4      1.00918934        0.144981265E-3      1.01372560   
    -4.68000000        0.720468711E-4      1.00919653        0.145303198E-3      1.01374011   
    -4.67000000        0.721599480E-4      1.00920374        0.145626278E-3      1.01375465   
    -4.66000000        0.722732915E-4      1.00921096        0.145950511E-3      1.01376923   
    -4.65000000        0.723869025E-4      1.00921820        0.146275903E-3      1.01378383   
    -4.64000000        0.725007817E-4      1.00922544        0.146602460E-3      1.01379847   
    -4.63000000        0.726149300E-4      1.00923269        0.146930189E-3      1.01381315   
    -4.62000000        0.727293484E-4      1.00923996        0.147259094E-3      1.01382785   
    -4.61000000        0.728440376E-4      1.00924724        0.147589183E-3      1.01384259   
    -4.60000000        0.729589984E-4      1.00925453        0.147920461E-3      1.01385736   
    -4.59000000        0.730742318E-4      1.00926183        0.148252935E-3      1.01387217   
    -4.58000000        0.731897386E-4      1.00926914        0.148586610E-3      1.01388700   
    -4.57000000        0.733055197E-4      1.00927646        0.148921494E-3      1.01390188   
    -4.56000000        0.734215760E-4      1.00928380        0.149257593E-3      1.01391678   
    -4.55000000        0.735379082E-4      1.00929115        0.149594912E-3      1.01393172   
    -4.54000000        0.736545174E-4      1.00929851        0.149933459E-3      1.01394669   
    -4.53000000        0.737714043E-4      1.00930588        0.150273240E-3      1.01396170   
    -4.52000000        0.738885699E-4      1.00931326        0.150614261E-3      1.01397674   
    -4.51000000        0.740060151E-4      1.00932065        0.150956529E-3      1.01399181   
    -4.50000000        0.741237407E-4      1.00932806        0.151300051E-3      1.01400692   
    -4.49000000        0.742417476E-4      1.00933548        0.151644833E-3      1.01402206   
    -4.48000000        0.743600368E-4      1.00934290        0.151990882E-3      1.01403724   
    -4.47000000        0.744786091E-4      1.00935035        0.152338205E-3      1.01405245   
    -4.46000000        0.745974654E-4      1.00935780        0.152686809E-3      1.01406770   
    -4.45000000        0.747166067E-4      1.00936526        0.153036700E-3      1.01408298   
    -4.44000000        0.748360338E-4      1.00937274        0.153387886E-3      1.01409830   
    -4.43000000        0.749557477E-4      1.00938023        0.153740373E-3      1.01411365   
    -4.42000000        0.750757493E-4      1.00938773        0.154094169E-3      1.01412904   
    -4.41000000        0.751960395E-4      1.00939524        0.154449280E-3      1.01414446   
    -4.40000000        0.753166193E-4      1.00940277        0.154805714E-3      1.01415992   
    -4.39000000        0.754374896E-4      1.00941030        0.155163478E-3      1.01417541   
    -4.38000000        0.755586512E-4      1.00941785        0.155522578E-3      1.01419094   
    -4.37000000        0.756801052E-4      1.00942541        0.155883024E-3      1.01420651   
    -4.36000000        0.758018525E-4      1.00943299        0.156244821E-3      1.01422211   
    -4.35000000        0.759238941E-4      1.00944057        0.156607977E-3      1.01423775   
    -4.34000000        0.760462308E-4      1.00944817        0.156972499E-3      1.01425342   
    -4.33000000        0.761688637E-4      1.00945578        0.157338396E-3      1.01426913   
    -4.32000000        0.762917936E-4      1.00946340        0.157705675E-3      1.01428488   
    -4.31000000        0.764150217E-4      1.00947103        0.158074342E-3      1.01430067   
    -4.30000000        0.765385487E-4      1.00947868        0.158444407E-3      1.01431649   
    -4.29000000        0.766623758E-4      1.00948634        0.158815877E-3      1.01433235   
    -4.28000000        0.767865038E-4      1.00949401        0.159188759E-3      1.01434824   
    -4.27000000        0.769109337E-4      1.00950170        0.159563061E-3      1.01436417   
    -4.26000000        0.770356666E-4      1.00950939        0.159938792E-3      1.01438014   
    -4.25000000        0.771607034E-4      1.00951710        0.160315960E-3      1.01439615   
    -4.24000000        0.772860451E-4      1.00952482        0.160694571E-3      1.01441220   
    -4.23000000        0.774116927E-4      1.00953256        0.161074635E-3      1.01442828   
    -4.22000000        0.775376472E-4      1.00954030        0.161456160E-3      1.01444440   
    -4.21000000        0.776639095E-4      1.00954806        0.161839154E-3      1.01446056   
    -4.20000000        0.777904808E-4      1.00955583        0.162223624E-3      1.01447676   
    -4.19000000        0.779173620E-4      1.00956362        0.162609581E-3      1.01449300   
    -4.18000000        0.780445541E-4      1.00957141        0.162997031E-3      1.01450927   
    -4.17000000        0.781720581E-4      1.00957922        0.163385984E-3      1.01452559   
    -4.16000000        0.782998751E-4      1.00958705        0.163776448E-3      1.01454194   
    -4.15000000        0.784280061E-4      1.00959488        0.164168431E-3      1.01455833   
    -4.14000000        0.785564520E-4      1.00960273        0.164561943E-3      1.01457476   
    -4.13000000        0.786852141E-4      1.00961059        0.164956992E-3      1.01459123   
    -4.12000000        0.788142932E-4      1.00961847        0.165353587E-3      1.01460774   
    -4.11000000        0.789436905E-4      1.00962635        0.165751736E-3      1.01462429   
    -4.10000000        0.790734069E-4      1.00963425        0.166151450E-3      1.01464088   
    -4.09000000        0.792034435E-4      1.00964216        0.166552736E-3      1.01465751   
    -4.08000000        0.793338015E-4      1.00965009        0.166955605E-3      1.01467418   
    -4.07000000        0.794644818E-4      1.00965803        0.167360064E-3      1.01469090   
    -4.06000000        0.795954855E-4      1.00966598        0.167766124E-3      1.01470765   
    -4.05000000        0.797268137E-4      1.00967395        0.168173794E-3      1.01472444   
    -4.04000000        0.798584674E-4      1.00968192        0.168583083E-3      1.01474127   
    -4.03000000        0.799904478E-4      1.00968992        0.168994001E-3      1.01475814   
    -4.02000000        0.801227559E-4      1.00969792        0.169406556E-3      1.01477506   
    -4.01000000        0.802553928E-4      1.00970594        0.169820760E-3      1.01479201   
    -4.00000000        0.803883595E-4      1.00971397        0.170236622E-3      1.01480901   
    -3.99000000        0.805216573E-4      1.00972201        0.170654150E-3      1.01482605   
    -3.98000000        0.806552872E-4      1.00973007        0.171073356E-3      1.01484313   
    -3.97000000        0.807892502E-4      1.00973814        0.171494250E-3      1.01486025   
    -3.96000000        0.809235476E-4      1.00974623        0.171916840E-3      1.01487742   
    -3.95000000        0.810581803E-4      1.00975433        0.172341138E-3      1.01489463   
    -3.94000000        0.811931496E-4      1.00976244        0.172767154E-3      1.01491188   
    -3.93000000        0.813284566E-4      1.00977056        0.173194897E-3      1.01492917   
    -3.92000000        0.814641024E-4      1.00977870        0.173624379E-3      1.01494650   
    -3.91000000        0.816000881E-4      1.00978685        0.174055610E-3      1.01496388   
    -3.90000000        0.817364148E-4      1.00979502        0.174488600E-3      1.01498130   
    -3.89000000        0.818730837E-4      1.00980320        0.174923360E-3      1.01499877   
    -3.88000000        0.820100960E-4      1.00981139        0.175359900E-3      1.01501628   
    -3.87000000        0.821474528E-4      1.00981960        0.175798232E-3      1.01503383   
    -3.86000000        0.822851553E-4      1.00982782        0.176238367E-3      1.01505142   
    -3.85000000        0.824232046E-4      1.00983605        0.176680315E-3      1.01506906   
    -3.84000000        0.825616019E-4      1.00984430        0.177124087E-3      1.01508675   
    -3.83000000        0.827003483E-4      1.00985256        0.177569696E-3      1.01510448   
    -3.82000000        0.828394451E-4      1.00986084        0.178017151E-3      1.01512225   
    -3.81000000        0.829788933E-4      1.00986913        0.178466465E-3      1.01514007   
    -3.80000000        0.831186943E-4      1.00987743        0.178917648E-3      1.01515793   
    -3.79000000        0.832588492E-4      1.00988575        0.179370713E-3      1.01517584   
    -3.78000000        0.833993592E-4      1.00989408        0.179825671E-3      1.01519379   
    -3.77000000        0.835402255E-4      1.00990243        0.180282534E-3      1.01521179   
    -3.76000000        0.836814493E-4      1.00991079        0.180741314E-3      1.01522983   
    -3.75000000        0.838230318E-4      1.00991916        0.181202023E-3      1.01524793   
    -3.74000000        0.839649742E-4      1.00992755        0.181664672E-3      1.01526606   
    -3.73000000        0.841072778E-4      1.00993595        0.182129274E-3      1.01528425   
    -3.72000000        0.842499437E-4      1.00994437        0.182595842E-3      1.01530248   
    -3.71000000        0.843929733E-4      1.00995280        0.183064388E-3      1.01532075   
    -3.70000000        0.845363677E-4      1.00996124        0.183534924E-3      1.01533907   
    -3.69000000        0.846801283E-4      1.00996970        0.184007463E-3      1.01535745   
    -3.68000000        0.848242561E-4      1.00997818        0.184482017E-3      1.01537586   
    -3.67000000        0.849687526E-4      1.00998667        0.184958600E-3      1.01539433   
    -3.66000000        0.851136189E-4      1.00999517        0.185437225E-3      1.01541284   
    -3.65000000        0.852588564E-4      1.01000369        0.185917903E-3      1.01543140   
    -3.64000000        0.854044662E-4      1.01001222        0.186400650E-3      1.01545001   
    -3.63000000        0.855504498E-4      1.01002076        0.186885478E-3      1.01546867   
    -3.62000000        0.856968082E-4      1.01002933        0.187372400E-3      1.01548737   
    -3.61000000        0.858435429E-4      1.01003790        0.187861430E-3      1.01550613   
    -3.60000000        0.859906551E-4      1.01004649        0.188352582E-3      1.01552493   
    -3.59000000        0.861381462E-4      1.01005510        0.188845870E-3      1.01554379   
    -3.58000000        0.862860174E-4      1.01006372        0.189341307E-3      1.01556269   
    -3.57000000        0.864342700E-4      1.01007235        0.189838907E-3      1.01558164   
    -3.56000000        0.865829054E-4      1.01008100        0.190338685E-3      1.01560064   
    -3.55000000        0.867319248E-4      1.01008967        0.190840655E-3      1.01561969   
    -3.54000000        0.868813297E-4      1.01009834        0.191344832E-3      1.01563879   
    -3.53000000        0.870311212E-4      1.01010704        0.191851229E-3      1.01565795   
    -3.52000000        0.871813009E-4      1.01011575        0.192359862E-3      1.01567715   
    -3.51000000        0.873318699E-4      1.01012447        0.192870746E-3      1.01569640   
    -3.50000000        0.874828297E-4      1.01013321        0.193383895E-3      1.01571571   
    -3.49000000        0.876341817E-4      1.01014197        0.193899325E-3      1.01573507   
    -3.48000000        0.877859271E-4      1.01015074        0.194417051E-3      1.01575447   
    -3.47000000        0.879380673E-4      1.01015952        0.194937088E-3      1.01577393   
    -3.46000000        0.880906038E-4      1.01016832        0.195459452E-3      1.01579345   
    -3.45000000        0.882435378E-4      1.01017714        0.195984158E-3      1.01581301   
    -3.44000000        0.883968708E-4      1.01018597        0.196511223E-3      1.01583263   
    -3.43000000        0.885506042E-4      1.01019481        0.197040662E-3      1.01585230   
    -3.42000000        0.887047394E-4      1.01020367        0.197572492E-3      1.01587202   
    -3.41000000        0.888592777E-4      1.01021255        0.198106729E-3      1.01589179   
    -3.40000000        0.890142206E-4      1.01022144        0.198643389E-3      1.01591162   
    -3.39000000        0.891695695E-4      1.01023035        0.199182488E-3      1.01593151   
    -3.38000000        0.893253258E-4      1.01023928        0.199724045E-3      1.01595144   
    -3.37000000        0.894814910E-4      1.01024821        0.200268075E-3      1.01597144   
    -3.36000000        0.896380664E-4      1.01025717        0.200814595E-3      1.01599148   
    -3.35000000        0.897950535E-4      1.01026614        0.201363624E-3      1.01601158   
    -3.34000000        0.899524538E-4      1.01027512        0.201915178E-3      1.01603174   
    -3.33000000        0.901102687E-4      1.01028413        0.202469275E-3      1.01605195   
    -3.32000000        0.902684997E-4      1.01029314        0.203025932E-3      1.01607221   
    -3.31000000        0.904271482E-4      1.01030218        0.203585168E-3      1.01609254   
    -3.30000000        0.905862158E-4      1.01031123        0.204147001E-3      1.01611291   
    -3.29000000        0.907457038E-4      1.01032029        0.204711449E-3      1.01613335   
    -3.28000000        0.909056138E-4      1.01032937        0.205278531E-3      1.01615384   
    -3.27000000        0.910659472E-4      1.01033847        0.205848264E-3      1.01617439   
    -3.26000000        0.912267057E-4      1.01034758        0.206420669E-3      1.01619499   
    -3.25000000        0.913878906E-4      1.01035671        0.206995764E-3      1.01621565   
    -3.24000000        0.915495034E-4      1.01036586        0.207573568E-3      1.01623637   
    -3.23000000        0.917115458E-4      1.01037502        0.208154101E-3      1.01625715   
    -3.22000000        0.918740192E-4      1.01038420        0.208737382E-3      1.01627798   
    -3.21000000        0.920369252E-4      1.01039339        0.209323431E-3      1.01629888   
    -3.20000000        0.922002652E-4      1.01040260        0.209912268E-3      1.01631983   
    -3.19000000        0.923640409E-4      1.01041183        0.210503914E-3      1.01634084   
    -3.18000000        0.925282538E-4      1.01042107        0.211098388E-3      1.01636191   
    -3.17000000        0.926929054E-4      1.01043033        0.211695712E-3      1.01638304   
    -3.16000000        0.928579974E-4      1.01043961        0.212295905E-3      1.01640423   
    -3.15000000        0.930235312E-4      1.01044890        0.212898990E-3      1.01642548   
    -3.14000000        0.931895086E-4      1.01045821        0.213504988E-3      1.01644679   
    -3.13000000        0.933559309E-4      1.01046754        0.214113919E-3      1.01646816   
    -3.12000000        0.935228000E-4      1.01047688        0.214725806E-3      1.01648960   
    -3.11000000        0.936901173E-4      1.01048624        0.215340671E-3      1.01651109   
    -3.10000000        0.938578844E-4      1.01049561        0.215958535E-3      1.01653264   
    -3.09000000        0.940261031E-4      1.01050501        0.216579422E-3      1.01655426   
    -3.08000000        0.941947748E-4      1.01051442        0.217203353E-3      1.01657594   
    -3.07000000        0.943639013E-4      1.01052384        0.217830352E-3      1.01659768   
    -3.06000000        0.945334842E-4      1.01053328        0.218460442E-3      1.01661949   
    -3.05000000        0.947035250E-4      1.01054275        0.219093645E-3      1.01664135   
    -3.04000000        0.948740256E-4      1.01055222        0.219729986E-3      1.01666328   
    -3.03000000        0.950449875E-4      1.01056172        0.220369489E-3      1.01668528   
    -3.02000000        0.952164124E-4      1.01057123        0.221012178E-3      1.01670734   
    -3.01000000        0.953883019E-4      1.01058076        0.221658076E-3      1.01672946   
    -3.00000000        0.955606578E-4      1.01059030        0.222307209E-3      1.01675165   
    -2.99000000        0.957334818E-4      1.01059987        0.222959601E-3      1.01677390   
    -2.98000000        0.959067755E-4      1.01060945        0.223615278E-3      1.01679622   
    -2.97000000        0.960805407E-4      1.01061904        0.224274265E-3      1.01681860   
    -2.96000000        0.962547791E-4      1.01062866        0.224936588E-3      1.01684105   
    -2.95000000        0.964294923E-4      1.01063829        0.225602272E-3      1.01686357   
    -2.94000000        0.966046822E-4      1.01064794        0.226271344E-3      1.01688615   
    -2.93000000        0.967803504E-4      1.01065761        0.226943831E-3      1.01690880   
    -2.92000000        0.969564987E-4      1.01066730        0.227619760E-3      1.01693151   
    -2.91000000        0.971331289E-4      1.01067700        0.228299156E-3      1.01695430   
    -2.90000000        0.973102427E-4      1.01068672        0.228982049E-3      1.01697715   
    -2.89000000        0.974878419E-4      1.01069646        0.229668466E-3      1.01700007   
    -2.88000000        0.976659282E-4      1.01070621        0.230358434E-3      1.01702306   
    -2.87000000        0.978445035E-4      1.01071599        0.231051983E-3      1.01704612   
    -2.86000000        0.980235696E-4      1.01072578        0.231749140E-3      1.01706925   
    -2.85000000        0.982031282E-4      1.01073559        0.232449935E-3      1.01709244   
    -2.84000000        0.983831812E-4      1.01074542        0.233154398E-3      1.01711571   
    -2.83000000        0.985637303E-4      1.01075526        0.233862557E-3      1.01713905   
    -2.82000000        0.987447774E-4      1.01076513        0.234574443E-3      1.01716246   
    -2.81000000        0.989263244E-4      1.01077501        0.235290087E-3      1.01718594   
    -2.80000000        0.991083731E-4      1.01078491        0.236009519E-3      1.01720949   
    -2.79000000        0.992909253E-4      1.01079483        0.236732769E-3      1.01723312   
    -2.78000000        0.994739829E-4      1.01080476        0.237459870E-3      1.01725681   
    -2.77000000        0.996575478E-4      1.01081472        0.238190854E-3      1.01728058   
    -2.76000000        0.998416218E-4      1.01082469        0.238925752E-3      1.01730443   
    -2.75000000        0.100026207E-3      1.01083468        0.239664597E-3      1.01732834   
    -2.74000000        0.100211305E-3      1.01084469        0.240407421E-3      1.01735233   
    -2.73000000        0.100396918E-3      1.01085472        0.241154259E-3      1.01737640   
    -2.72000000        0.100583047E-3      1.01086477        0.241905144E-3      1.01740054   
    -2.71000000        0.100769695E-3      1.01087483        0.242660109E-3      1.01742475   
    -2.70000000        0.100956864E-3      1.01088492        0.243419190E-3      1.01744904   
    -2.69000000        0.101144556E-3      1.01089502        0.244182422E-3      1.01747341   
    -2.68000000        0.101332772E-3      1.01090514        0.244949839E-3      1.01749785   
    -2.67000000        0.101521514E-3      1.01091528        0.245721477E-3      1.01752237   
    -2.66000000        0.101710785E-3      1.01092544        0.246497373E-3      1.01754697   
    -2.65000000        0.101900586E-3      1.01093562        0.247277563E-3      1.01757164   
    -2.64000000        0.102090919E-3      1.01094582        0.248062085E-3      1.01759639   
    -2.63000000        0.102281787E-3      1.01095604        0.248850975E-3      1.01762122   
    -2.62000000        0.102473192E-3      1.01096627        0.249644271E-3      1.01764613   
    -2.61000000        0.102665134E-3      1.01097653        0.250442013E-3      1.01767112   
    -2.60000000        0.102857618E-3      1.01098680        0.251244239E-3      1.01769619   
    -2.59000000        0.103050643E-3      1.01099710        0.252050988E-3      1.01772134   
    -2.58000000        0.103244213E-3      1.01100741        0.252862301E-3      1.01774657   
    -2.57000000        0.103438330E-3      1.01101774        0.253678216E-3      1.01777188   
    -2.56000000        0.103632995E-3      1.01102809        0.254498777E-3      1.01779728   
    -2.55000000        0.103828211E-3      1.01103847        0.255324023E-3      1.01782275   
    -2.54000000        0.104023980E-3      1.01104886        0.256153997E-3      1.01784831   
    -2.53000000        0.104220303E-3      1.01105927        0.256988741E-3      1.01787395   
    -2.52000000        0.104417184E-3      1.01106970        0.257828298E-3      1.01789968   
    -2.51000000        0.104614624E-3      1.01108015        0.258672711E-3      1.01792548   
    -2.50000000        0.104812624E-3      1.01109062        0.259522025E-3      1.01795138   
    -2.49000000        0.105011189E-3      1.01110111        0.260376285E-3      1.01797736   
    -2.48000000        0.105210318E-3      1.01111161        0.261235534E-3      1.01800342   
    -2.47000000        0.105410016E-3      1.01112214        0.262099820E-3      1.01802957   
    -2.46000000        0.105610283E-3      1.01113269        0.262969188E-3      1.01805581   
    -2.45000000        0.105811122E-3      1.01114326        0.263843686E-3      1.01808213   
    -2.44000000        0.106012535E-3      1.01115385        0.264723361E-3      1.01810854   
    -2.43000000        0.106214524E-3      1.01116446        0.265608260E-3      1.01813504   
    -2.42000000        0.106417092E-3      1.01117509        0.266498434E-3      1.01816163   
    -2.41000000        0.106620241E-3      1.01118574        0.267393931E-3      1.01818830   
    -2.40000000        0.106823973E-3      1.01119641        0.268294802E-3      1.01821507   
    -2.39000000        0.107028290E-3      1.01120710        0.269201097E-3      1.01824193   
    -2.38000000        0.107233195E-3      1.01121781        0.270112868E-3      1.01826887   
    -2.37000000        0.107438689E-3      1.01122854        0.271030167E-3      1.01829591   
    -2.36000000        0.107644775E-3      1.01123930        0.271953046E-3      1.01832304   
    -2.35000000        0.107851456E-3      1.01125007        0.272881560E-3      1.01835027   
    -2.34000000        0.108058733E-3      1.01126086        0.273815763E-3      1.01837758   
    -2.33000000        0.108266609E-3      1.01127168        0.274755708E-3      1.01840499   
    -2.32000000        0.108475086E-3      1.01128251        0.275701453E-3      1.01843249   
    -2.31000000        0.108684166E-3      1.01129337        0.276653054E-3      1.01846009   
    -2.30000000        0.108893853E-3      1.01130424        0.277610568E-3      1.01848779   
    -2.29000000        0.109104147E-3      1.01131514        0.278574053E-3      1.01851558   
    -2.28000000        0.109315053E-3      1.01132606        0.279543568E-3      1.01854346   
    -2.27000000        0.109526571E-3      1.01133700        0.280519173E-3      1.01857144   
    -2.26000000        0.109738704E-3      1.01134796        0.281500928E-3      1.01859952   
    -2.25000000        0.109951455E-3      1.01135894        0.282488894E-3      1.01862770   
    -2.24000000        0.110164826E-3      1.01136995        0.283483134E-3      1.01865598   
    -2.23000000        0.110378820E-3      1.01138097        0.284483711E-3      1.01868436   
    -2.22000000        0.110593439E-3      1.01139202        0.285490689E-3      1.01871283   
    -2.21000000        0.110808685E-3      1.01140309        0.286504132E-3      1.01874141   
    -2.20000000        0.111024560E-3      1.01141418        0.287524107E-3      1.01877009   
    -2.19000000        0.111241069E-3      1.01142529        0.288550681E-3      1.01879887   
    -2.18000000        0.111458212E-3      1.01143642        0.289583920E-3      1.01882776   
    -2.17000000        0.111675992E-3      1.01144758        0.290623894E-3      1.01885675   
    -2.16000000        0.111894412E-3      1.01145875        0.291670673E-3      1.01888584   
    -2.15000000        0.112113474E-3      1.01146995        0.292724326E-3      1.01891503   
    -2.14000000        0.112333181E-3      1.01148117        0.293784926E-3      1.01894434   
    -2.13000000        0.112553535E-3      1.01149241        0.294852546E-3      1.01897374   
    -2.12000000        0.112774539E-3      1.01150368        0.295927259E-3      1.01900326   
    -2.11000000        0.112996196E-3      1.01151496        0.297009141E-3      1.01903288   
    -2.10000000        0.113218507E-3      1.01152627        0.298098267E-3      1.01906261   
    -2.09000000        0.113441477E-3      1.01153760        0.299194714E-3      1.01909245   
    -2.08000000        0.113665106E-3      1.01154896        0.300298561E-3      1.01912240   
    -2.07000000        0.113889398E-3      1.01156033        0.301409888E-3      1.01915246   
    -2.06000000        0.114114356E-3      1.01157173        0.302528775E-3      1.01918263   
    -2.05000000        0.114339982E-3      1.01158315        0.303655303E-3      1.01921292   
    -2.04000000        0.114566279E-3      1.01159459        0.304789557E-3      1.01924331   
    -2.03000000        0.114793249E-3      1.01160606        0.305931620E-3      1.01927382   
    -2.02000000        0.115020895E-3      1.01161755        0.307081579E-3      1.01930445   
    -2.01000000        0.115249219E-3      1.01162906        0.308239519E-3      1.01933519   
    -2.00000000        0.115478226E-3      1.01164059        0.309405530E-3      1.01936604   
    -1.99000000        0.115707916E-3      1.01165215        0.310579702E-3      1.01939701   
    -1.98000000        0.115938294E-3      1.01166373        0.311762125E-3      1.01942810   
    -1.97000000        0.116169361E-3      1.01167533        0.312952892E-3      1.01945931   
    -1.96000000        0.116401120E-3      1.01168696        0.314152097E-3      1.01949064   
    -1.95000000        0.116633575E-3      1.01169861        0.315359835E-3      1.01952209   
    -1.94000000        0.116866728E-3      1.01171028        0.316576204E-3      1.01955365   
    -1.93000000        0.117100582E-3      1.01172198        0.317801302E-3      1.01958534   
    -1.92000000        0.117335139E-3      1.01173370        0.319035229E-3      1.01961715   
    -1.91000000        0.117570403E-3      1.01174544        0.320278087E-3      1.01964909   
    -1.90000000        0.117806376E-3      1.01175721        0.321529979E-3      1.01968115   
    -1.89000000        0.118043061E-3      1.01176900        0.322791010E-3      1.01971334   
    -1.88000000        0.118280461E-3      1.01178081        0.324061287E-3      1.01974565   
    -1.87000000        0.118518579E-3      1.01179265        0.325340918E-3      1.01977809   
    -1.86000000        0.118757418E-3      1.01180451        0.326630014E-3      1.01981065   
    -1.85000000        0.118996981E-3      1.01181639        0.327928686E-3      1.01984335   
    -1.84000000        0.119237270E-3      1.01182830        0.329237049E-3      1.01987617   
    -1.83000000        0.119478289E-3      1.01184024        0.330555217E-3      1.01990913   
    -1.82000000        0.119720041E-3      1.01185219        0.331883310E-3      1.01994222   
    -1.81000000        0.119962528E-3      1.01186418        0.333221446E-3      1.01997544   
    -1.80000000        0.120205753E-3      1.01187618        0.334569747E-3      1.02000880   
    -1.79000000        0.120449721E-3      1.01188821        0.335928336E-3      1.02004229   
    -1.78000000        0.120694433E-3      1.01190027        0.337297341E-3      1.02007591   
    -1.77000000        0.120939892E-3      1.01191235        0.338676887E-3      1.02010968   
    -1.76000000        0.121186102E-3      1.01192445        0.340067107E-3      1.02014358   
    -1.75000000        0.121433066E-3      1.01193658        0.341468131E-3      1.02017762   
    -1.74000000        0.121680787E-3      1.01194873        0.342880095E-3      1.02021180   
    -1.73000000        0.121929268E-3      1.01196091        0.344303136E-3      1.02024612   
    -1.72000000        0.122178512E-3      1.01197311        0.345737392E-3      1.02028058   
    -1.71000000        0.122428521E-3      1.01198534        0.347183006E-3      1.02031519   
    -1.70000000        0.122679301E-3      1.01199759        0.348640122E-3      1.02034994   
    -1.69000000        0.122930853E-3      1.01200987        0.350108886E-3      1.02038484   
    -1.68000000        0.123183180E-3      1.01202217        0.351589449E-3      1.02041989   
    -1.67000000        0.123436287E-3      1.01203450        0.353081961E-3      1.02045508   
    -1.66000000        0.123690175E-3      1.01204686        0.354586578E-3      1.02049042   
    -1.65000000        0.123944849E-3      1.01205923        0.356103458E-3      1.02052592   
    -1.64000000        0.124200311E-3      1.01207164        0.357632760E-3      1.02056156   
    -1.63000000        0.124456566E-3      1.01208407        0.359174648E-3      1.02059736   
    -1.62000000        0.124713615E-3      1.01209653        0.360729288E-3      1.02063331   
    -1.61000000        0.124971463E-3      1.01210901        0.362296850E-3      1.02066942   
    -1.60000000        0.125230112E-3      1.01212151        0.363877505E-3      1.02070568   
    -1.59000000        0.125489567E-3      1.01213405        0.365471429E-3      1.02074211   
    -1.58000000        0.125749830E-3      1.01214661        0.367078802E-3      1.02077869   
    -1.57000000        0.126010905E-3      1.01215919        0.368699804E-3      1.02081543   
    -1.56000000        0.126272795E-3      1.01217180        0.370334623E-3      1.02085234   
    -1.55000000        0.126535504E-3      1.01218444        0.371983445E-3      1.02088941   
    -1.54000000        0.126799035E-3      1.01219711        0.373646465E-3      1.02092664   
    -1.53000000        0.127063391E-3      1.01220980        0.375323879E-3      1.02096404   
    -1.52000000        0.127328576E-3      1.01222251        0.377015885E-3      1.02100161   
    -1.51000000        0.127594594E-3      1.01223526        0.378722689E-3      1.02103934   
    -1.50000000        0.127861447E-3      1.01224803        0.380444497E-3      1.02107725   
    -1.49000000        0.128129140E-3      1.01226082        0.382181521E-3      1.02111533   
    -1.48000000        0.128397676E-3      1.01227365        0.383933978E-3      1.02115359   
    -1.47000000        0.128667058E-3      1.01228650        0.385702086E-3      1.02119201   
    -1.46000000        0.128937290E-3      1.01229937        0.387486071E-3      1.02123062   
    -1.45000000        0.129208376E-3      1.01231228        0.389286161E-3      1.02126940   
    -1.44000000        0.129480319E-3      1.01232521        0.391102589E-3      1.02130837   
    -1.43000000        0.129753123E-3      1.01233817        0.392935593E-3      1.02134752   
    -1.42000000        0.130026792E-3      1.01235115        0.394785416E-3      1.02138684   
    -1.41000000        0.130301329E-3      1.01236417        0.396652305E-3      1.02142636   
    -1.40000000        0.130576738E-3      1.01237721        0.398536512E-3      1.02146606   
    -1.39000000        0.130853022E-3      1.01239028        0.400438296E-3      1.02150595   
    -1.38000000        0.131130185E-3      1.01240337        0.402357918E-3      1.02154603   
    -1.37000000        0.131408232E-3      1.01241650        0.404295647E-3      1.02158630   
    -1.36000000        0.131687165E-3      1.01242965        0.406251757E-3      1.02162677   
    -1.35000000        0.131966989E-3      1.01244283        0.408226527E-3      1.02166743   
    -1.34000000        0.132247708E-3      1.01245604        0.410220243E-3      1.02170829   
    -1.33000000        0.132529324E-3      1.01246927        0.412233194E-3      1.02174934   
    -1.32000000        0.132811843E-3      1.01248254        0.414265679E-3      1.02179060   
    -1.31000000        0.133095267E-3      1.01249583        0.416318000E-3      1.02183206   
    -1.30000000        0.133379602E-3      1.01250915        0.418390469E-3      1.02187373   
    -1.29000000        0.133664850E-3      1.01252250        0.420483400E-3      1.02191561   
    -1.28000000        0.133951016E-3      1.01253588        0.422597118E-3      1.02195769   
    -1.27000000        0.134238103E-3      1.01254928        0.424731952E-3      1.02199999   
    -1.26000000        0.134526116E-3      1.01256272        0.426888239E-3      1.02204249   
    -1.25000000        0.134815058E-3      1.01257618        0.429066326E-3      1.02208522   
    -1.24000000        0.135104934E-3      1.01258968        0.431266562E-3      1.02212816   
    -1.23000000        0.135395748E-3      1.01260320        0.433489309E-3      1.02217132   
    -1.22000000        0.135687503E-3      1.01261675        0.435734935E-3      1.02221471   
    -1.21000000        0.135980205E-3      1.01263033        0.438003814E-3      1.02225831   
    -1.20000000        0.136273856E-3      1.01264394        0.440296332E-3      1.02230215   
    -1.19000000        0.136568460E-3      1.01265758        0.442612881E-3      1.02234621   
    -1.18000000        0.136864024E-3      1.01267125        0.444953863E-3      1.02239051   
    -1.17000000        0.137160549E-3      1.01268494        0.447319690E-3      1.02243504   
    -1.16000000        0.137458041E-3      1.01269867        0.449710780E-3      1.02247981   
    -1.15000000        0.137756503E-3      1.01271243        0.452127565E-3      1.02252481   
    -1.14000000        0.138055941E-3      1.01272622        0.454570484E-3      1.02257006   
    -1.13000000        0.138356357E-3      1.01274003        0.457039986E-3      1.02261555   
    -1.12000000        0.138657758E-3      1.01275388        0.459536533E-3      1.02266129   
    -1.11000000        0.138960145E-3      1.01276776        0.462060594E-3      1.02270727   
    -1.10000000        0.139263525E-3      1.01278167        0.464612653E-3      1.02275351   
    -1.09000000        0.139567902E-3      1.01279560        0.467193203E-3      1.02280000   
    -1.08000000        0.139873279E-3      1.01280957        0.469802749E-3      1.02284676   
    -1.07000000        0.140179662E-3      1.01282357        0.472441808E-3      1.02289377   
    -1.06000000        0.140487054E-3      1.01283760        0.475110911E-3      1.02294105   
    -1.05000000        0.140795461E-3      1.01285166        0.477810600E-3      1.02298859   
    -1.04000000        0.141104886E-3      1.01286575        0.480541430E-3      1.02303640   
    -1.03000000        0.141415334E-3      1.01287988        0.483303971E-3      1.02308449   
    -1.02000000        0.141726810E-3      1.01289403        0.486098806E-3      1.02313285   
    -1.01000000        0.142039318E-3      1.01290822        0.488926533E-3      1.02318149   
    -1.00000000        0.142352863E-3      1.01292243        0.491787764E-3      1.02323041   
   -0.990000000        0.142667449E-3      1.01293668        0.494683127E-3      1.02327962   
   -0.980000000        0.142983082E-3      1.01295096        0.497613266E-3      1.02332911   
   -0.970000000        0.143299765E-3      1.01296527        0.500578840E-3      1.02337890   
   -0.960000000        0.143617503E-3      1.01297961        0.503580526E-3      1.02342899   
   -0.950000000        0.143936301E-3      1.01299399        0.506619018E-3      1.02347937   
   -0.940000000        0.144256164E-3      1.01300839        0.509695027E-3      1.02353006   
   -0.930000000        0.144577097E-3      1.01302283        0.512809283E-3      1.02358106   
   -0.920000000        0.144899104E-3      1.01303730        0.515962536E-3      1.02363237   
   -0.910000000        0.145222190E-3      1.01305180        0.519155553E-3      1.02368399   
   -0.900000000        0.145546360E-3      1.01306634        0.522389124E-3      1.02373593   
   -0.890000000        0.145871619E-3      1.01308090        0.525664057E-3      1.02378819   
   -0.880000000        0.146197972E-3      1.01309550        0.528981185E-3      1.02384078   
   -0.870000000        0.146525423E-3      1.01311014        0.532341361E-3      1.02389370   
   -0.860000000        0.146853978E-3      1.01312480        0.535745460E-3      1.02394695   
   -0.850000000        0.147183642E-3      1.01313950        0.539194383E-3      1.02400055   
   -0.840000000        0.147514419E-3      1.01315423        0.542689054E-3      1.02405449   
   -0.830000000        0.147846315E-3      1.01316900        0.546230423E-3      1.02410878   
   -0.820000000        0.148179335E-3      1.01318379        0.549819466E-3      1.02416342   
   -0.810000000        0.148513483E-3      1.01319862        0.553457186E-3      1.02421842   
   -0.800000000        0.148848765E-3      1.01321349        0.557144614E-3      1.02427378   
   -0.790000000        0.149185187E-3      1.01322839        0.560882810E-3      1.02432951   
   -0.780000000        0.149522752E-3      1.01324332        0.564672864E-3      1.02438561   
   -0.770000000        0.149861467E-3      1.01325828        0.568515897E-3      1.02444209   
   -0.760000000        0.150201337E-3      1.01327328        0.572413062E-3      1.02449895   
   -0.750000000        0.150542367E-3      1.01328832        0.576365544E-3      1.02455620   
   -0.740000000        0.150884562E-3      1.01330338        0.580374565E-3      1.02461385   
   -0.730000000        0.151227928E-3      1.01331848        0.584441380E-3      1.02467189   
   -0.720000000        0.151572469E-3      1.01333362        0.588567281E-3      1.02473034   
   -0.710000000        0.151918192E-3      1.01334879        0.592753600E-3      1.02478920   
   -0.700000000        0.152265102E-3      1.01336400        0.597001707E-3      1.02484848   
   -0.690000000        0.152613204E-3      1.01337924        0.601313014E-3      1.02490818   
   -0.680000000        0.152962503E-3      1.01339451        0.605688974E-3      1.02496831   
   -0.670000000        0.153313006E-3      1.01340982        0.610131085E-3      1.02502888   
   -0.660000000        0.153664718E-3      1.01342517        0.614640890E-3      1.02508989   
   -0.650000000        0.154017644E-3      1.01344055        0.619219981E-3      1.02515135   
   -0.640000000        0.154371790E-3      1.01345596        0.623869996E-3      1.02521326   
   -0.630000000        0.154727162E-3      1.01347141        0.628592628E-3      1.02527564   
   -0.620000000        0.155083765E-3      1.01348690        0.633389619E-3      1.02533848   
   -0.610000000        0.155441605E-3      1.01350242        0.638262767E-3      1.02540181   
   -0.600000000        0.155800687E-3      1.01351798        0.643213930E-3      1.02546561   
   -0.590000000        0.156161019E-3      1.01353357        0.648245021E-3      1.02552992   
   -0.580000000        0.156522604E-3      1.01354920        0.653358016E-3      1.02559472   
   -0.570000000        0.156885450E-3      1.01356487        0.658554957E-3      1.02566003   
   -0.560000000        0.157249562E-3      1.01358057        0.663837949E-3      1.02572585   
   -0.550000000        0.157614946E-3      1.01359631        0.669209169E-3      1.02579221   
   -0.540000000        0.157981608E-3      1.01361209        0.674670864E-3      1.02585909   
   -0.530000000        0.158349553E-3      1.01362790        0.680225356E-3      1.02592652   
   -0.520000000        0.158718789E-3      1.01364375        0.685875047E-3      1.02599450   
   -0.510000000        0.159089321E-3      1.01365963        0.691622416E-3      1.02606304   
   -0.500000000        0.159461155E-3      1.01367556        0.697470029E-3      1.02613216   
   -0.490000000        0.159834297E-3      1.01369152        0.703420540E-3      1.02620185   
   -0.480000000        0.160208753E-3      1.01370751        0.709476694E-3      1.02627214   
   -0.470000000        0.160584530E-3      1.01372355        0.715641329E-3      1.02634302   
   -0.460000000        0.160961634E-3      1.01373962        0.721917385E-3      1.02641452   
   -0.450000000        0.161340071E-3      1.01375573        0.728307905E-3      1.02648664   
   -0.440000000        0.161719847E-3      1.01377188        0.734816040E-3      1.02655940   
   -0.430000000        0.162100970E-3      1.01378807        0.741445052E-3      1.02663280   
   -0.420000000        0.162483444E-3      1.01380429        0.748198322E-3      1.02670686   
   -0.410000000        0.162867277E-3      1.01382056        0.755079353E-3      1.02678158   
   -0.400000000        0.163252474E-3      1.01383686        0.762091778E-3      1.02685699   
   -0.390000000        0.163639044E-3      1.01385320        0.769239360E-3      1.02693310   
   -0.380000000        0.164026991E-3      1.01386958        0.776526005E-3      1.02700991   
   -0.370000000        0.164416324E-3      1.01388599        0.783955764E-3      1.02708745   
   -0.360000000        0.164807047E-3      1.01390245        0.791532840E-3      1.02716572   
   -0.350000000        0.165199168E-3      1.01391895        0.799261596E-3      1.02724474   
   -0.340000000        0.165592694E-3      1.01393548        0.807146562E-3      1.02732453   
   -0.330000000        0.165987632E-3      1.01395205        0.815192444E-3      1.02740510   
   -0.320000000        0.166383987E-3      1.01396867        0.823404129E-3      1.02748646   
   -0.310000000        0.166781768E-3      1.01398532        0.831786697E-3      1.02756863   
   -0.300000000        0.167180980E-3      1.01400202        0.840345428E-3      1.02765164   
   -0.290000000        0.167581631E-3      1.01401875        0.849085813E-3      1.02773549   
   -0.280000000        0.167983728E-3      1.01403552        0.858013563E-3      1.02782020   
   -0.270000000        0.168387278E-3      1.01405234        0.867134621E-3      1.02790580   
   -0.260000000        0.168792287E-3      1.01406919        0.876455172E-3      1.02799229   
   -0.250000000        0.169198763E-3      1.01408608        0.885981656E-3      1.02807971   
   -0.240000000        0.169606713E-3      1.01410302        0.895720779E-3      1.02816807   
   -0.230000000        0.170016144E-3      1.01412000        0.905679531E-3      1.02825738   
   -0.220000000        0.170427063E-3      1.01413701        0.915865195E-3      1.02834768   
   -0.210000000        0.170839478E-3      1.01415407        0.926285364E-3      1.02843898   
   -0.200000000        0.171253395E-3      1.01417117        0.936947958E-3      1.02853131   
   -0.190000000        0.171668823E-3      1.01418831        0.947861241E-3      1.02862469   
   -0.180000000        0.172085768E-3      1.01420549        0.959033838E-3      1.02871915   
   -0.170000000        0.172504238E-3      1.01422272        0.970474753E-3      1.02881470   
   -0.160000000        0.172924241E-3      1.01423999        0.982193393E-3      1.02891138   
   -0.150000000        0.173345783E-3      1.01425729        0.994199586E-3      1.02900921   
   -0.140000000        0.173768873E-3      1.01427464        0.100650361E-2      1.02910822   
   -0.130000000        0.174193518E-3      1.01429204        0.101911620E-2      1.02920844   
   -0.120000000        0.174619726E-3      1.01430947        0.103204860E-2      1.02930990   
   -0.110000000        0.175047505E-3      1.01432695        0.104531258E-2      1.02941263   
   -0.100000000        0.175476861E-3      1.01434447        0.105892045E-2      1.02951666   
   -0.900000000E-1     0.175907804E-3      1.01436204        0.107288512E-2      1.02962202   
   -0.800000000E-1     0.176340341E-3      1.01437964        0.108722011E-2      1.02972875   
   -0.700000000E-1     0.176774479E-3      1.01439729        0.110193958E-2      1.02983688   
   -0.600000000E-1     0.177210227E-3      1.01441499        0.111705842E-2      1.02994645   
   -0.500000000E-1     0.177647593E-3      1.01443272        0.113259221E-2      1.03005750   
   -0.400000000E-1     0.178086585E-3      1.01445051        0.114855735E-2      1.03017007   
   -0.300000000E-1     0.178527210E-3      1.01446833        0.116497104E-2      1.03028420   
   -0.200000000E-1     0.178969478E-3      1.01448620        0.118185134E-2      1.03039992   
   -0.100000000E-1     0.179413396E-3      1.01450411        0.119921729E-2      1.03051730   
     0.00000000        0.179858972E-3      1.01452207        0.121708885E-2      1.03063637   
    0.100000000E-1     0.180306216E-3      1.01454007        0.123548709E-2      1.03075717   
    0.200000000E-1     0.180755134E-3      1.01455812        0.125443416E-2      1.03087977   
    0.300000000E-1     0.181205736E-3      1.01457621        0.127395341E-2      1.03100420   
    0.400000000E-1     0.181658030E-3      1.01459435        0.129406944E-2      1.03113053   
    0.500000000E-1     0.182112024E-3      1.01461253        0.131480820E-2      1.03125882   
    0.600000000E-1     0.182567728E-3      1.01463076        0.133619709E-2      1.03138911   
    0.700000000E-1     0.183025149E-3      1.01464904        0.135826504E-2      1.03152148   
    0.800000000E-1     0.183484297E-3      1.01466736        0.138104259E-2      1.03165597   
    0.900000000E-1     0.183945180E-3      1.01468572        0.140456205E-2      1.03179267   
    0.100000000        0.184407807E-3      1.01470413        0.142885760E-2      1.03193164   
    0.110000000        0.184872187E-3      1.01472259        0.145396540E-2      1.03207296   
    0.120000000        0.185338328E-3      1.01474110        0.147992376E-2      1.03221669   
    0.130000000        0.185806240E-3      1.01475965        0.150677330E-2      1.03236291   
    0.140000000        0.186275932E-3      1.01477825        0.153455706E-2      1.03251172   
    0.150000000        0.186747413E-3      1.01479689        0.156332075E-2      1.03266319   
    0.160000000        0.187220691E-3      1.01481558        0.159311292E-2      1.03281741   
    0.170000000        0.187695777E-3      1.01483432        0.162398513E-2      1.03297449   
    0.180000000        0.188172679E-3      1.01485311        0.165599226E-2      1.03313451   
    0.190000000        0.188651406E-3      1.01487195        0.168919269E-2      1.03329759   
    0.200000000        0.189131969E-3      1.01489083        0.172364863E-2      1.03346382   
    0.210000000        0.189614376E-3      1.01490976        0.175942637E-2      1.03363334   
    0.220000000        0.190098636E-3      1.01492874        0.179659666E-2      1.03380624   
    0.230000000        0.190584761E-3      1.01494777        0.183523501E-2      1.03398266   
    0.240000000        0.191072758E-3      1.01496684        0.187542215E-2      1.03416274   
    0.250000000        0.191562639E-3      1.01498597        0.191724439E-2      1.03434661   
    0.260000000        0.192054412E-3      1.01500514        0.196079413E-2      1.03453441   
    0.270000000        0.192548087E-3      1.01502437        0.200617040E-2      1.03472630   
    0.280000000        0.193043674E-3      1.01504364        0.205347936E-2      1.03492244   
    0.290000000        0.193541184E-3      1.01506296        0.210283500E-2      1.03512300   
    0.300000000        0.194040626E-3      1.01508234        0.215435980E-2      1.03532816   
    0.310000000        0.194542009E-3      1.01510176        0.220818549E-2      1.03553811   
    0.320000000        0.195045346E-3      1.01512123        0.226445388E-2      1.03575305   
    0.330000000        0.195550644E-3      1.01514076        0.232331786E-2      1.03597318   
    0.340000000        0.196057916E-3      1.01516033        0.238494236E-2      1.03619874   
    0.350000000        0.196567171E-3      1.01517995        0.244950554E-2      1.03642995   
    0.360000000        0.197078419E-3      1.01519963        0.251720006E-2      1.03666706   
    0.370000000        0.197591671E-3      1.01521936        0.258823452E-2      1.03691035   
    0.380000000        0.198106938E-3      1.01523913        0.266283501E-2      1.03716008   
    0.390000000        0.198624230E-3      1.01525896        0.274124693E-2      1.03741655   
    0.400000000        0.199143558E-3      1.01527885        0.282373692E-2      1.03768007   
    0.410000000        0.199664932E-3      1.01529878        0.291059515E-2      1.03795098   
    0.420000000        0.200188364E-3      1.01531876        0.300213773E-2      1.03822963   
    0.430000000        0.200713864E-3      1.01533880        0.309870959E-2      1.03851639   
    0.440000000        0.201241443E-3      1.01535889        0.320068757E-2      1.03881165   
    0.450000000        0.201771113E-3      1.01537904        0.330848404E-2      1.03911585   
    0.460000000        0.202302884E-3      1.01539923        0.342255087E-2      1.03942942   
    0.470000000        0.202836767E-3      1.01541948        0.354338399E-2      1.03975285   
    0.480000000        0.203372774E-3      1.01543979        0.367152859E-2      1.04008663   
    0.490000000        0.203910917E-3      1.01546014        0.380758494E-2      1.04043132   
    0.500000000        0.204451206E-3      1.01548056        0.395221511E-2      1.04078749   
    0.510000000        0.204993653E-3      1.01550102        0.410615055E-2      1.04115573   
    0.520000000        0.205538270E-3      1.01552154        0.427020084E-2      1.04153672   
    0.530000000        0.206085069E-3      1.01554211        0.444526363E-2      1.04193113   
    0.540000000        0.206634060E-3      1.01556274        0.463233614E-2      1.04233969   
    0.550000000        0.207185256E-3      1.01558343        0.483252828E-2      1.04276320   
    0.560000000        0.207738669E-3      1.01560416        0.504707786E-2      1.04320248   
    0.570000000        0.208294310E-3      1.01562496        0.527736813E-2      1.04365841   
    0.580000000        0.208852193E-3      1.01564581        0.552494802E-2      1.04413191   
    0.590000000        0.209412328E-3      1.01566671        0.579155572E-2      1.04462396   
    0.600000000        0.209974728E-3      1.01568768        0.607914596E-2      1.04513560   
    0.610000000        0.210539406E-3      1.01570869        0.638992182E-2      1.04566790   
    0.620000000        0.211106373E-3      1.01572977        0.672637178E-2      1.04622200   
    0.630000000        0.211675643E-3      1.01575090        0.709131305E-2      1.04679904   
    0.640000000        0.212247227E-3      1.01577209        0.748794208E-2      1.04740022   
    0.650000000        0.212821139E-3      1.01579333        0.791989381E-2      1.04802675   
    0.660000000        0.213397390E-3      1.01581464        0.839131093E-2      1.04867981   
    0.670000000        0.213975995E-3      1.01583600        0.890692494E-2      1.04936056   
    0.680000000        0.214556966E-3      1.01585742        0.947215107E-2      1.05007007   
    0.690000000        0.215140315E-3      1.01587889        0.100931990E-1      1.05080927   
    0.700000000        0.215726057E-3      1.01590043        0.107772014E-1      1.05157884   
    0.710000000        0.216314203E-3      1.01592202        0.115323638E-1      1.05237914   
    0.720000000        0.216904768E-3      1.01594368        0.123681349E-1      1.05321005   
    0.730000000        0.217497764E-3      1.01596539        0.132954016E-1      1.05407074   
    0.740000000        0.218093206E-3      1.01598716        0.143267054E-1      1.05495940   
    0.750000000        0.218691106E-3      1.01600899        0.154764773E-1      1.05587290   
    0.760000000        0.219291479E-3      1.01603088        0.167612814E-1      1.05680625   
    0.770000000        0.219894338E-3      1.01605283        0.182000472E-1      1.05775198   
    0.780000000        0.220499696E-3      1.01607484        0.198142584E-1      1.05869925   
    0.790000000        0.221107569E-3      1.01609691        0.216280368E-1      1.05963267   
    0.800000000        0.221717969E-3      1.01611905        0.236680284E-1      1.06053089   
    0.810000000        0.222330911E-3      1.01614124        0.259629386E-1      1.06136464   
    0.820000000        0.222946409E-3      1.01616350        0.285424877E-1      1.06209445   
    0.830000000        0.223564478E-3      1.01618581        0.314354507E-1      1.06266787   
    0.840000000        0.224185132E-3      1.01620819        0.346663205E-1      1.06301646   
    0.850000000        0.224808385E-3      1.01623063        0.382500156E-1      1.06305297   
    0.860000000        0.225434252E-3      1.01625314        0.421840221E-1      1.06266942   
    0.870000000        0.226062748E-3      1.01627570        0.464375635E-1      1.06173781   
    0.880000000        0.226693887E-3      1.01629833        0.509380861E-1      1.06011552   
    0.890000000        0.227327685E-3      1.01632102        0.555568475E-1      1.05765833   
    0.900000000        0.227964157E-3      1.01634378        0.600978251E-1      1.05424362   
    0.910000000        0.228603318E-3      1.01636660        0.642969984E-1      1.04980373   
    0.920000000        0.229245182E-3      1.01638948        0.678404340E-1      1.04436442   
    0.930000000        0.229889766E-3      1.01641243        0.704064915E-1      1.03807587   
    0.940000000        0.230537085E-3      1.01643544        0.717277566E-1      1.03121938   
    0.950000000        0.231187154E-3      1.01645852        0.716548840E-1      1.02417664   
    0.960000000        0.231839989E-3      1.01648166        0.701966759E-1      1.01736455   
    0.970000000        0.232495607E-3      1.01650487        0.675176355E-1      1.01115670   
    0.980000000        0.233154022E-3      1.01652814        0.638941921E-1      1.00582113   
    0.990000000        0.233815252E-3      1.01655148        0.596498730E-1      1.00149385   
     1.00000000        0.234479311E-3      1.01657489        0.550948590E-1     0.998188875   
     1.01000000        0.235146218E-3      1.01659836        0.504863709E-1     0.995830853   
     1.02000000        0.235815986E-3      1.01662190        0.460129542E-1     0.994293419   
     1.03000000        0.236488635E-3      1.01664550        0.417967105E-1     0.993431620   
     1.04000000        0.237164179E-3      1.01666917        0.379050322E-1     0.993103932   
     1.05000000        0.237842636E-3      1.01669292        0.343650704E-1     0.993184339   
     1.06000000        0.238524023E-3      1.01671672        0.311770131E-1     0.993567119   
     1.07000000        0.239208356E-3      1.01674060        0.283245939E-1     0.994167129   
     1.08000000        0.239895654E-3      1.01676455        0.257826500E-1     0.994917791   
     1.09000000        0.240585932E-3      1.01678856        0.235221750E-1     0.995768187   
     1.10000000        0.241279209E-3      1.01681264        0.215134835E-1     0.996680054   
     1.11000000        0.241975502E-3      1.01683680        0.197280533E-1     0.997625084   
     1.12000000        0.242674828E-3      1.01686102        0.181394941E-1     0.998582630   
     1.13000000        0.243377206E-3      1.01688531        0.167239654E-1     0.999537873   
     1.14000000        0.244082653E-3      1.01690967        0.154602636E-1      1.00048037   
     1.15000000        0.244791188E-3      1.01693411        0.143297221E-1      1.00140296   
     1.16000000        0.245502828E-3      1.01695861        0.133160169E-1      1.00230088   
     1.17000000        0.246217592E-3      1.01698319        0.124049308E-1      1.00317116   
     1.18000000        0.246935499E-3      1.01700783        0.115841106E-1      1.00401212   
     1.19000000        0.247656566E-3      1.01703255        0.108428333E-1      1.00482301   
     1.20000000        0.248380813E-3      1.01705734        0.101717922E-1      1.00560377   
     1.21000000        0.249108258E-3      1.01708221        0.956290491E-2      1.00635479   
     1.22000000        0.249838921E-3      1.01710714        0.900914427E-2      1.00707681   
     1.23000000        0.250572820E-3      1.01713215        0.850439178E-2      1.00777077   
     1.24000000        0.251309976E-3      1.01715724        0.804331066E-2      1.00843775   
     1.25000000        0.252050406E-3      1.01718239        0.762123700E-2      1.00907890   
     1.26000000        0.252794132E-3      1.01720763        0.723408641E-2      1.00969543   
     1.27000000        0.253541173E-3      1.01723293        0.687827434E-2      1.01028855   
     1.28000000        0.254291548E-3      1.01725831        0.655064793E-2      1.01085943   
     1.29000000        0.255045278E-3      1.01728377        0.624842780E-2      1.01140923   
     1.30000000        0.255802382E-3      1.01730930        0.596915831E-2      1.01193909   
     1.31000000        0.256562882E-3      1.01733491        0.571066500E-2      1.01245007   
     1.32000000        0.257326797E-3      1.01736059        0.547101813E-2      1.01294321   
     1.33000000        0.258094149E-3      1.01738635        0.524850140E-2      1.01341946   
     1.34000000        0.258864958E-3      1.01741218        0.504158506E-2      1.01387978   
     1.35000000        0.259639245E-3      1.01743810        0.484890274E-2      1.01432501   
     1.36000000        0.260417031E-3      1.01746409        0.466923153E-2      1.01475600   
     1.37000000        0.261198338E-3      1.01749016        0.450147466E-2      1.01517351   
     1.38000000        0.261983186E-3      1.01751630        0.434464659E-2      1.01557828   
     1.39000000        0.262771599E-3      1.01754253        0.419786004E-2      1.01597099   
     1.40000000        0.263563597E-3      1.01756884        0.406031466E-2      1.01635230   
     1.41000000        0.264359202E-3      1.01759522        0.393128726E-2      1.01672281   
     1.42000000        0.265158436E-3      1.01762168        0.381012316E-2      1.01708309   
     1.43000000        0.265961323E-3      1.01764823        0.369622874E-2      1.01743369   
     1.44000000        0.266767884E-3      1.01767485        0.358906479E-2      1.01777510   
     1.45000000        0.267578142E-3      1.01770156        0.348814077E-2      1.01810780   
     1.46000000        0.268392119E-3      1.01772834        0.339300969E-2      1.01843225   
     1.47000000        0.269209840E-3      1.01775521        0.330326366E-2      1.01874885   
     1.48000000        0.270031326E-3      1.01778216        0.321852984E-2      1.01905801   
     1.49000000        0.270856602E-3      1.01780919        0.313846703E-2      1.01936010   
     1.50000000        0.271685691E-3      1.01783630        0.306276246E-2      1.01965547   
     1.51000000        0.272518616E-3      1.01786350        0.299112909E-2      1.01994445   
     1.52000000        0.273355403E-3      1.01789078        0.292330313E-2      1.02022737   
     1.53000000        0.274196073E-3      1.01791815        0.285904183E-2      1.02050450   
     1.54000000        0.275040653E-3      1.01794560        0.279812152E-2      1.02077614   
     1.55000000        0.275889167E-3      1.01797313        0.274033590E-2      1.02104254   
     1.56000000        0.276741639E-3      1.01800075        0.268549441E-2      1.02130395   
     1.57000000        0.277598094E-3      1.01802845        0.263342088E-2      1.02156062   
     1.58000000        0.278458557E-3      1.01805624        0.258395221E-2      1.02181276   
     1.59000000        0.279323054E-3      1.01808412        0.253693729E-2      1.02206059   
     1.60000000        0.280191609E-3      1.01811208        0.249223592E-2      1.02230431   
     1.61000000        0.281064250E-3      1.01814013        0.244971794E-2      1.02254410   
     1.62000000        0.281941001E-3      1.01816826        0.240926234E-2      1.02278016   
     1.63000000        0.282821890E-3      1.01819649        0.237075654E-2      1.02301264   
     1.64000000        0.283706941E-3      1.01822480        0.233409570E-2      1.02324172   
     1.65000000        0.284596182E-3      1.01825320        0.229918209E-2      1.02346755   
     1.66000000        0.285489639E-3      1.01828169        0.226592454E-2      1.02369028   
     1.67000000        0.286387340E-3      1.01831027        0.223423789E-2      1.02391004   
     1.68000000        0.287289312E-3      1.01833894        0.220404259E-2      1.02412698   
     1.69000000        0.288195581E-3      1.01836770        0.217526421E-2      1.02434122   
     1.70000000        0.289106176E-3      1.01839655        0.214783308E-2      1.02455289   
     1.71000000        0.290021125E-3      1.01842549        0.212168393E-2      1.02476209   
     1.72000000        0.290940456E-3      1.01845453        0.209675559E-2      1.02496894   
     1.73000000        0.291864196E-3      1.01848365        0.207299065E-2      1.02517356   
     1.74000000        0.292792375E-3      1.01851287        0.205033520E-2      1.02537603   
     1.75000000        0.293725022E-3      1.01854218        0.202873863E-2      1.02557645   
     1.76000000        0.294662165E-3      1.01857159        0.200815332E-2      1.02577493   
     1.77000000        0.295603833E-3      1.01860108        0.198853450E-2      1.02597155   
     1.78000000        0.296550057E-3      1.01863068        0.196984000E-2      1.02616639   
     1.79000000        0.297500865E-3      1.01866036        0.195203012E-2      1.02635954   
     1.80000000        0.298456289E-3      1.01869015        0.193506743E-2      1.02655107   
     1.81000000        0.299416358E-3      1.01872002        0.191891664E-2      1.02674107   
     1.82000000        0.300381102E-3      1.01875000        0.190354446E-2      1.02692960   
     1.83000000        0.301350553E-3      1.01878007        0.188891944E-2      1.02711674   
     1.84000000        0.302324742E-3      1.01881024        0.187501189E-2      1.02730255   
     1.85000000        0.303303699E-3      1.01884050        0.186179376E-2      1.02748710   
     1.86000000        0.304287457E-3      1.01887087        0.184923850E-2      1.02767045   
     1.87000000        0.305276047E-3      1.01890133        0.183732103E-2      1.02785265   
     1.88000000        0.306269501E-3      1.01893189        0.182601758E-2      1.02803378   
     1.89000000        0.307267852E-3      1.01896255        0.181530569E-2      1.02821388   
     1.90000000        0.308271132E-3      1.01899331        0.180516404E-2      1.02839300   
     1.91000000        0.309279374E-3      1.01902417        0.179557247E-2      1.02857121   
     1.92000000        0.310292612E-3      1.01905513        0.178651184E-2      1.02874855   
     1.93000000        0.311310879E-3      1.01908620        0.177796401E-2      1.02892507   
     1.94000000        0.312334208E-3      1.01911736        0.176991179E-2      1.02910081   
     1.95000000        0.313362633E-3      1.01914863        0.176233885E-2      1.02927583   
     1.96000000        0.314396190E-3      1.01918000        0.175522970E-2      1.02945017   
     1.97000000        0.315434912E-3      1.01921147        0.174856962E-2      1.02962386   
     1.98000000        0.316478835E-3      1.01924305        0.174234466E-2      1.02979696   
     1.99000000        0.317527994E-3      1.01927473        0.173654154E-2      1.02996950   
     2.00000000        0.318582424E-3      1.01930652        0.173114766E-2      1.03014153   
     2.01000000        0.319642161E-3      1.01933842        0.172615103E-2      1.03031307   
     2.02000000        0.320707242E-3      1.01937041        0.172154029E-2      1.03048417   
     2.03000000        0.321777702E-3      1.01940252        0.171730460E-2      1.03065487   
     2.04000000        0.322853579E-3      1.01943473        0.171343369E-2      1.03082519   
     2.05000000        0.323934910E-3      1.01946706        0.170991776E-2      1.03099518   
     2.06000000        0.325021731E-3      1.01949949        0.170674752E-2      1.03116486   
     2.07000000        0.326114082E-3      1.01953202        0.170391412E-2      1.03133427   
     2.08000000        0.327212000E-3      1.01956467        0.170140917E-2      1.03150344   
     2.09000000        0.328315523E-3      1.01959743        0.169922466E-2      1.03167241   
     2.10000000        0.329424691E-3      1.01963030        0.169735299E-2      1.03184120   
     2.11000000        0.330539542E-3      1.01966328        0.169578693E-2      1.03200984   
     2.12000000        0.331660115E-3      1.01969637        0.169451962E-2      1.03217836   
     2.13000000        0.332786452E-3      1.01972957        0.169354452E-2      1.03234679   
     2.14000000        0.333918591E-3      1.01976289        0.169285543E-2      1.03251515   
     2.15000000        0.335056574E-3      1.01979631        0.169244645E-2      1.03268349   
     2.16000000        0.336200440E-3      1.01982986        0.169231199E-2      1.03285181   
     2.17000000        0.337350233E-3      1.01986352        0.169244673E-2      1.03302015   
     2.18000000        0.338505992E-3      1.01989729        0.169284563E-2      1.03318853   
     2.19000000        0.339667761E-3      1.01993118        0.169350389E-2      1.03335699   
     2.20000000        0.340835581E-3      1.01996518        0.169441699E-2      1.03352553   
     2.21000000        0.342009495E-3      1.01999930        0.169558063E-2      1.03369420   
     2.22000000        0.343189547E-3      1.02003354        0.169699073E-2      1.03386300   
     2.23000000        0.344375780E-3      1.02006790        0.169864346E-2      1.03403198   
     2.24000000        0.345568238E-3      1.02010238        0.170053515E-2      1.03420114   
     2.25000000        0.346766965E-3      1.02013697        0.170266240E-2      1.03437051   
     2.26000000        0.347972006E-3      1.02017169        0.170502194E-2      1.03454012   
     2.27000000        0.349183406E-3      1.02020652        0.170761073E-2      1.03470999   
     2.28000000        0.350401211E-3      1.02024148        0.171042589E-2      1.03488013   
     2.29000000        0.351625467E-3      1.02027656        0.171346473E-2      1.03505058   
     2.30000000        0.352856220E-3      1.02031176        0.171672472E-2      1.03522135   
     2.31000000        0.354093517E-3      1.02034709        0.172020349E-2      1.03539247   
     2.32000000        0.355337406E-3      1.02038254        0.172389883E-2      1.03556395   
     2.33000000        0.356587933E-3      1.02041811        0.172780868E-2      1.03573582   
     2.34000000        0.357845148E-3      1.02045381        0.173193113E-2      1.03590809   
     2.35000000        0.359109098E-3      1.02048964        0.173626441E-2      1.03608080   
     2.36000000        0.360379834E-3      1.02052559        0.174080690E-2      1.03625395   
     2.37000000        0.361657403E-3      1.02056167        0.174555710E-2      1.03642758   
     2.38000000        0.362941857E-3      1.02059787        0.175051365E-2      1.03660169   
     2.39000000        0.364233246E-3      1.02063421        0.175567530E-2      1.03677631   
     2.40000000        0.365531621E-3      1.02067068        0.176104096E-2      1.03695147   
     2.41000000        0.366837033E-3      1.02070727        0.176660962E-2      1.03712717   
     2.42000000        0.368149534E-3      1.02074400        0.177238041E-2      1.03730344   
     2.43000000        0.369469177E-3      1.02078085        0.177835257E-2      1.03748031   
     2.44000000        0.370796014E-3      1.02081784        0.178452545E-2      1.03765778   
     2.45000000        0.372130099E-3      1.02085496        0.179089853E-2      1.03783588   
     2.46000000        0.373471486E-3      1.02089222        0.179747136E-2      1.03801463   
     2.47000000        0.374820229E-3      1.02092961        0.180424363E-2      1.03819404   
     2.48000000        0.376176384E-3      1.02096713        0.181121511E-2      1.03837415   
     2.49000000        0.377540005E-3      1.02100479        0.181838570E-2      1.03855496   
     2.50000000        0.378911148E-3      1.02104259        0.182575536E-2      1.03873650   
     2.51000000        0.380289871E-3      1.02108053        0.183332419E-2      1.03891879   
     2.52000000        0.381676230E-3      1.02111860        0.184109237E-2      1.03910184   
     2.53000000        0.383070284E-3      1.02115681        0.184906017E-2      1.03928568   
     2.54000000        0.384472089E-3      1.02119516        0.185722796E-2      1.03947032   
     2.55000000        0.385881706E-3      1.02123365        0.186559621E-2      1.03965579   
     2.56000000        0.387299194E-3      1.02127229        0.187416547E-2      1.03984210   
     2.57000000        0.388724611E-3      1.02131106        0.188293640E-2      1.04002928   
     2.58000000        0.390158020E-3      1.02134998        0.189190975E-2      1.04021734   
     2.59000000        0.391599481E-3      1.02138904        0.190108634E-2      1.04040631   
     2.60000000        0.393049057E-3      1.02142824        0.191046711E-2      1.04059620   
     2.61000000        0.394506808E-3      1.02146759        0.192005306E-2      1.04078704   
     2.62000000        0.395972799E-3      1.02150709        0.192984531E-2      1.04097884   
     2.63000000        0.397447093E-3      1.02154673        0.193984506E-2      1.04117163   
     2.64000000        0.398929754E-3      1.02158652        0.195005358E-2      1.04136542   
     2.65000000        0.400420847E-3      1.02162646        0.196047226E-2      1.04156024   
     2.66000000        0.401920438E-3      1.02166655        0.197110257E-2      1.04175611   
     2.67000000        0.403428593E-3      1.02170679        0.198194605E-2      1.04195304   
     2.68000000        0.404945379E-3      1.02174718        0.199300437E-2      1.04215107   
     2.69000000        0.406470864E-3      1.02178772        0.200427925E-2      1.04235020   
     2.70000000        0.408005115E-3      1.02182842        0.201577254E-2      1.04255047   
     2.71000000        0.409548202E-3      1.02186926        0.202748616E-2      1.04275189   
     2.72000000        0.411100194E-3      1.02191027        0.203942212E-2      1.04295449   
     2.73000000        0.412661162E-3      1.02195143        0.205158253E-2      1.04315828   
     2.74000000        0.414231177E-3      1.02199274        0.206396960E-2      1.04336330   
     2.75000000        0.415810310E-3      1.02203421        0.207658564E-2      1.04356955   
     2.76000000        0.417398635E-3      1.02207584        0.208943303E-2      1.04377707   
     2.77000000        0.418996225E-3      1.02211763        0.210251428E-2      1.04398588   
     2.78000000        0.420603153E-3      1.02215958        0.211583197E-2      1.04419600   
     2.79000000        0.422219496E-3      1.02220169        0.212938881E-2      1.04440746   
     2.80000000        0.423845327E-3      1.02224396        0.214318759E-2      1.04462027   
     2.81000000        0.425480724E-3      1.02228639        0.215723121E-2      1.04483447   
     2.82000000        0.427125764E-3      1.02232899        0.217152268E-2      1.04505007   
     2.83000000        0.428780525E-3      1.02237175        0.218606511E-2      1.04526710   
     2.84000000        0.430445086E-3      1.02241468        0.220086172E-2      1.04548559   
     2.85000000        0.432119527E-3      1.02245778        0.221591584E-2      1.04570556   
     2.86000000        0.433803928E-3      1.02250104        0.223123091E-2      1.04592704   
     2.87000000        0.435498371E-3      1.02254447        0.224681049E-2      1.04615005   
     2.88000000        0.437202938E-3      1.02258807        0.226265826E-2      1.04637462   
     2.89000000        0.438917713E-3      1.02263184        0.227877802E-2      1.04660077   
     2.90000000        0.440642778E-3      1.02267579        0.229517367E-2      1.04682854   
     2.91000000        0.442378220E-3      1.02271990        0.231184926E-2      1.04705794   
     2.92000000        0.444124125E-3      1.02276419        0.232880897E-2      1.04728902   
     2.93000000        0.445880578E-3      1.02280866        0.234605707E-2      1.04752178   
     2.94000000        0.447647669E-3      1.02285330        0.236359801E-2      1.04775628   
     2.95000000        0.449425485E-3      1.02289812        0.238143636E-2      1.04799252   
     2.96000000        0.451214116E-3      1.02294311        0.239957682E-2      1.04823055   
     2.97000000        0.453013654E-3      1.02298829        0.241802424E-2      1.04847040   
     2.98000000        0.454824190E-3      1.02303364        0.243678362E-2      1.04871208   
     2.99000000        0.456645817E-3      1.02307918        0.245586010E-2      1.04895564   
     3.00000000        0.458478628E-3      1.02312490        0.247525899E-2      1.04920111   
     3.01000000        0.460322718E-3      1.02317080        0.249498575E-2      1.04944851   
     3.02000000        0.462178184E-3      1.02321689        0.251504598E-2      1.04969789   
     3.03000000        0.464045122E-3      1.02326316        0.253544550E-2      1.04994926   
     3.04000000        0.465923629E-3      1.02330962        0.255619024E-2      1.05020268   
     3.05000000        0.467813807E-3      1.02335627        0.257728636E-2      1.05045816   
     3.06000000        0.469715754E-3      1.02340310        0.259874016E-2      1.05071575   
     3.07000000        0.471629571E-3      1.02345013        0.262055815E-2      1.05097549   
     3.08000000        0.473555363E-3      1.02349735        0.264274703E-2      1.05123740   
     3.09000000        0.475493232E-3      1.02354476        0.266531369E-2      1.05150152   
     3.10000000        0.477443283E-3      1.02359237        0.268826522E-2      1.05176790   
     3.11000000        0.479405623E-3      1.02364017        0.271160894E-2      1.05203656   
     3.12000000        0.481380359E-3      1.02368817        0.273535235E-2      1.05230756   
     3.13000000        0.483367599E-3      1.02373636        0.275950322E-2      1.05258092   
     3.14000000        0.485367453E-3      1.02378476        0.278406950E-2      1.05285669   
     3.15000000        0.487380033E-3      1.02383335        0.280905942E-2      1.05313491   
     3.16000000        0.489405451E-3      1.02388215        0.283448143E-2      1.05341563   
     3.17000000        0.491443821E-3      1.02393115        0.286034422E-2      1.05369887   
     3.18000000        0.493495258E-3      1.02398035        0.288665678E-2      1.05398470   
     3.19000000        0.495559878E-3      1.02402976        0.291342833E-2      1.05427315   
     3.20000000        0.497637799E-3      1.02407937        0.294066838E-2      1.05456426   
     3.21000000        0.499729142E-3      1.02412920        0.296838674E-2      1.05485809   
     3.22000000        0.501834025E-3      1.02417923        0.299659351E-2      1.05515469   
     3.23000000        0.503952572E-3      1.02422947        0.302529908E-2      1.05545409   
     3.24000000        0.506084906E-3      1.02427993        0.305451417E-2      1.05575635   
     3.25000000        0.508231153E-3      1.02433060        0.308424984E-2      1.05606152   
     3.26000000        0.510391438E-3      1.02438148        0.311451746E-2      1.05636966   
     3.27000000        0.512565891E-3      1.02443258        0.314532877E-2      1.05668080   
     3.28000000        0.514754641E-3      1.02448390        0.317669588E-2      1.05699502   
     3.29000000        0.516957819E-3      1.02453544        0.320863126E-2      1.05731236   
     3.30000000        0.519175559E-3      1.02458719        0.324114777E-2      1.05763287   
     3.31000000        0.521407994E-3      1.02463917        0.327425869E-2      1.05795662   
     3.32000000        0.523655262E-3      1.02469138        0.330797771E-2      1.05828367   
     3.33000000        0.525917501E-3      1.02474380        0.334231895E-2      1.05861407   
     3.34000000        0.528194849E-3      1.02479646        0.337729698E-2      1.05894789   
     3.35000000        0.530487450E-3      1.02484934        0.341292684E-2      1.05928519   
     3.36000000        0.532795445E-3      1.02490246        0.344922406E-2      1.05962602   
     3.37000000        0.535118981E-3      1.02495580        0.348620468E-2      1.05997047   
     3.38000000        0.537458203E-3      1.02500937        0.352388522E-2      1.06031860   
     3.39000000        0.539813262E-3      1.02506319        0.356228280E-2      1.06067047   
     3.40000000        0.542184307E-3      1.02511723        0.360141507E-2      1.06102615   
     3.41000000        0.544571492E-3      1.02517151        0.364130026E-2      1.06138573   
     3.42000000        0.546974971E-3      1.02522604        0.368195723E-2      1.06174927   
     3.43000000        0.549394901E-3      1.02528080        0.372340546E-2      1.06211684   
     3.44000000        0.551831441E-3      1.02533581        0.376566510E-2      1.06248853   
     3.45000000        0.554284752E-3      1.02539106        0.380875696E-2      1.06286442   
     3.46000000        0.556754996E-3      1.02544655        0.385270259E-2      1.06324459   
     3.47000000        0.559242339E-3      1.02550229        0.389752426E-2      1.06362912   
     3.48000000        0.561746947E-3      1.02555828        0.394324502E-2      1.06401809   
     3.49000000        0.564268992E-3      1.02561453        0.398988875E-2      1.06441160   
     3.50000000        0.566808644E-3      1.02567102        0.403748012E-2      1.06480974   
     3.51000000        0.569366078E-3      1.02572777        0.408604470E-2      1.06521260   
     3.52000000        0.571941470E-3      1.02578478        0.413560898E-2      1.06562028   
     3.53000000        0.574534999E-3      1.02584204        0.418620039E-2      1.06603286   
     3.54000000        0.577146847E-3      1.02589956        0.423784734E-2      1.06645047   
     3.55000000        0.579777197E-3      1.02595734        0.429057930E-2      1.06687319   
     3.56000000        0.582426236E-3      1.02601539        0.434442679E-2      1.06730113   
     3.57000000        0.585094153E-3      1.02607370        0.439942147E-2      1.06773441   
     3.58000000        0.587781140E-3      1.02613228        0.445559620E-2      1.06817313   
     3.59000000        0.590487391E-3      1.02619113        0.451298503E-2      1.06861742   
     3.60000000        0.593213103E-3      1.02625025        0.457162333E-2      1.06906738   
     3.61000000        0.595958476E-3      1.02630965        0.463154781E-2      1.06952314   
     3.62000000        0.598723713E-3      1.02636931        0.469279658E-2      1.06998484   
     3.63000000        0.601509019E-3      1.02642926        0.475540922E-2      1.07045258   
     3.64000000        0.604314603E-3      1.02648948        0.481942686E-2      1.07092652   
     3.65000000        0.607140676E-3      1.02654998        0.488489226E-2      1.07140679   
     3.66000000        0.609987454E-3      1.02661077        0.495184984E-2      1.07189352   
     3.67000000        0.612855154E-3      1.02667184        0.502034583E-2      1.07238687   
     3.68000000        0.615743997E-3      1.02673320        0.509042830E-2      1.07288698   
     3.69000000        0.618654207E-3      1.02679485        0.516214727E-2      1.07339400   
     3.70000000        0.621586013E-3      1.02685679        0.523555481E-2      1.07390811   
     3.71000000        0.624539644E-3      1.02691902        0.531070515E-2      1.07442945   
     3.72000000        0.627515337E-3      1.02698155        0.538765478E-2      1.07495820   
     3.73000000        0.630513328E-3      1.02704438        0.546646254E-2      1.07549454   
     3.74000000        0.633533859E-3      1.02710750        0.554718978E-2      1.07603864   
     3.75000000        0.636577175E-3      1.02717093        0.562990048E-2      1.07659069   
     3.76000000        0.639643527E-3      1.02723467        0.571466135E-2      1.07715089   
     3.77000000        0.642733166E-3      1.02729871        0.580154203E-2      1.07771942   
     3.78000000        0.645846350E-3      1.02736306        0.589061521E-2      1.07829650   
     3.79000000        0.648983340E-3      1.02742772        0.598195680E-2      1.07888234   
     3.80000000        0.652144400E-3      1.02749269        0.607564610E-2      1.07947715   
     3.81000000        0.655329800E-3      1.02755798        0.617176598E-2      1.08008117   
     3.82000000        0.658539814E-3      1.02762359        0.627040312E-2      1.08069462   
     3.83000000        0.661774718E-3      1.02768953        0.637164814E-2      1.08131776   
     3.84000000        0.665034797E-3      1.02775578        0.647559591E-2      1.08195082   
     3.85000000        0.668320336E-3      1.02782236        0.658234572E-2      1.08259407   
     3.86000000        0.671631627E-3      1.02788928        0.669200157E-2      1.08324778   
     3.87000000        0.674968967E-3      1.02795652        0.680467242E-2      1.08391222   
     3.88000000        0.678332658E-3      1.02802409        0.692047250E-2      1.08458769   
     3.89000000        0.681723004E-3      1.02809201        0.703952162E-2      1.08527449   
     3.90000000        0.685140319E-3      1.02816026        0.716194548E-2      1.08597292   
     3.91000000        0.688584918E-3      1.02822885        0.728787602E-2      1.08668331   
     3.92000000        0.692057125E-3      1.02829779        0.741745184E-2      1.08740599   
     3.93000000        0.695557266E-3      1.02836708        0.755081856E-2      1.08814130   
     3.94000000        0.699085674E-3      1.02843672        0.768812929E-2      1.08888961   
     3.95000000        0.702642690E-3      1.02850671        0.782954507E-2      1.08965130   
     3.96000000        0.706228658E-3      1.02857705        0.797523540E-2      1.09042675   
     3.97000000        0.709843929E-3      1.02864776        0.812537873E-2      1.09121636   
     3.98000000        0.713488860E-3      1.02871882        0.828016311E-2      1.09202056   
     3.99000000        0.717163815E-3      1.02879026        0.843978676E-2      1.09283978   
     4.00000000        0.720869165E-3      1.02886206        0.860445876E-2      1.09367448   
     4.01000000        0.724605286E-3      1.02893423        0.877439975E-2      1.09452513   
     4.02000000        0.728372562E-3      1.02900677        0.894984277E-2      1.09539223   
     4.03000000        0.732171383E-3      1.02907969        0.913103405E-2      1.09627630   
     4.04000000        0.736002149E-3      1.02915299        0.931823392E-2      1.09717787   
     4.05000000        0.739865264E-3      1.02922668        0.951171782E-2      1.09809749   
     4.06000000        0.743761142E-3      1.02930075        0.971177736E-2      1.09903577   
     4.07000000        0.747690203E-3      1.02937521        0.991872147E-2      1.09999330   
     4.08000000        0.751652877E-3      1.02945006        0.101328776E-1      1.10097072   
     4.09000000        0.755649601E-3      1.02952531        0.103545933E-1      1.10196870   
     4.10000000        0.759680821E-3      1.02960096        0.105842372E-1      1.10298795   
     4.11000000        0.763746991E-3      1.02967702        0.108222013E-1      1.10402917   
     4.12000000        0.767848575E-3      1.02975348        0.110689021E-1      1.10509315   
     4.13000000        0.771986045E-3      1.02983035        0.113247828E-1      1.10618068   
     4.14000000        0.776159884E-3      1.02990763        0.115903153E-1      1.10729259   
     4.15000000        0.780370583E-3      1.02998533        0.118660026E-1      1.10842976   
     4.16000000        0.784618646E-3      1.03006346        0.121523810E-1      1.10959312   
     4.17000000        0.788904583E-3      1.03014201        0.124500230E-1      1.11078363   
     4.18000000        0.793228918E-3      1.03022098        0.127595402E-1      1.11200229   
     4.19000000        0.797592186E-3      1.03030039        0.130815866E-1      1.11325018   
     4.20000000        0.801994930E-3      1.03038024        0.134168621E-1      1.11452842   
     4.21000000        0.806437709E-3      1.03046053        0.137661163E-1      1.11583818   
     4.22000000        0.810921090E-3      1.03054126        0.141301529E-1      1.11718070   
     4.23000000        0.815445656E-3      1.03062244        0.145098348E-1      1.11855727   
     4.24000000        0.820011999E-3      1.03070407        0.149060885E-1      1.11996929   
     4.25000000        0.824620728E-3      1.03078616        0.153199108E-1      1.12141818   
     4.26000000        0.829272462E-3      1.03086871        0.157523743E-1      1.12290547   
     4.27000000        0.833967837E-3      1.03095172        0.162046353E-1      1.12443278   
     4.28000000        0.838707502E-3      1.03103521        0.166779410E-1      1.12600181   
     4.29000000        0.843492120E-3      1.03111916        0.171736384E-1      1.12761434   
     4.30000000        0.848322371E-3      1.03120360        0.176931842E-1      1.12927228   
     4.31000000        0.853198951E-3      1.03128852        0.182381552E-1      1.13097763   
     4.32000000        0.858122571E-3      1.03137393        0.188102606E-1      1.13273251   
     4.33000000        0.863093960E-3      1.03145983        0.194113553E-1      1.13453918   
     4.34000000        0.868113864E-3      1.03154622        0.200434550E-1      1.13640001   
     4.35000000        0.873183049E-3      1.03163312        0.207087527E-1      1.13831753   
     4.36000000        0.878302298E-3      1.03172053        0.214096383E-1      1.14029442   
     4.37000000        0.883472413E-3      1.03180844        0.221487189E-1      1.14233351   
     4.38000000        0.888694219E-3      1.03189688        0.229288436E-1      1.14443783   
     4.39000000        0.893968559E-3      1.03198583        0.237531301E-1      1.14661056   
     4.40000000        0.899296299E-3      1.03207532        0.246249950E-1      1.14885513   
     4.41000000        0.904678328E-3      1.03216533        0.255481889E-1      1.15117514   
     4.42000000        0.910115558E-3      1.03225589        0.265268354E-1      1.15357444   
     4.43000000        0.915608924E-3      1.03234698        0.275654754E-1      1.15605712   
     4.44000000        0.921159388E-3      1.03243863        0.286691185E-1      1.15862753   
     4.45000000        0.926767937E-3      1.03253083        0.298433003E-1      1.16129028   
     4.46000000        0.932435585E-3      1.03262359        0.310941495E-1      1.16405031   
     4.47000000        0.938163376E-3      1.03271691        0.324284632E-1      1.16691283   
     4.48000000        0.943952380E-3      1.03281081        0.338537947E-1      1.16988340   
     4.49000000        0.949803699E-3      1.03290529        0.353785535E-1      1.17296791   
     4.50000000        0.955718470E-3      1.03300035        0.370121215E-1      1.17617262   
     4.51000000        0.961697856E-3      1.03309600        0.387649868E-1      1.17950414   
     4.52000000        0.967743062E-3      1.03319225        0.406488981E-1      1.18296948   
     4.53000000        0.973855322E-3      1.03328911        0.426770453E-1      1.18657601   
     4.54000000        0.980035912E-3      1.03338657        0.448642674E-1      1.19033148   
     4.55000000        0.986286145E-3      1.03348465        0.472272967E-1      1.19424399   
     4.56000000        0.992607375E-3      1.03358335        0.497850415E-1      1.19832196   
     4.57000000        0.999000997E-3      1.03368269        0.525589180E-1      1.20257409   
     4.58000000        0.100546845E-2      1.03378266        0.555732372E-1      1.20700924   
     4.59000000        0.101201122E-2      1.03388328        0.588556585E-1      1.21163635   
     4.60000000        0.101863085E-2      1.03398455        0.624377196E-1      1.21646422   
     4.61000000        0.102532892E-2      1.03408648        0.663554583E-1      1.22150129   
     4.62000000        0.103210706E-2      1.03418908        0.706501378E-1      1.22675527   
     4.63000000        0.103896696E-2      1.03429236        0.753690935E-1      1.23223268   
     4.64000000        0.104591039E-2      1.03439632        0.805667174E-1      1.23793817   
     4.65000000        0.105293915E-2      1.03450097        0.863055952E-1      1.24387364   
     4.66000000        0.106005510E-2      1.03460633        0.926578083E-1      1.25003705   
     4.67000000        0.106726020E-2      1.03471239        0.997064058E-1      1.25642075   
     4.68000000        0.107455646E-2      1.03481917        0.107547035         1.26300933   
     4.69000000        0.108194595E-2      1.03492668        0.116289691         1.26977663   
     4.70000000        0.108943084E-2      1.03503492        0.126060500         1.27668185   
     4.71000000        0.109701336E-2      1.03514391        0.137003370         1.28366432   
     4.72000000        0.110469584E-2      1.03525366        0.149281220         1.29063656   
     4.73000000        0.111248070E-2      1.03536417        0.163076286         1.29747528   
     4.74000000        0.112037045E-2      1.03547545        0.178588726         1.30400971   
     4.75000000        0.112836769E-2      1.03558753        0.196032254         1.31000694   
     4.76000000        0.113647513E-2      1.03570039        0.215624947         1.31515388   
     4.77000000        0.114469559E-2      1.03581406        0.237572510         1.31903643   
     4.78000000        0.115303201E-2      1.03592856        0.262040367         1.32111725   
     4.79000000        0.116148746E-2      1.03604388        0.289110176         1.32071596   
     4.80000000        0.117006511E-2      1.03616004        0.318716451         1.31699927   
     4.81000000        0.117876829E-2      1.03627705        0.350561233         1.30899322   
     4.82000000        0.118760047E-2      1.03639493        0.384011218         1.29563596   
     4.83000000        0.119656528E-2      1.03651368        0.417994634         1.27589197   
     4.84000000        0.120566649E-2      1.03663333        0.450934473         1.24894345   
     4.85000000        0.121490807E-2      1.03675388        0.480774458         1.21445116   
     4.86000000        0.122429414E-2      1.03687534        0.505157680         1.17283296   
     4.87000000        0.123382903E-2      1.03699774        0.521782513         1.12545603   
     4.88000000        0.124351729E-2      1.03712108        0.528877616         1.07461767   
     4.89000000        0.125336365E-2      1.03724538        0.525642180         1.02324390   
     4.90000000        0.126337311E-2      1.03737066        0.512464584        0.974364394   
     4.91000000        0.127355089E-2      1.03749693        0.490814927        0.930548168   
     4.92000000        0.128390248E-2      1.03762420        0.462863682        0.893508546   
     4.93000000        0.129443365E-2      1.03775250        0.430997553        0.863986446   
     4.94000000        0.130515047E-2      1.03788184        0.397409367        0.841881069   
     4.95000000        0.131605933E-2      1.03801224        0.363856021        0.826511988   
     4.96000000        0.132716695E-2      1.03814372        0.331584469        0.816895013   
     4.97000000        0.133848041E-2      1.03827629        0.301372808        0.811960925   
     4.98000000        0.135000720E-2      1.03840998        0.273625835        0.810696041   
     4.99000000        0.136175521E-2      1.03854480        0.248480869        0.812214342   
     5.00000000        0.137373278E-2      1.03868079        0.225900317        0.815781788   
     5.01000000        0.138594873E-2      1.03881795        0.205742818        0.820812544   
     5.02000000        0.139841238E-2      1.03895631        0.187813345        0.826851623   
     5.03000000        0.141113362E-2      1.03909589        0.171896108        0.833552956   
     5.04000000        0.142412294E-2      1.03923672        0.157774789        0.840657765   
     5.05000000        0.143739144E-2      1.03937883        0.145244050        0.847975472   
     5.06000000        0.145095094E-2      1.03952224        0.134115361        0.855367838   
     5.07000000        0.146481398E-2      1.03966697        0.124219278        0.862736280   
     5.08000000        0.147899393E-2      1.03981305        0.115405630        0.870011969   
     5.09000000        0.149350500E-2      1.03996052        0.107542549        0.877148228   
     5.10000000        0.150836237E-2      1.04010941        0.100514929        0.884114752   
     5.11000000        0.152358221E-2      1.04025974        0.942226658E-1     0.890893268   
     5.12000000        0.153918182E-2      1.04041155        0.885788863E-1     0.897474263   
     5.13000000        0.155517967E-2      1.04056487        0.835082686E-1     0.903854558   
     5.14000000        0.157159557E-2      1.04071974        0.789455149E-1     0.910035494   
     5.15000000        0.158845073E-2      1.04087620        0.748339915E-1     0.916021593   
     5.16000000        0.160576791E-2      1.04103428        0.711245358E-1     0.921819566   
     5.17000000        0.162357155E-2      1.04119403        0.677744230E-1     0.927437580   
     5.18000000        0.164188795E-2      1.04135549        0.647464747E-1     0.932884731   
     5.19000000        0.166074542E-2      1.04151871        0.620082958E-1     0.938170646   
     5.20000000        0.168017449E-2      1.04168373        0.595316206E-1     0.943305211   
     5.21000000        0.170020809E-2      1.04185060        0.572917564E-1     0.948298371   
     5.22000000        0.172088183E-2      1.04201938        0.552671078E-1     0.953159986   
     5.23000000        0.174223426E-2      1.04219011        0.534387719E-1     0.957899745   
     5.24000000        0.176430712E-2      1.04236286        0.517901931E-1     0.962527100   
     5.25000000        0.178714575E-2      1.04253769        0.503068690E-1     0.967051231   
     5.26000000        0.181079939E-2      1.04271466        0.489760998E-1     0.971481029   
     5.27000000        0.183532164E-2      1.04289384        0.477867744E-1     0.975825091   
     5.28000000        0.186077094E-2      1.04307530        0.467291882E-1     0.980091724   
     5.29000000        0.188721105E-2      1.04325911        0.457948883E-1     0.984288958   
     5.30000000        0.191471172E-2      1.04344535        0.449765414E-1     0.988424560   
     5.31000000        0.194334929E-2      1.04363412        0.442678225E-1     0.992506056   
     5.32000000        0.197320755E-2      1.04382548        0.436633202E-1     0.996540755   
     5.33000000        0.200437852E-2      1.04401955        0.431584578E-1      1.00053577   
     5.34000000        0.203696352E-2      1.04421641        0.427494280E-1      1.00449804   
     5.35000000        0.207107424E-2      1.04441618        0.424331387E-1      1.00843436   
     5.36000000        0.210683408E-2      1.04461896        0.422071704E-1      1.01235141   
     5.37000000        0.214437962E-2      1.04482487        0.420697430E-1      1.01625578   
     5.38000000        0.218386229E-2      1.04503403        0.420196916E-1      1.02015399   
     5.39000000        0.222545035E-2      1.04524658        0.420564514E-1      1.02405250   
     5.40000000        0.226933111E-2      1.04546266        0.421800503E-1      1.02795779   
     5.41000000        0.231571355E-2      1.04568241        0.423911098E-1      1.03187632   
     5.42000000        0.236483129E-2      1.04590598        0.426908544E-1      1.03581460   
     5.43000000        0.241694608E-2      1.04613355        0.430811289E-1      1.03977921   
     5.44000000        0.247235180E-2      1.04636527        0.435644247E-1      1.04377679   
     5.45000000        0.253137917E-2      1.04660133        0.441439161E-1      1.04781411   
     5.46000000        0.259440120E-2      1.04684193        0.448235055E-1      1.05189808   
     5.47000000        0.266183954E-2      1.04708724        0.456078812E-1      1.05603575   
     5.48000000        0.273417195E-2      1.04733747        0.465025874E-1      1.06023435   
     5.49000000        0.281194096E-2      1.04759282        0.475141079E-1      1.06450132   
     5.50000000        0.289576408E-2      1.04785350        0.486499672E-1      1.06884432   
     5.51000000        0.298634572E-2      1.04811970        0.499188496E-1      1.07327122   
     5.52000000        0.308449112E-2      1.04839160        0.513307401E-1      1.07779013   
     5.53000000        0.319112264E-2      1.04866939        0.528970906E-1      1.08240940   
     5.54000000        0.330729879E-2      1.04895320        0.546310158E-1      1.08713760   
     5.55000000        0.343423622E-2      1.04924313        0.565475228E-1      1.09198350   
     5.56000000        0.357333512E-2      1.04953920        0.586637815E-1      1.09695602   
     5.57000000        0.372620823E-2      1.04984136        0.609994422E-1      1.10206416   
     5.58000000        0.389471336E-2      1.05014940        0.635770078E-1      1.10731688   
     5.59000000        0.408098921E-2      1.05046294        0.664222711E-1      1.11272298   
     5.60000000        0.428749316E-2      1.05078135        0.695648263E-1      1.11829082   
     5.61000000        0.451703899E-2      1.05110364        0.730386672E-1      1.12402807   
     5.62000000        0.477283003E-2      1.05142837        0.768828834E-1      1.12994126   
     5.63000000        0.505848043E-2      1.05175346        0.811424673E-1      1.13603519   
     5.64000000        0.537801227E-2      1.05207600        0.858692408E-1      1.14231212   
     5.65000000        0.573580870E-2      1.05239195        0.911229094E-1      1.14877074   
     5.66000000        0.613649262E-2      1.05269587        0.969722370E-1      1.15540469   
     5.67000000        0.658468558E-2      1.05298042        0.103496324         1.16220060   
     5.68000000        0.708458287E-2      1.05323599        0.110785939         1.16913548   
     5.69000000        0.763926095E-2      1.05345017        0.118944796         1.17617324   
     5.70000000        0.824962074E-2      1.05360741        0.128090614         1.18326005   
     5.71000000        0.891288345E-2      1.05368888        0.138355635         1.19031827   
     5.72000000        0.962062720E-2      1.05367303        0.149886106         1.19723859   
     5.73000000        0.103565309E-1      1.05353705        0.162839933         1.20387001   
     5.74000000        0.110943151E-1      1.05325980        0.177381277         1.21000742   
     5.75000000        0.117968093E-1      1.05282649        0.193670345         1.21537698   
     5.76000000        0.124174345E-1      1.05223450        0.211845895         1.21961996   
     5.77000000        0.129052499E-1      1.05149902        0.231997416         1.22227735   
     5.78000000        0.132136150E-1      1.05065602        0.254123654         1.22277956   
     5.79000000        0.133105292E-1      1.04975987        0.278075268         1.22044928   
     5.80000000        0.131869063E-1      1.04887516        0.303482924         1.21452925   
     5.81000000        0.128590888E-1      1.04806463        0.329680023         1.20425032   
     5.82000000        0.123643803E-1      1.04737792        0.355642114         1.18895348   
     5.83000000        0.117517360E-1      1.04684488        0.379980286         1.16826708   
     5.84000000        0.110715846E-1      1.04647506        0.401033823         1.14231283   
     5.85000000        0.103681189E-1      1.04626166        0.417091906         1.11187546   
     5.86000000        0.967536277E-2      1.04618746        0.426723401         1.07844475   
     5.87000000        0.901653262E-2      1.04623046        0.429121781         1.04405908   
     5.88000000        0.840542051E-2      1.04636796        0.424327825         1.01096079   
     5.89000000        0.784858614E-2      1.04657913        0.413226477        0.981174802   
     5.90000000        0.734756091E-2      1.04684609        0.397319682        0.956168336   
     5.91000000        0.690068413E-2      1.04715422        0.378381151        0.936700342   
     5.92000000        0.650447089E-2      1.04749201        0.358130044        0.922868061   
     5.93000000        0.615455259E-2      1.04785054        0.338014487        0.914278113   
     5.94000000        0.584628190E-2      1.04822311        0.319123874        0.910251027   
     5.95000000        0.557509620E-2      1.04860472        0.302199180        0.909995188   
     5.96000000        0.533671814E-2      1.04899171        0.287695964        0.912724607   
     5.97000000        0.512725125E-2      1.04938145        0.275863085        0.917722224   
     5.98000000        0.494321140E-2      1.04977209        0.266815379        0.924362344   
     5.99000000        0.478152104E-2      1.05016233        0.260591112        0.932107078   
     6.00000000        0.463948343E-2      1.05055134        0.257192584        0.940488325   
     6.01000000        0.451474756E-2      1.05093856        0.256611442        0.949082726   
     6.02000000        0.440527012E-2      1.05132371        0.258840826        0.957483711   
     6.03000000        0.430927807E-2      1.05170664        0.263875758        0.965272882   
     6.04000000        0.422523374E-2      1.05208735        0.271701838        0.971992235   
     6.05000000        0.415180332E-2      1.05246589        0.282271092        0.977119394   
     6.06000000        0.408782892E-2      1.05284242        0.295463003        0.980049795   
     6.07000000        0.403230422E-2      1.05321710        0.311029314        0.980092944   
     6.08000000        0.398435334E-2      1.05359013        0.328524269        0.976493806   
     6.09000000        0.394321269E-2      1.05396173        0.347229177        0.968493533   
     6.10000000        0.390821541E-2      1.05433213        0.366092268        0.955442502   
     6.11000000        0.387877808E-2      1.05470155        0.383719378        0.936967095   
     6.12000000        0.385438926E-2      1.05507023        0.398458843        0.913165410   
     6.13000000        0.383459988E-2      1.05543840        0.408609798        0.884770274   
     6.14000000        0.381901487E-2      1.05580628        0.412735128        0.853192233   
     6.15000000        0.380728608E-2      1.05617408        0.409991472        0.820373588   
     6.16000000        0.379910622E-2      1.05654201        0.400345009        0.788461197   
     6.17000000        0.379420364E-2      1.05691028        0.384572259        0.759403153   
     6.18000000        0.379233786E-2      1.05727909        0.364045218        0.734620099   
     6.19000000        0.379329573E-2      1.05764862        0.340400696        0.714857302   
     6.20000000        0.379688813E-2      1.05801905        0.315225231        0.700226381   
     6.21000000        0.380294709E-2      1.05839057        0.289843976        0.690368429   
     6.22000000        0.381132334E-2      1.05876334        0.265233025        0.684651159   
     6.23000000        0.382188417E-2      1.05913753        0.242026390        0.682338148   
     6.24000000        0.383451155E-2      1.05951329        0.220574271        0.682705115   
     6.25000000        0.384910055E-2      1.05989078        0.201017037        0.685104659   
     6.26000000        0.386555793E-2      1.06027015        0.183353939        0.688992602   
     6.27000000        0.388380087E-2      1.06065155        0.167497865        0.693930492   
     6.28000000        0.390375597E-2      1.06103511        0.153314880        0.699575725   
     6.29000000        0.392535826E-2      1.06142097        0.140650762        0.705666760   
     6.30000000        0.394855041E-2      1.06180927        0.129347653        0.712007691   
     6.31000000        0.397328199E-2      1.06220014        0.119253780        0.718454223   
     6.32000000        0.399950888E-2      1.06259371        0.110228583        0.724901833   
     6.33000000        0.402719266E-2      1.06299011        0.102144940        0.731276199   
     6.34000000        0.405630017E-2      1.06338946        0.948896410E-1     0.737525680   
     6.35000000        0.408680308E-2      1.06379189        0.883628817E-1     0.743615520   
     6.36000000        0.411867749E-2      1.06419752        0.824772448E-1     0.749523430   
     6.37000000        0.415190364E-2      1.06460647        0.771564676E-1     0.755236256   
     6.38000000        0.418646558E-2      1.06501886        0.723341651E-1     0.760747475   
     6.39000000        0.422235099E-2      1.06543481        0.679526038E-1     0.766055336   
     6.40000000        0.425955089E-2      1.06585445        0.639615727E-1     0.771161463   
     6.41000000        0.429805952E-2      1.06627789        0.603173721E-1     0.776069835   
     6.42000000        0.433787412E-2      1.06670526        0.569819235E-1     0.780786018   
     6.43000000        0.437899486E-2      1.06713667        0.539219938E-1     0.785316612   
     6.44000000        0.442142470E-2      1.06757224        0.511085251E-1     0.789668839   
     6.45000000        0.446516930E-2      1.06801210        0.485160591E-1     0.793850247   
     6.46000000        0.451023696E-2      1.06845637        0.461222427E-1     0.797868495   
     6.47000000        0.455663857E-2      1.06890518        0.439074055E-1     0.801731201   
     6.48000000        0.460438760E-2      1.06935864        0.418541980E-1     0.805445837   
     6.49000000        0.465350007E-2      1.06981688        0.399472828E-1     0.809019653   
     6.50000000        0.470399455E-2      1.07028004        0.381730697E-1     0.812459633   
     6.51000000        0.475589223E-2      1.07074825        0.365194893E-1     0.815772467   
     6.52000000        0.480921693E-2      1.07122162        0.349757983E-1     0.818964530   
     6.53000000        0.486399517E-2      1.07170031        0.335324125E-1     0.822041882   
     6.54000000        0.492025628E-2      1.07218444        0.321807632E-1     0.825010267   
     6.55000000        0.497803250E-2      1.07267416        0.309131731E-1     0.827875119   
     6.56000000        0.503735910E-2      1.07316960        0.297227495E-1     0.830641572   
     6.57000000        0.509827459E-2      1.07367092        0.286032911E-1     0.833314469   
     6.58000000        0.516082086E-2      1.07417825        0.275492081E-1     0.835898381   
     6.59000000        0.522504344E-2      1.07469176        0.265554519E-1     0.838397615   
     6.60000000        0.529099175E-2      1.07521160        0.256174548E-1     0.840816229   
     6.61000000        0.535871941E-2      1.07573792        0.247310763E-1     0.843158050   
     6.62000000        0.542828461E-2      1.07627089        0.238925569E-1     0.845426681   
     6.63000000        0.549975048E-2      1.07681067        0.230984776E-1     0.847625520   
     6.64000000        0.557318564E-2      1.07735745        0.223457240E-1     0.849757771   
     6.65000000        0.564866465E-2      1.07791138        0.216314548E-1     0.851826454   
     6.66000000        0.572626874E-2      1.07847267        0.209530745E-1     0.853834420   
     6.67000000        0.580608648E-2      1.07904148        0.203082088E-1     0.855784359   
     6.68000000        0.588821464E-2      1.07961802        0.196946831E-1     0.857678811   
     6.69000000        0.597275922E-2      1.08020248        0.191105036E-1     0.859520175   
     6.70000000        0.605983653E-2      1.08079506        0.185538403E-1     0.861310721   
     6.71000000        0.614957459E-2      1.08139597        0.180230124E-1     0.863052593   
     6.72000000        0.624211463E-2      1.08200543        0.175164749E-1     0.864747823   
     6.73000000        0.633761292E-2      1.08262364        0.170328070E-1     0.866398331   
     6.74000000        0.643624289E-2      1.08325084        0.165707019E-1     0.868005938   
     6.75000000        0.653819758E-2      1.08388725        0.161289581E-1     0.869572367   
     6.76000000        0.664369251E-2      1.08453310        0.157064708E-1     0.871099254   
     6.77000000        0.675296907E-2      1.08518862        0.153022258E-1     0.872588146   
     6.78000000        0.686629837E-2      1.08585405        0.149152930E-1     0.874040512   
     6.79000000        0.698398577E-2      1.08652962        0.145448218E-1     0.875457739   
     6.80000000        0.710637610E-2      1.08721554        0.141900362E-1     0.876841143   
     6.81000000        0.723385957E-2      1.08791203        0.138502321E-1     0.878191965   
     6.82000000        0.736687843E-2      1.08861928        0.135247737E-1     0.879511376   
     6.83000000        0.750593434E-2      1.08933744        0.132130911E-1     0.880800470   
     6.84000000        0.765159618E-2      1.09006666        0.129146782E-1     0.882060272   
     6.85000000        0.780450791E-2      1.09080697        0.126290905E-1     0.883291724   
     6.86000000        0.796539576E-2      1.09155837        0.123559417E-1     0.884495686   
     6.87000000        0.813507333E-2      1.09232073        0.120948997E-1     0.885672923   
     6.88000000        0.831444241E-2      1.09309375        0.118456787E-1     0.886824094   
     6.89000000        0.850448612E-2      1.09387697        0.116080276E-1     0.887949737   
     6.90000000        0.870624910E-2      1.09466961        0.113817105E-1     0.889050250   
     6.91000000        0.892079719E-2      1.09547061        0.111664759E-1     0.890125870   
     6.92000000        0.914914608E-2      1.09627844        0.109620110E-1     0.891176661   
     6.93000000        0.939214538E-2      1.09709106        0.107678774E-1     0.892202503   
     6.94000000        0.965030180E-2      1.09790586        0.105834269E-1     0.893203113   
     6.95000000        0.992352474E-2      1.09871954        0.104077027E-1     0.894178099   
     6.96000000        0.102107830E-1      1.09952824        0.102393462E-1     0.895127077   
     6.97000000        0.105096801E-1      1.10032762        0.100765419E-1     0.896049851   
     6.98000000        0.108159990E-1      1.10111338        0.991705071E-2     0.896946650   
     6.99000000        0.111233429E-1      1.10188190        0.975837521E-2     0.897818370   
     7.00000000        0.114230987E-1      1.10263141        0.959806735E-2     0.898666734   
     7.01000000        0.117050042E-1      1.10336320        0.943412384E-2     0.899494280   
     7.02000000        0.119585143E-1      1.10408266        0.926535439E-2     0.900304133   
     7.03000000        0.121748436E-1      1.10479959        0.909159438E-2     0.901099603   
     7.04000000        0.123491065E-1      1.10552717        0.891368514E-2     0.901883727   
     7.05000000        0.124816948E-1      1.10627984        0.873323433E-2     0.902658889   
     7.06000000        0.125782441E-1      1.10707069        0.855224664E-2     0.903426630   
     7.07000000        0.126482014E-1      1.10790928        0.837274583E-2     0.904187653   
     7.08000000        0.127026584E-1      1.10880080        0.819648677E-2     0.904941982   
     7.09000000        0.127523089E-1      1.10974631        0.802480124E-2     0.905689197   
     7.10000000        0.128060948E-1      1.11074387        0.785856672E-2     0.906428658   
     7.11000000        0.128706588E-1      1.11178979        0.769825751E-2     0.907159679   
     7.12000000        0.129504079E-1      1.11287979        0.754403332E-2     0.907881639   
     7.13000000        0.130479048E-1      1.11400968        0.739583263E-2     0.908594036   
     7.14000000        0.131643559E-1      1.11517583        0.725345307E-2     0.909296503   
     7.15000000        0.133000621E-1      1.11637531        0.711661274E-2     0.909988801   
     7.16000000        0.134547768E-1      1.11760594        0.698499319E-2     0.910670804   
     7.17000000        0.136279642E-1      1.11886615        0.685826736E-2     0.911342475   
     7.18000000        0.138189723E-1      1.12015498        0.673611652E-2     0.912003850   
     7.19000000        0.140271426E-1      1.12147191        0.661823960E-2     0.912655017   
     7.20000000        0.142518739E-1      1.12281677        0.650435761E-2     0.913296105   
     7.21000000        0.144926567E-1      1.12418971        0.639421506E-2     0.913927268   
     7.22000000        0.147490891E-1      1.12559111        0.628757947E-2     0.914548683   
     7.23000000        0.150208812E-1      1.12702153        0.618424006E-2     0.915160536   
     7.24000000        0.153078533E-1      1.12848168        0.608400588E-2     0.915763024   
     7.25000000        0.156099308E-1      1.12997240        0.598670390E-2     0.916356345   
     7.26000000        0.159271382E-1      1.13149462        0.589217706E-2     0.916940699   
     7.27000000        0.162595927E-1      1.13304938        0.580028242E-2     0.917516287   
     7.28000000        0.166074980E-1      1.13463778        0.571088961E-2     0.918083304   
     7.29000000        0.169711398E-1      1.13626101        0.562387925E-2     0.918641945   
     7.30000000        0.173508811E-1      1.13792031        0.553914178E-2     0.919192400   
     7.31000000        0.177471593E-1      1.13961700        0.545657624E-2     0.919734854   
     7.32000000        0.181604840E-1      1.14135248        0.537608933E-2     0.920269489   
     7.33000000        0.185914357E-1      1.14312819        0.529759456E-2     0.920796480   
     7.34000000        0.190406653E-1      1.14494565        0.522101150E-2     0.921315999   
     7.35000000        0.195088948E-1      1.14680645        0.514626516E-2     0.921828213   
     7.36000000        0.199969181E-1      1.14871227        0.507328540E-2     0.922333283   
     7.37000000        0.205056032E-1      1.15066486        0.500200647E-2     0.922831366   
     7.38000000        0.210358949E-1      1.15266602        0.493236660E-2     0.923322615   
     7.39000000        0.215888179E-1      1.15471770        0.486430760E-2     0.923807176   
     7.40000000        0.221654813E-1      1.15682188        0.479777454E-2     0.924285195   
     7.41000000        0.227670829E-1      1.15898069        0.473271551E-2     0.924756810   
     7.42000000        0.233949154E-1      1.16119632        0.466908131E-2     0.925222157   
     7.43000000        0.240503721E-1      1.16347110        0.460682528E-2     0.925681367   
     7.44000000        0.247349546E-1      1.16580746        0.454590306E-2     0.926134566   
     7.45000000        0.254502807E-1      1.16820797        0.448627243E-2     0.926581880   
     7.46000000        0.261980936E-1      1.17067533        0.442789316E-2     0.927023428   
     7.47000000        0.269802719E-1      1.17321238        0.437072689E-2     0.927459328   
     7.48000000        0.277988409E-1      1.17582210        0.431473694E-2     0.927889692   
     7.49000000        0.286559853E-1      1.17850765        0.425988826E-2     0.928314632   
     7.50000000        0.295540633E-1      1.18127235        0.420614729E-2     0.928734254   
     7.51000000        0.304956221E-1      1.18411973        0.415348187E-2     0.929148664   
     7.52000000        0.314834151E-1      1.18705348        0.410186119E-2     0.929557961   
     7.53000000        0.325204215E-1      1.19007753        0.405125564E-2     0.929962246   
     7.54000000        0.336098681E-1      1.19319601        0.400163681E-2     0.930361615   
     7.55000000        0.347552529E-1      1.19641333        0.395297740E-2     0.930756160   
     7.56000000        0.359603723E-1      1.19973411        0.390525112E-2     0.931145974   
     7.57000000        0.372293514E-1      1.20316329        0.385843271E-2     0.931531144   
     7.58000000        0.385666774E-1      1.20670607        0.381249781E-2     0.931911758   
     7.59000000        0.399772378E-1      1.21036799        0.376742298E-2     0.932287899   
     7.60000000        0.414663626E-1      1.21415493        0.372318560E-2     0.932659650   
     7.61000000        0.430398727E-1      1.21807311        0.367976387E-2     0.933027090   
     7.62000000        0.447041332E-1      1.22212916        0.363713675E-2     0.933390298   
     7.63000000        0.464661149E-1      1.22633011        0.359528391E-2     0.933749349   
     7.64000000        0.483334631E-1      1.23068346        0.355418573E-2     0.934104318   
     7.65000000        0.503145754E-1      1.23519714        0.351382326E-2     0.934455277   
     7.66000000        0.524186910E-1      1.23987964        0.347417818E-2     0.934802296   
     7.67000000        0.546559908E-1      1.24473995        0.343523275E-2     0.935145444   
     7.68000000        0.570377130E-1      1.24978767        0.339696984E-2     0.935484790   
     7.69000000        0.595762840E-1      1.25503298        0.335937286E-2     0.935820397   
     7.70000000        0.622854687E-1      1.26048674        0.332242575E-2     0.936152330   
     7.71000000        0.651805425E-1      1.26616048        0.328611296E-2     0.936480652   
     7.72000000        0.682784894E-1      1.27206647        0.325041943E-2     0.936805423   
     7.73000000        0.715982293E-1      1.27821772        0.321533056E-2     0.937126704   
     7.74000000        0.751608808E-1      1.28462806        0.318083222E-2     0.937444552   
     7.75000000        0.789900649E-1      1.29131210        0.314691068E-2     0.937759025   
     7.76000000        0.831122562E-1      1.29828531        0.311355266E-2     0.938070178   
     7.77000000        0.875571910E-1      1.30556399        0.308074524E-2     0.938378066   
     7.78000000        0.923583415E-1      1.31316523        0.304847592E-2     0.938682741   
     7.79000000        0.975534684E-1      1.32110693        0.301673254E-2     0.938984256   
     7.80000000        0.103185265         1.32940765        0.298550331E-2     0.939282661   
     7.81000000        0.109302109         1.33808654        0.295477679E-2     0.939578007   
     7.82000000        0.115958944         1.34716309        0.292454186E-2     0.939870341   
     7.83000000        0.123218309         1.35665688        0.289478770E-2     0.940159712   
     7.84000000        0.131151544         1.36658711        0.286550384E-2     0.940446166   
     7.85000000        0.139840201         1.37697209        0.283668005E-2     0.940729748   
     7.86000000        0.149377694         1.38782834        0.280830644E-2     0.941010503   
     7.87000000        0.159871221         1.39916954        0.278037335E-2     0.941288475   
     7.88000000        0.171443999         1.41100498        0.275287142E-2     0.941563706   
     7.89000000        0.184237840         1.42333746        0.272579152E-2     0.941836238   
     7.90000000        0.198416098         1.43616055        0.269912479E-2     0.942106113   
     7.91000000        0.214166997         1.44945475        0.267286258E-2     0.942373369   
     7.92000000        0.231707290         1.46318240        0.264699651E-2     0.942638047   
     7.93000000        0.251286176         1.47728091        0.262151840E-2     0.942900185   
     7.94000000        0.273189245         1.49165360        0.259642028E-2     0.943159821   
     7.95000000        0.297742049         1.50615761        0.257169440E-2     0.943416991   
     7.96000000        0.325312614         1.52058794        0.254733322E-2     0.943671732   
     7.97000000        0.356311692         1.53465659        0.252332938E-2     0.943924079   
     7.98000000        0.391188883         1.54796575        0.249967572E-2     0.944174066   
     7.99000000        0.430421657         1.55997411        0.247636526E-2     0.944421729   
     8.00000000        0.474492887         1.56995583        0.245339120E-2     0.944667100   
     8.01000000        0.523850564         1.57695348        0.243074690E-2     0.944910212   
     8.02000000        0.578841344         1.57972880        0.240842591E-2     0.945151098   
     8.03000000        0.639607992         1.57672076        0.238642193E-2     0.945389788   
     8.04000000        0.705941491         1.56602879        0.236472880E-2     0.945626313   
     8.05000000        0.777084656         1.54545063        0.234334055E-2     0.945860704   
     8.06000000        0.851500311         1.51261660        0.232225131E-2     0.946092991   
     8.07000000        0.926647946         1.46526737        0.230145540E-2     0.946323203   
     8.08000000        0.998857277         1.40170457        0.228094724E-2     0.946551367   
     8.09000000         1.06342845         1.32138613        0.226072141E-2     0.946777513   
     8.10000000         1.11508700         1.22553332        0.224077261E-2     0.947001668   
     8.11000000         1.14882702         1.11750484        0.222109566E-2     0.947223859   
     8.12000000         1.16098027         1.00266560        0.220168553E-2     0.947444112   
     8.13000000         1.15014558        0.887627696        0.218253727E-2     0.947662454   
     8.14000000         1.11757406        0.779040927        0.216364608E-2     0.947878909   
     8.15000000         1.06682435        0.682369069        0.214500725E-2     0.948093504   
     8.16000000         1.00285465        0.601096673        0.212661619E-2     0.948306262   
     8.17000000        0.930950281        0.536562406        0.210846842E-2     0.948517209   
     8.18000000        0.855860703        0.488310763        0.209055955E-2     0.948726367   
     8.19000000        0.781321527        0.454693213        0.207288531E-2     0.948933760   
     8.20000000        0.709936827        0.433468928        0.205544151E-2     0.949139411   
     8.21000000        0.643296278        0.422265471        0.203822405E-2     0.949343342   
     8.22000000        0.582195757        0.418866030        0.202122895E-2     0.949545577   
     8.23000000        0.526870253        0.421350794        0.200445229E-2     0.949746135   
     8.24000000        0.477192885        0.428139149        0.198789025E-2     0.949945040   
     8.25000000        0.432825619        0.437975123        0.197153911E-2     0.950142311   
     8.26000000        0.393324223        0.449886324        0.195539520E-2     0.950337969   
     8.27000000        0.358206538        0.463134836        0.193945495E-2     0.950532035   
     8.28000000        0.326994027        0.477169821        0.192371487E-2     0.950724529   
     8.29000000        0.299235087        0.491586144        0.190817155E-2     0.950915470   
     8.30000000        0.274516553        0.506090235        0.189282163E-2     0.951104877   
     8.31000000        0.252467901        0.520472899        0.187766185E-2     0.951292770   
     8.32000000        0.232761166        0.534588151        0.186268901E-2     0.951479166   
     8.33000000        0.215108532        0.548336996        0.184789996E-2     0.951664085   
     8.34000000        0.199258797        0.561655127        0.183329165E-2     0.951847544   
     8.35000000        0.184993431        0.574503658        0.181886107E-2     0.952029562   
     8.36000000        0.172122660        0.586862190        0.180460529E-2     0.952210154   
     8.37000000        0.160481780        0.598723627        0.179052143E-2     0.952389340   
     8.38000000        0.149927812        0.610090336        0.177660666E-2     0.952567134   
     8.39000000        0.140336534        0.620971284        0.176285824E-2     0.952743555   
     8.40000000        0.131599882        0.631379933        0.174927347E-2     0.952918618   
     8.41000000        0.123623696        0.641332688        0.173584969E-2     0.953092339   
     8.42000000        0.116325782        0.650847755        0.172258431E-2     0.953264735   
     8.43000000        0.109634246        0.659944314        0.170947480E-2     0.953435820   
     8.44000000        0.103486072        0.668641924        0.169651867E-2     0.953605610   
     8.45000000        0.978259046E-1     0.676960093        0.168371349E-2     0.953774120   
     8.46000000        0.926050066E-1     0.684917981        0.167105686E-2     0.953941365   
     8.47000000        0.877803752E-1     0.692534197        0.165854645E-2     0.954107359   
     8.48000000        0.833139797E-1     0.699826661        0.164617996E-2     0.954272118   
     8.49000000        0.791721124E-1     0.706812526        0.163395515E-2     0.954435654   
     8.50000000        0.753248311E-1     0.713508127        0.162186981E-2     0.954597981   
     8.51000000        0.717454806E-1     0.719928969        0.160992178E-2     0.954759115   
     8.52000000        0.684102815E-1     0.726089722        0.159810896E-2     0.954919067   
     8.53000000        0.652979752E-1     0.732004240        0.158642925E-2     0.955077852   
     8.54000000        0.623895181E-1     0.737685586        0.157488063E-2     0.955235482   
     8.55000000        0.596678164E-1     0.743146058        0.156346110E-2     0.955391970   
     8.56000000        0.571174971E-1     0.748397228        0.155216870E-2     0.955547329   
     8.57000000        0.547247079E-1     0.753449979        0.154100152E-2     0.955701571   
     8.58000000        0.524769443E-1     0.758314536        0.152995766E-2     0.955854709   
     8.59000000        0.503628975E-1     0.763000511        0.151903529E-2     0.956006755   
     8.60000000        0.483723228E-1     0.767516936        0.150823259E-2     0.956157721   
     8.61000000        0.464959233E-1     0.771872298        0.149754778E-2     0.956307618   
     8.62000000        0.447252482E-1     0.776074573        0.148697911E-2     0.956456459   
     8.63000000        0.430526039E-1     0.780131262        0.147652488E-2     0.956604254   
     8.64000000        0.414709745E-1     0.784049419        0.146618341E-2     0.956751014   
     8.65000000        0.399739530E-1     0.787835677        0.145595305E-2     0.956896752   
     8.66000000        0.385556795E-1     0.791496283        0.144583217E-2     0.957041477   
     8.67000000        0.372107869E-1     0.795037116        0.143581919E-2     0.957185201   
     8.68000000        0.359343524E-1     0.798463715        0.142591256E-2     0.957327935   
     8.69000000        0.347218550E-1     0.801781303        0.141611073E-2     0.957469687   
     8.70000000        0.335691366E-1     0.804994802        0.140641221E-2     0.957610470   
     8.71000000        0.324723686E-1     0.808108858        0.139681553E-2     0.957750293   
     8.72000000        0.314280211E-1     0.811127855        0.138731923E-2     0.957889166   
     8.73000000        0.304328355E-1     0.814055936        0.137792189E-2     0.958027099   
     8.74000000        0.294838003E-1     0.816897016        0.136862211E-2     0.958164102   
     8.75000000        0.285781291E-1     0.819654796        0.135941852E-2     0.958300185   
     8.76000000        0.277132410E-1     0.822332779        0.135030978E-2     0.958435356   
     8.77000000        0.268867425E-1     0.824934280        0.134129455E-2     0.958569625   
     8.78000000        0.260964121E-1     0.827462440        0.133237154E-2     0.958703002   
     8.79000000        0.253401850E-1     0.829920236        0.132353948E-2     0.958835495   
     8.80000000        0.246161411E-1     0.832310490        0.131479710E-2     0.958967114   
     8.81000000        0.239224922E-1     0.834635880        0.130614317E-2     0.959097867   
     8.82000000        0.232575719E-1     0.836898948        0.129757648E-2     0.959227763   
     8.83000000        0.226198256E-1     0.839102110        0.128909584E-2     0.959356811   
     8.84000000        0.220078018E-1     0.841247660        0.128070008E-2     0.959485018   
     8.85000000        0.214201441E-1     0.843337781        0.127238805E-2     0.959612394   
     8.86000000        0.208555836E-1     0.845374549        0.126415862E-2     0.959738947   
     8.87000000        0.203129326E-1     0.847359939        0.125601067E-2     0.959864685   
     8.88000000        0.197910783E-1     0.849295834        0.124794312E-2     0.959989615   
     8.89000000        0.192889772E-1     0.851184027        0.123995489E-2     0.960113746   
     8.90000000        0.188056501E-1     0.853026227        0.123204493E-2     0.960237086   
     8.91000000        0.183401775E-1     0.854824065        0.122421219E-2     0.960359642   
     8.92000000        0.178916950E-1     0.856579096        0.121645566E-2     0.960481422   
     8.93000000        0.174593898E-1     0.858292806        0.120877433E-2     0.960602434   
     8.94000000        0.170424968E-1     0.859966613        0.120116721E-2     0.960722684   
     8.95000000        0.166402955E-1     0.861601873        0.119363335E-2     0.960842181   
     8.96000000        0.162521067E-1     0.863199882        0.118617177E-2     0.960960930   
     8.97000000        0.158772898E-1     0.864761879        0.117878155E-2     0.961078941   
     8.98000000        0.155152403E-1     0.866289051        0.117146176E-2     0.961196219   
     8.99000000        0.151653873E-1     0.867782532        0.116421149E-2     0.961312771   
     9.00000000        0.148271913E-1     0.869243410        0.115702985E-2     0.961428605   
     9.01000000        0.145001423E-1     0.870672727        0.114991596E-2     0.961543727   
     9.02000000        0.141837576E-1     0.872071481        0.114286895E-2     0.961658144   
     9.03000000        0.138775803E-1     0.873440630        0.113588798E-2     0.961771862   
     9.04000000        0.135811776E-1     0.874781091        0.112897220E-2     0.961884889   
     9.05000000        0.132941395E-1     0.876093747        0.112212080E-2     0.961997229   
     9.06000000        0.130160768E-1     0.877379443        0.111533296E-2     0.962108891   
     9.07000000        0.127466207E-1     0.878638992        0.110860789E-2     0.962219879   
     9.08000000        0.124854208E-1     0.879873175        0.110194480E-2     0.962330201   
     9.09000000        0.122321442E-1     0.881082741        0.109534292E-2     0.962439861   
     9.10000000        0.119864749E-1     0.882268412        0.108880149E-2     0.962548868   
     9.11000000        0.117481121E-1     0.883430882        0.108231975E-2     0.962657225   
     9.12000000        0.115167698E-1     0.884570818        0.107589698E-2     0.962764940   
     9.13000000        0.112921760E-1     0.885688862        0.106953245E-2     0.962872018   
     9.14000000        0.110740713E-1     0.886785633        0.106322544E-2     0.962978464   
     9.15000000        0.108622090E-1     0.887861727        0.105697525E-2     0.963084285   
     9.16000000        0.106563538E-1     0.888917716        0.105078119E-2     0.963189487   
     9.17000000        0.104562813E-1     0.889954156        0.104464258E-2     0.963294073   
     9.18000000        0.102617776E-1     0.890971577        0.103855875E-2     0.963398051   
     9.19000000        0.100726384E-1     0.891970495        0.103252903E-2     0.963501426   
     9.20000000        0.988866880E-2     0.892951405        0.102655278E-2     0.963604202   
     9.21000000        0.970968259E-2     0.893914787        0.102062935E-2     0.963706385   
     9.22000000        0.953550184E-2     0.894861101        0.101475812E-2     0.963807981   
     9.23000000        0.936595648E-2     0.895790793        0.100893846E-2     0.963908994   
     9.24000000        0.920088388E-2     0.896704295        0.100316976E-2     0.964009430   
     9.25000000        0.904012847E-2     0.897602022        0.997451415E-3     0.964109294   
     9.26000000        0.888354134E-2     0.898484376        0.991782835E-3     0.964208590   
     9.27000000        0.873097996E-2     0.899351746        0.986163433E-3     0.964307324   
     9.28000000        0.858230781E-2     0.900204508        0.980592632E-3     0.964405500   
     9.29000000        0.843739410E-2     0.901043025        0.975069866E-3     0.964503123   
     9.30000000        0.829611348E-2     0.901867648        0.969594573E-3     0.964600199   
     9.31000000        0.815834576E-2     0.902678718        0.964166204E-3     0.964696731   
     9.32000000        0.802397568E-2     0.903476563        0.958784214E-3     0.964792724   
     9.33000000        0.789289266E-2     0.904261503        0.953448069E-3     0.964888183   
     9.34000000        0.776499057E-2     0.905033845        0.948157241E-3     0.964983113   
     9.35000000        0.764016751E-2     0.905793890        0.942911209E-3     0.965077517   
     9.36000000        0.751832563E-2     0.906541926        0.937709463E-3     0.965171401   
     9.37000000        0.739937092E-2     0.907278234        0.932551497E-3     0.965264768   
     9.38000000        0.728321306E-2     0.908003086        0.927436813E-3     0.965357624   
     9.39000000        0.716976520E-2     0.908716746        0.922364921E-3     0.965449971   
     9.40000000        0.705894384E-2     0.909419470        0.917335337E-3     0.965541816   
     9.41000000        0.695066867E-2     0.910111505        0.912347585E-3     0.965633161   
     9.42000000        0.684486241E-2     0.910793093        0.907401195E-3     0.965724011   
     9.43000000        0.674145071E-2     0.911464466        0.902495705E-3     0.965814369   
     9.44000000        0.664036195E-2     0.912125852        0.897630656E-3     0.965904241   
     9.45000000        0.654152721E-2     0.912777470        0.892805599E-3     0.965993630   
     9.46000000        0.644488006E-2     0.913419535        0.888020091E-3     0.966082540   
     9.47000000        0.635035652E-2     0.914052253        0.883273694E-3     0.966170974   
     9.48000000        0.625789493E-2     0.914675826        0.878565976E-3     0.966258938   
     9.49000000        0.616743583E-2     0.915290451        0.873896511E-3     0.966346433   
     9.50000000        0.607892190E-2     0.915896317        0.869264881E-3     0.966433466   
     9.51000000        0.599229786E-2     0.916493610        0.864670671E-3     0.966520038   
     9.52000000        0.590751034E-2     0.917082509        0.860113473E-3     0.966606154   
     9.53000000        0.582450788E-2     0.917663189        0.855592885E-3     0.966691818   
     9.54000000        0.574324079E-2     0.918235820        0.851108510E-3     0.966777032   
     9.55000000        0.566366109E-2     0.918800568        0.846659956E-3     0.966861801   
     9.56000000        0.558572245E-2     0.919357594        0.842246838E-3     0.966946129   
     9.57000000        0.550938011E-2     0.919907055        0.837868774E-3     0.967030018   
     9.58000000        0.543459084E-2     0.920449102        0.833525388E-3     0.967113472   
     9.59000000        0.536131284E-2     0.920983884        0.829216310E-3     0.967196495   
     9.60000000        0.528950572E-2     0.921511546        0.824941175E-3     0.967279090   
     9.61000000        0.521913043E-2     0.922032229        0.820699621E-3     0.967361261   
     9.62000000        0.515014918E-2     0.922546068        0.816491292E-3     0.967443010   
     9.63000000        0.508252546E-2     0.923053199        0.812315838E-3     0.967524341   
     9.64000000        0.501622390E-2     0.923553751        0.808172912E-3     0.967605257   
     9.65000000        0.495121032E-2     0.924047850        0.804062172E-3     0.967685761   
     9.66000000        0.488745159E-2     0.924535621        0.799983280E-3     0.967765858   
     9.67000000        0.482491566E-2     0.925017183        0.795935905E-3     0.967845549   
     9.68000000        0.476357151E-2     0.925492654        0.791919717E-3     0.967924838   
     9.69000000        0.470338907E-2     0.925962148        0.787934392E-3     0.968003728   
     9.70000000        0.464433921E-2     0.926425777        0.783979611E-3     0.968082222   
     9.71000000        0.458639374E-2     0.926883650        0.780055057E-3     0.968160323   
     9.72000000        0.452952530E-2     0.927335873        0.776160419E-3     0.968238034   
     9.73000000        0.447370740E-2     0.927782550        0.772295389E-3     0.968315359   
     9.74000000        0.441891434E-2     0.928223781        0.768459664E-3     0.968392299   
     9.75000000        0.436512121E-2     0.928659665        0.764652945E-3     0.968468858   
     9.76000000        0.431230385E-2     0.929090300        0.760874935E-3     0.968545039   
     9.77000000        0.426043883E-2     0.929515777        0.757125342E-3     0.968620844   
     9.78000000        0.420950341E-2     0.929936190        0.753403878E-3     0.968696277   
     9.79000000        0.415947552E-2     0.930351628        0.749710259E-3     0.968771340   
     9.80000000        0.411033374E-2     0.930762179        0.746044204E-3     0.968846036   
     9.81000000        0.406205731E-2     0.931167927        0.742405435E-3     0.968920368   
     9.82000000        0.401462602E-2     0.931568957        0.738793679E-3     0.968994338   
     9.83000000        0.396802029E-2     0.931965351        0.735208664E-3     0.969067949   
     9.84000000        0.392222108E-2     0.932357187        0.731650125E-3     0.969141204   
     9.85000000        0.387720991E-2     0.932744544        0.728117798E-3     0.969214105   
     9.86000000        0.383296881E-2     0.933127497        0.724611422E-3     0.969286655   
     9.87000000        0.378948034E-2     0.933506123        0.721130740E-3     0.969358857   
     9.88000000        0.374672752E-2     0.933880492        0.717675498E-3     0.969430712   
     9.89000000        0.370469387E-2     0.934250677        0.714245447E-3     0.969502225   
     9.90000000        0.366336337E-2     0.934616746        0.710840338E-3     0.969573396   
     9.91000000        0.362272042E-2     0.934978769        0.707459926E-3     0.969644229   
     9.92000000        0.358274988E-2     0.935336811        0.704103971E-3     0.969714725   
     9.93000000        0.354343700E-2     0.935690938        0.700772234E-3     0.969784889   
     9.94000000        0.350476744E-2     0.936041213        0.697464479E-3     0.969854721   
     9.95000000        0.346672725E-2     0.936387700        0.694180474E-3     0.969924224   
     9.96000000        0.342930286E-2     0.936730458        0.690919989E-3     0.969993401   
     9.97000000        0.339248106E-2     0.937069547        0.687682796E-3     0.970062253   
     9.98000000        0.335624898E-2     0.937405026        0.684468672E-3     0.970130784   
     9.99000000        0.332059411E-2     0.937736953        0.681277396E-3     0.970198995   
     10.0000000        0.328550425E-2     0.938065383        0.678108747E-3     0.970266889   
# 
# 12/09/2020 at 00:25 yambo @ VivoBook [start]
# 12/09/2020 at 00:26                  [end]
#  
# Timing   [Min/Max/Average]: 03s/03s/03s
#
# .-Input file  yambo.in
# | optics                           # [R] Linear Response optical properties
# | bss                              # [R] BSE solver
# | bse                              # [R][BSE] Bethe Salpeter Equation.
# | tddft                            # [R][K] Use TDDFT kernel
# | ElecTemp= 0.025861         eV    # Electronic Temperature
# | BoseTemp= 0.025861         eV    # Bosonic Temperature
# | FFTGvecs=  9999            RL    # [FFT] Plane-waves
# | BS_nCPU_LinAlg_INV= 1            # [PARALLEL] CPUs for Linear Algebra (if -1 it is automatically set)
# | BS_nCPU_LinAlg_DIAGO= 1          # [PARALLEL] CPUs for Linear Algebra (if -1 it is automatically set)
# | X_Threads= 1                     # [OPENMP/X] Number of threads for response functions
# | DIP_Threads= 1                   # [OPENMP/X] Number of threads for dipoles
# | K_Threads= 1                     # [OPENMP/BSK] Number of threads for response functions
# | BSEmod= "resonant"               # [BSE] resonant/retarded/coupling
# | BSKmod= "ALDA"                   # [BSE] IP/Hartree/HF/ALDA/SEX/BSfxc
# | BSSmod= "s"                      # [BSS] (h)aydock/(d)iagonalization/(i)nversion/(t)ddft`
# | DipComputed= "R V P"             # [DIP] [default R P V; extra P2 Spin Orb]
# | BSENGexx= 2003             RL    # [BSK] Exchange components
# | BSEprop= "abs kerr dos esrt"     # [BSE] abs/kerr/magn/dichr trace
# | % BSEQptR
# |  1 | 1 |                             # [BSK] Transferred momenta range
# | %
# | % BSEBands
# |  12 | 18 |                           # [BSK] Bands range
# | %
# | % BEnRange
# | -10.00000 | 10.00000 |         eV    # [BSS] Energy range
# | %
# | % BDmRange
# |  0.100000 | 0.100000 |         eV    # [BSS] Damping range
# | %
# | BEnSteps= 2001                   # [BSS] Energy steps
# | % BLongDir
# |  0.100000E-4 |  0.00000    |  0.00000    # [BSS] [cc] Electric Field
# | %
# | #WRbsWF                        # [BSS] Write to disk excitonic the WFs
# | BSSNEig= 15                      # [SLEPC] Number of eigenvalues to compute
# | BSSEnTarget= 8.000000      eV    # [SLEPC] Target energy to find eigenvalues
# | BSSSlepcApproach= "Krylov-Schur" # [SLEPC] Approach ("Krylov-Schur","Generalized-Davidson","Jacob-Davidson")
# | BSSSlepcMaxIt= 1000              # [SLEPC] Maximum number of iterations
# | BSSSlepcMatrix                 # [SLEPC] Store slepc matrix, faster but more memory consuming
