#                                                                     
#  /$$     /$$ /$$$$$$  /$$      /$$ /$$$$$$$   /$$$$$$               
# |  $$   /$$//$$__  $$| $$$    /$$$| $$__  $$ /$$__  $$              
#  \  $$ /$$/| $$  \ $$| $$$$  /$$$$| $$  \ $$| $$  \ $$              
#   \  $$$$/ | $$$$$$$$| $$ $$/$$ $$| $$$$$$$ | $$  | $$              
#    \  $$/  | $$__  $$| $$  $$$| $$| $$__  $$| $$  | $$              
#     | $$   | $$  | $$| $$\  $ | $$| $$  \ $$| $$  | $$              
#     | $$   | $$  | $$| $$ \/  | $$| $$$$$$$/|  $$$$$$/              
#     |__/   |__/  |__/|__/     |__/|_______/  \______/               
#                                                                     
#      Version 5.0.1 Revision 19034 Hash 9840da05f                    
#                Branch is devel-magnons                              
#         MPI+OpenMP+SLK+SLEPC+HDF5_MPI_IO Build                      
#               http://www.yambo-code.org                             
#
# Absorption @ Q(1)                 q->0 direction:  0.100000000E-4   0.00000000      0.00000000   
#
# [GEN] GF Energies                               : Perdew, Burke & Ernzerhof(X)+Perdew, Burke & Ernzerhof(C)
# [GEN] Wavefunctions                             : Perdew, Burke & Ernzerhof(X)+Perdew, Burke & Ernzerhof(C)
# [GEN] Green`s Function                          : Resonant
# [GEN] Gauge                                     : Length
# [GEN] [r,Vnl] included                          : yes
#
#
# [K] Identifier                                  :   8408
# [K] Dimension                                   :  22
# [K] Bands                                       :  12  18
# [K] Exchange                                    : yes
# [K] Correlation                                 : no
# [K] Kernel`s coupling                           : no
# [K] Exchange                                    : no
# [K] Correlation                                 : no
# [K] W interaction is bare                       : no
# [K] ALDA kernel in R-space                      : yes
# [K] RL vectors                                  :  2003 [exchange]
# [K] E/h energy range                            :  -1.00000000     -1.00000000    [ev]
# [K] Coupling range                              :   100.000000      100.000000    [o/o]
#
#    Diamagnetic term
#    A [nel]            A0[nel]
#:     0.00000000        -29.8940026   
#
#    E/ev[1]            EPS-Im[2]          EPS-Re[3]          EPSo-Im[4]         EPSo-Re[5]
#
    -10.0000000        0.443362744E-4      1.00766974        0.587848174E-4      1.00884098   
    -9.99000000        0.443884325E-4      1.00767418        0.588640296E-4      1.00884686   
    -9.98000000        0.444406848E-4      1.00767862        0.589434045E-4      1.00885275   
    -9.97000000        0.444930317E-4      1.00768307        0.590229426E-4      1.00885865   
    -9.96000000        0.445454732E-4      1.00768752        0.591026442E-4      1.00886455   
    -9.95000000        0.445980096E-4      1.00769198        0.591825100E-4      1.00887047   
    -9.94000000        0.446506413E-4      1.00769644        0.592625403E-4      1.00887639   
    -9.93000000        0.447033683E-4      1.00770091        0.593427356E-4      1.00888232   
    -9.92000000        0.447561910E-4      1.00770538        0.594230963E-4      1.00888825   
    -9.91000000        0.448091096E-4      1.00770986        0.595036230E-4      1.00889420   
    -9.90000000        0.448621244E-4      1.00771434        0.595843160E-4      1.00890015   
    -9.89000000        0.449152355E-4      1.00771883        0.596651759E-4      1.00890612   
    -9.88000000        0.449684432E-4      1.00772332        0.597462031E-4      1.00891209   
    -9.87000000        0.450217477E-4      1.00772782        0.598273981E-4      1.00891806   
    -9.86000000        0.450751494E-4      1.00773233        0.599087614E-4      1.00892405   
    -9.85000000        0.451286484E-4      1.00773684        0.599902934E-4      1.00893004   
    -9.84000000        0.451822450E-4      1.00774135        0.600719947E-4      1.00893605   
    -9.83000000        0.452359394E-4      1.00774587        0.601538656E-4      1.00894206   
    -9.82000000        0.452897319E-4      1.00775040        0.602359067E-4      1.00894808   
    -9.81000000        0.453436227E-4      1.00775493        0.603181185E-4      1.00895410   
    -9.80000000        0.453976121E-4      1.00775947        0.604005014E-4      1.00896014   
    -9.79000000        0.454517003E-4      1.00776401        0.604830559E-4      1.00896618   
    -9.78000000        0.455058876E-4      1.00776856        0.605657826E-4      1.00897223   
    -9.77000000        0.455601742E-4      1.00777311        0.606486818E-4      1.00897829   
    -9.76000000        0.456145603E-4      1.00777767        0.607317541E-4      1.00898436   
    -9.75000000        0.456690463E-4      1.00778223        0.608150000E-4      1.00899044   
    -9.74000000        0.457236324E-4      1.00778680        0.608984200E-4      1.00899653   
    -9.73000000        0.457783188E-4      1.00779137        0.609820146E-4      1.00900262   
    -9.72000000        0.458331057E-4      1.00779595        0.610657842E-4      1.00900872   
    -9.71000000        0.458879935E-4      1.00780054        0.611497294E-4      1.00901483   
    -9.70000000        0.459429824E-4      1.00780513        0.612338506E-4      1.00902095   
    -9.69000000        0.459980727E-4      1.00780973        0.613181485E-4      1.00902708   
    -9.68000000        0.460532645E-4      1.00781433        0.614026234E-4      1.00903321   
    -9.67000000        0.461085582E-4      1.00781894        0.614872758E-4      1.00903936   
    -9.66000000        0.461639541E-4      1.00782355        0.615721064E-4      1.00904551   
    -9.65000000        0.462194523E-4      1.00782817        0.616571156E-4      1.00905167   
    -9.64000000        0.462750532E-4      1.00783279        0.617423039E-4      1.00905784   
    -9.63000000        0.463307569E-4      1.00783742        0.618276718E-4      1.00906402   
    -9.62000000        0.463865639E-4      1.00784206        0.619132198E-4      1.00907020   
    -9.61000000        0.464424742E-4      1.00784670        0.619989486E-4      1.00907640   
    -9.60000000        0.464984883E-4      1.00785135        0.620848585E-4      1.00908260   
    -9.59000000        0.465546064E-4      1.00785600        0.621709500E-4      1.00908881   
    -9.58000000        0.466108286E-4      1.00786066        0.622572239E-4      1.00909503   
    -9.57000000        0.466671554E-4      1.00786532        0.623436804E-4      1.00910126   
    -9.56000000        0.467235869E-4      1.00786999        0.624303203E-4      1.00910750   
    -9.55000000        0.467801235E-4      1.00787467        0.625171439E-4      1.00911375   
    -9.54000000        0.468367653E-4      1.00787935        0.626041519E-4      1.00912000   
    -9.53000000        0.468935128E-4      1.00788403        0.626913448E-4      1.00912627   
    -9.52000000        0.469503661E-4      1.00788872        0.627787230E-4      1.00913254   
    -9.51000000        0.470073255E-4      1.00789342        0.628662872E-4      1.00913882   
    -9.50000000        0.470643913E-4      1.00789813        0.629540379E-4      1.00914511   
    -9.49000000        0.471215637E-4      1.00790283        0.630419756E-4      1.00915141   
    -9.48000000        0.471788431E-4      1.00790755        0.631301009E-4      1.00915772   
    -9.47000000        0.472362297E-4      1.00791227        0.632184143E-4      1.00916404   
    -9.46000000        0.472937239E-4      1.00791700        0.633069164E-4      1.00917036   
    -9.45000000        0.473513257E-4      1.00792173        0.633956076E-4      1.00917670   
    -9.44000000        0.474090357E-4      1.00792646        0.634844887E-4      1.00918304   
    -9.43000000        0.474668540E-4      1.00793121        0.635735600E-4      1.00918939   
    -9.42000000        0.475247808E-4      1.00793596        0.636628222E-4      1.00919575   
    -9.41000000        0.475828166E-4      1.00794071        0.637522758E-4      1.00920212   
    -9.40000000        0.476409616E-4      1.00794547        0.638419214E-4      1.00920850   
    -9.39000000        0.476992160E-4      1.00795024        0.639317596E-4      1.00921489   
    -9.38000000        0.477575802E-4      1.00795501        0.640217909E-4      1.00922129   
    -9.37000000        0.478160544E-4      1.00795979        0.641120158E-4      1.00922769   
    -9.36000000        0.478746389E-4      1.00796458        0.642024350E-4      1.00923411   
    -9.35000000        0.479333340E-4      1.00796937        0.642930490E-4      1.00924053   
    -9.34000000        0.479921401E-4      1.00797416        0.643838584E-4      1.00924697   
    -9.33000000        0.480510573E-4      1.00797896        0.644748638E-4      1.00925341   
    -9.32000000        0.481100860E-4      1.00798377        0.645660657E-4      1.00925986   
    -9.31000000        0.481692264E-4      1.00798858        0.646574647E-4      1.00926632   
    -9.30000000        0.482284789E-4      1.00799340        0.647490615E-4      1.00927279   
    -9.29000000        0.482878438E-4      1.00799823        0.648408565E-4      1.00927927   
    -9.28000000        0.483473213E-4      1.00800306        0.649328504E-4      1.00928576   
    -9.27000000        0.484069118E-4      1.00800790        0.650250437E-4      1.00929225   
    -9.26000000        0.484666155E-4      1.00801274        0.651174371E-4      1.00929876   
    -9.25000000        0.485264327E-4      1.00801759        0.652100311E-4      1.00930528   
    -9.24000000        0.485863638E-4      1.00802245        0.653028264E-4      1.00931180   
    -9.23000000        0.486464090E-4      1.00802731        0.653958234E-4      1.00931834   
    -9.22000000        0.487065687E-4      1.00803217        0.654890230E-4      1.00932488   
    -9.21000000        0.487668431E-4      1.00803705        0.655824255E-4      1.00933143   
    -9.20000000        0.488272325E-4      1.00804193        0.656760317E-4      1.00933799   
    -9.19000000        0.488877373E-4      1.00804681        0.657698421E-4      1.00934457   
    -9.18000000        0.489483578E-4      1.00805170        0.658638574E-4      1.00935115   
    -9.17000000        0.490090942E-4      1.00805660        0.659580781E-4      1.00935774   
    -9.16000000        0.490699469E-4      1.00806150        0.660525049E-4      1.00936434   
    -9.15000000        0.491309161E-4      1.00806641        0.661471384E-4      1.00937095   
    -9.14000000        0.491920022E-4      1.00807133        0.662419791E-4      1.00937757   
    -9.13000000        0.492532055E-4      1.00807625        0.663370279E-4      1.00938419   
    -9.12000000        0.493145264E-4      1.00808118        0.664322851E-4      1.00939083   
    -9.11000000        0.493759650E-4      1.00808611        0.665277515E-4      1.00939748   
    -9.10000000        0.494375218E-4      1.00809105        0.666234278E-4      1.00940414   
    -9.09000000        0.494991970E-4      1.00809600        0.667193144E-4      1.00941080   
    -9.08000000        0.495609910E-4      1.00810095        0.668154121E-4      1.00941748   
    -9.07000000        0.496229041E-4      1.00810591        0.669117216E-4      1.00942416   
    -9.06000000        0.496849365E-4      1.00811088        0.670082433E-4      1.00943086   
    -9.05000000        0.497470887E-4      1.00811585        0.671049780E-4      1.00943756   
    -9.04000000        0.498093609E-4      1.00812083        0.672019263E-4      1.00944428   
    -9.03000000        0.498717535E-4      1.00812581        0.672990889E-4      1.00945100   
    -9.02000000        0.499342667E-4      1.00813080        0.673964664E-4      1.00945774   
    -9.01000000        0.499969010E-4      1.00813580        0.674940594E-4      1.00946448   
    -9.00000000        0.500596566E-4      1.00814080        0.675918687E-4      1.00947123   
    -8.99000000        0.501225338E-4      1.00814581        0.676898948E-4      1.00947800   
    -8.98000000        0.501855330E-4      1.00815082        0.677881384E-4      1.00948477   
    -8.97000000        0.502486545E-4      1.00815584        0.678866002E-4      1.00949155   
    -8.96000000        0.503118987E-4      1.00816087        0.679852808E-4      1.00949835   
    -8.95000000        0.503752658E-4      1.00816590        0.680841810E-4      1.00950515   
    -8.94000000        0.504387563E-4      1.00817094        0.681833013E-4      1.00951196   
    -8.93000000        0.505023704E-4      1.00817599        0.682826424E-4      1.00951878   
    -8.92000000        0.505661084E-4      1.00818104        0.683822051E-4      1.00952562   
    -8.91000000        0.506299708E-4      1.00818610        0.684819899E-4      1.00953246   
    -8.90000000        0.506939577E-4      1.00819117        0.685819976E-4      1.00953931   
    -8.89000000        0.507580697E-4      1.00819624        0.686822289E-4      1.00954617   
    -8.88000000        0.508223070E-4      1.00820132        0.687826844E-4      1.00955305   
    -8.87000000        0.508866699E-4      1.00820641        0.688833648E-4      1.00955993   
    -8.86000000        0.509511589E-4      1.00821150        0.689842708E-4      1.00956682   
    -8.85000000        0.510157742E-4      1.00821659        0.690854031E-4      1.00957372   
    -8.84000000        0.510805161E-4      1.00822170        0.691867623E-4      1.00958064   
    -8.83000000        0.511453851E-4      1.00822681        0.692883493E-4      1.00958756   
    -8.82000000        0.512103815E-4      1.00823193        0.693901647E-4      1.00959449   
    -8.81000000        0.512755056E-4      1.00823705        0.694922091E-4      1.00960144   
    -8.80000000        0.513407578E-4      1.00824218        0.695944833E-4      1.00960839   
    -8.79000000        0.514061383E-4      1.00824732        0.696969881E-4      1.00961535   
    -8.78000000        0.514716477E-4      1.00825246        0.697997240E-4      1.00962233   
    -8.77000000        0.515372862E-4      1.00825761        0.699026919E-4      1.00962931   
    -8.76000000        0.516030542E-4      1.00826277        0.700058924E-4      1.00963631   
    -8.75000000        0.516689520E-4      1.00826793        0.701093262E-4      1.00964331   
    -8.74000000        0.517349800E-4      1.00827310        0.702129942E-4      1.00965033   
    -8.73000000        0.518011385E-4      1.00827828        0.703168969E-4      1.00965735   
    -8.72000000        0.518674280E-4      1.00828346        0.704210352E-4      1.00966439   
    -8.71000000        0.519338487E-4      1.00828865        0.705254097E-4      1.00967144   
    -8.70000000        0.520004011E-4      1.00829385        0.706300213E-4      1.00967849   
    -8.69000000        0.520670854E-4      1.00829905        0.707348705E-4      1.00968556   
    -8.68000000        0.521339021E-4      1.00830426        0.708399583E-4      1.00969264   
    -8.67000000        0.522008515E-4      1.00830948        0.709452853E-4      1.00969973   
    -8.66000000        0.522679340E-4      1.00831470        0.710508522E-4      1.00970683   
    -8.65000000        0.523351500E-4      1.00831993        0.711566598E-4      1.00971394   
    -8.64000000        0.524024998E-4      1.00832516        0.712627089E-4      1.00972106   
    -8.63000000        0.524699838E-4      1.00833041        0.713690002E-4      1.00972819   
    -8.62000000        0.525376024E-4      1.00833566        0.714755345E-4      1.00973533   
    -8.61000000        0.526053559E-4      1.00834091        0.715823125E-4      1.00974248   
    -8.60000000        0.526732447E-4      1.00834618        0.716893350E-4      1.00974964   
    -8.59000000        0.527412692E-4      1.00835145        0.717966028E-4      1.00975682   
    -8.58000000        0.528094298E-4      1.00835673        0.719041166E-4      1.00976400   
    -8.57000000        0.528777269E-4      1.00836201        0.720118772E-4      1.00977120   
    -8.56000000        0.529461607E-4      1.00836730        0.721198854E-4      1.00977840   
    -8.55000000        0.530147318E-4      1.00837260        0.722281420E-4      1.00978562   
    -8.54000000        0.530834405E-4      1.00837790        0.723366477E-4      1.00979285   
    -8.53000000        0.531522872E-4      1.00838321        0.724454033E-4      1.00980008   
    -8.52000000        0.532212722E-4      1.00838853        0.725544097E-4      1.00980733   
    -8.51000000        0.532903960E-4      1.00839386        0.726636676E-4      1.00981459   
    -8.50000000        0.533596590E-4      1.00839919        0.727731777E-4      1.00982186   
    -8.49000000        0.534290614E-4      1.00840453        0.728829410E-4      1.00982915   
    -8.48000000        0.534986038E-4      1.00840987        0.729929582E-4      1.00983644   
    -8.47000000        0.535682866E-4      1.00841523        0.731032301E-4      1.00984374   
    -8.46000000        0.536381100E-4      1.00842059        0.732137575E-4      1.00985106   
    -8.45000000        0.537080745E-4      1.00842595        0.733245412E-4      1.00985838   
    -8.44000000        0.537781806E-4      1.00843133        0.734355821E-4      1.00986572   
    -8.43000000        0.538484285E-4      1.00843671        0.735468809E-4      1.00987307   
    -8.42000000        0.539188188E-4      1.00844210        0.736584386E-4      1.00988043   
    -8.41000000        0.539893518E-4      1.00844749        0.737702558E-4      1.00988780   
    -8.40000000        0.540600279E-4      1.00845289        0.738823335E-4      1.00989518   
    -8.39000000        0.541308475E-4      1.00845830        0.739946724E-4      1.00990257   
    -8.38000000        0.542018111E-4      1.00846372        0.741072735E-4      1.00990998   
    -8.37000000        0.542729189E-4      1.00846914        0.742201375E-4      1.00991739   
    -8.36000000        0.543441716E-4      1.00847457        0.743332653E-4      1.00992482   
    -8.35000000        0.544155693E-4      1.00848001        0.744466577E-4      1.00993226   
    -8.34000000        0.544871127E-4      1.00848545        0.745603156E-4      1.00993971   
    -8.33000000        0.545588020E-4      1.00849091        0.746742398E-4      1.00994717   
    -8.32000000        0.546306377E-4      1.00849636        0.747884313E-4      1.00995464   
    -8.31000000        0.547026203E-4      1.00850183        0.749028907E-4      1.00996212   
    -8.30000000        0.547747501E-4      1.00850730        0.750176191E-4      1.00996962   
    -8.29000000        0.548470275E-4      1.00851278        0.751326173E-4      1.00997713   
    -8.28000000        0.549194530E-4      1.00851827        0.752478861E-4      1.00998464   
    -8.27000000        0.549920271E-4      1.00852377        0.753634265E-4      1.00999217   
    -8.26000000        0.550647500E-4      1.00852927        0.754792392E-4      1.00999972   
    -8.25000000        0.551376223E-4      1.00853478        0.755953253E-4      1.01000727   
    -8.24000000        0.552106444E-4      1.00854030        0.757116855E-4      1.01001483   
    -8.23000000        0.552838167E-4      1.00854582        0.758283207E-4      1.01002241   
    -8.22000000        0.553571397E-4      1.00855135        0.759452319E-4      1.01003000   
    -8.21000000        0.554306137E-4      1.00855689        0.760624200E-4      1.01003760   
    -8.20000000        0.555042393E-4      1.00856244        0.761798858E-4      1.01004521   
    -8.19000000        0.555780168E-4      1.00856799        0.762976303E-4      1.01005283   
    -8.18000000        0.556519467E-4      1.00857355        0.764156543E-4      1.01006046   
    -8.17000000        0.557260294E-4      1.00857912        0.765339588E-4      1.01006811   
    -8.16000000        0.558002655E-4      1.00858470        0.766525447E-4      1.01007577   
    -8.15000000        0.558746552E-4      1.00859028        0.767714128E-4      1.01008344   
    -8.14000000        0.559491991E-4      1.00859587        0.768905642E-4      1.01009112   
    -8.13000000        0.560238976E-4      1.00860147        0.770099998E-4      1.01009882   
    -8.12000000        0.560987511E-4      1.00860707        0.771297205E-4      1.01010652   
    -8.11000000        0.561737602E-4      1.00861269        0.772497272E-4      1.01011424   
    -8.10000000        0.562489253E-4      1.00861831        0.773700208E-4      1.01012197   
    -8.09000000        0.563242467E-4      1.00862394        0.774906023E-4      1.01012971   
    -8.08000000        0.563997250E-4      1.00862957        0.776114727E-4      1.01013747   
    -8.07000000        0.564753607E-4      1.00863521        0.777326329E-4      1.01014523   
    -8.06000000        0.565511542E-4      1.00864087        0.778540839E-4      1.01015301   
    -8.05000000        0.566271059E-4      1.00864652        0.779758266E-4      1.01016080   
    -8.04000000        0.567032163E-4      1.00865219        0.780978619E-4      1.01016860   
    -8.03000000        0.567794859E-4      1.00865786        0.782201909E-4      1.01017642   
    -8.02000000        0.568559151E-4      1.00866354        0.783428145E-4      1.01018425   
    -8.01000000        0.569325045E-4      1.00866923        0.784657338E-4      1.01019209   
    -8.00000000        0.570092544E-4      1.00867493        0.785889496E-4      1.01019994   
    -7.99000000        0.570861655E-4      1.00868063        0.787124629E-4      1.01020780   
    -7.98000000        0.571632380E-4      1.00868635        0.788362748E-4      1.01021568   
    -7.97000000        0.572404725E-4      1.00869207        0.789603862E-4      1.01022357   
    -7.96000000        0.573178696E-4      1.00869779        0.790847982E-4      1.01023147   
    -7.95000000        0.573954296E-4      1.00870353        0.792095117E-4      1.01023938   
    -7.94000000        0.574731530E-4      1.00870927        0.793345277E-4      1.01024731   
    -7.93000000        0.575510404E-4      1.00871502        0.794598474E-4      1.01025525   
    -7.92000000        0.576290922E-4      1.00872078        0.795854715E-4      1.01026320   
    -7.91000000        0.577073088E-4      1.00872655        0.797114013E-4      1.01027116   
    -7.90000000        0.577856909E-4      1.00873232        0.798376376E-4      1.01027914   
    -7.89000000        0.578642389E-4      1.00873810        0.799641816E-4      1.01028713   
    -7.88000000        0.579429532E-4      1.00874389        0.800910343E-4      1.01029513   
    -7.87000000        0.580218344E-4      1.00874969        0.802181967E-4      1.01030314   
    -7.86000000        0.581008830E-4      1.00875550        0.803456698E-4      1.01031117   
    -7.85000000        0.581800994E-4      1.00876131        0.804734547E-4      1.01031921   
    -7.84000000        0.582594843E-4      1.00876713        0.806015524E-4      1.01032726   
    -7.83000000        0.583390379E-4      1.00877296        0.807299641E-4      1.01033533   
    -7.82000000        0.584187610E-4      1.00877880        0.808586907E-4      1.01034341   
    -7.81000000        0.584986539E-4      1.00878464        0.809877333E-4      1.01035150   
    -7.80000000        0.585787172E-4      1.00879050        0.811170930E-4      1.01035960   
    -7.79000000        0.586589515E-4      1.00879636        0.812467709E-4      1.01036772   
    -7.78000000        0.587393571E-4      1.00880223        0.813767680E-4      1.01037585   
    -7.77000000        0.588199347E-4      1.00880810        0.815070854E-4      1.01038399   
    -7.76000000        0.589006847E-4      1.00881399        0.816377242E-4      1.01039215   
    -7.75000000        0.589816077E-4      1.00881988        0.817686856E-4      1.01040032   
    -7.74000000        0.590627042E-4      1.00882578        0.818999705E-4      1.01040850   
    -7.73000000        0.591439747E-4      1.00883169        0.820315801E-4      1.01041670   
    -7.72000000        0.592254197E-4      1.00883761        0.821635156E-4      1.01042490   
    -7.71000000        0.593070398E-4      1.00884354        0.822957779E-4      1.01043313   
    -7.70000000        0.593888354E-4      1.00884947        0.824283683E-4      1.01044136   
    -7.69000000        0.594708072E-4      1.00885541        0.825612879E-4      1.01044961   
    -7.68000000        0.595529557E-4      1.00886137        0.826945377E-4      1.01045787   
    -7.67000000        0.596352814E-4      1.00886732        0.828281190E-4      1.01046615   
    -7.66000000        0.597177848E-4      1.00887329        0.829620328E-4      1.01047444   
    -7.65000000        0.598004664E-4      1.00887927        0.830962803E-4      1.01048274   
    -7.64000000        0.598833269E-4      1.00888525        0.832308626E-4      1.01049105   
    -7.63000000        0.599663668E-4      1.00889124        0.833657809E-4      1.01049938   
    -7.62000000        0.600495865E-4      1.00889724        0.835010364E-4      1.01050772   
    -7.61000000        0.601329868E-4      1.00890325        0.836366302E-4      1.01051608   
    -7.60000000        0.602165680E-4      1.00890927        0.837725635E-4      1.01052445   
    -7.59000000        0.603003308E-4      1.00891529        0.839088374E-4      1.01053283   
    -7.58000000        0.603842757E-4      1.00892133        0.840454532E-4      1.01054123   
    -7.57000000        0.604684033E-4      1.00892737        0.841824119E-4      1.01054964   
    -7.56000000        0.605527142E-4      1.00893342        0.843197149E-4      1.01055806   
    -7.55000000        0.606372088E-4      1.00893948        0.844573633E-4      1.01056650   
    -7.54000000        0.607218879E-4      1.00894554        0.845953583E-4      1.01057495   
    -7.53000000        0.608067518E-4      1.00895162        0.847337010E-4      1.01058342   
    -7.52000000        0.608918013E-4      1.00895771        0.848723928E-4      1.01059190   
    -7.51000000        0.609770368E-4      1.00896380        0.850114348E-4      1.01060039   
    -7.50000000        0.610624590E-4      1.00896990        0.851508283E-4      1.01060890   
    -7.49000000        0.611480685E-4      1.00897601        0.852905744E-4      1.01061742   
    -7.48000000        0.612338657E-4      1.00898213        0.854306744E-4      1.01062595   
    -7.47000000        0.613198514E-4      1.00898825        0.855711296E-4      1.01063450   
    -7.46000000        0.614060260E-4      1.00899439        0.857119412E-4      1.01064306   
    -7.45000000        0.614923902E-4      1.00900053        0.858531104E-4      1.01065164   
    -7.44000000        0.615789445E-4      1.00900669        0.859946385E-4      1.01066023   
    -7.43000000        0.616656896E-4      1.00901285        0.861365268E-4      1.01066884   
    -7.42000000        0.617526260E-4      1.00901902        0.862787765E-4      1.01067746   
    -7.41000000        0.618397544E-4      1.00902520        0.864213888E-4      1.01068609   
    -7.40000000        0.619270753E-4      1.00903139        0.865643652E-4      1.01069474   
    -7.39000000        0.620145894E-4      1.00903758        0.867077068E-4      1.01070340   
    -7.38000000        0.621022972E-4      1.00904379        0.868514150E-4      1.01071208   
    -7.37000000        0.621901993E-4      1.00905000        0.869954910E-4      1.01072077   
    -7.36000000        0.622782964E-4      1.00905622        0.871399361E-4      1.01072947   
    -7.35000000        0.623665891E-4      1.00906246        0.872847517E-4      1.01073819   
    -7.34000000        0.624550779E-4      1.00906870        0.874299391E-4      1.01074693   
    -7.33000000        0.625437636E-4      1.00907495        0.875754995E-4      1.01075568   
    -7.32000000        0.626326467E-4      1.00908120        0.877214344E-4      1.01076444   
    -7.31000000        0.627217279E-4      1.00908747        0.878677450E-4      1.01077322   
    -7.30000000        0.628110077E-4      1.00909375        0.880144327E-4      1.01078201   
    -7.29000000        0.629004868E-4      1.00910003        0.881614988E-4      1.01079082   
    -7.28000000        0.629901658E-4      1.00910633        0.883089447E-4      1.01079964   
    -7.27000000        0.630800454E-4      1.00911263        0.884567718E-4      1.01080848   
    -7.26000000        0.631701262E-4      1.00911894        0.886049813E-4      1.01081733   
    -7.25000000        0.632604089E-4      1.00912526        0.887535747E-4      1.01082620   
    -7.24000000        0.633508940E-4      1.00913159        0.889025534E-4      1.01083508   
    -7.23000000        0.634415822E-4      1.00913793        0.890519187E-4      1.01084398   
    -7.22000000        0.635324743E-4      1.00914428        0.892016720E-4      1.01085289   
    -7.21000000        0.636235707E-4      1.00915064        0.893518147E-4      1.01086181   
    -7.20000000        0.637148722E-4      1.00915700        0.895023483E-4      1.01087075   
    -7.19000000        0.638063794E-4      1.00916338        0.896532741E-4      1.01087971   
    -7.18000000        0.638980931E-4      1.00916976        0.898045935E-4      1.01088868   
    -7.17000000        0.639900137E-4      1.00917616        0.899563080E-4      1.01089767   
    -7.16000000        0.640821421E-4      1.00918256        0.901084190E-4      1.01090667   
    -7.15000000        0.641744789E-4      1.00918897        0.902609279E-4      1.01091569   
    -7.14000000        0.642670247E-4      1.00919539        0.904138362E-4      1.01092472   
    -7.13000000        0.643597802E-4      1.00920182        0.905671453E-4      1.01093377   
    -7.12000000        0.644527461E-4      1.00920826        0.907208567E-4      1.01094283   
    -7.11000000        0.645459231E-4      1.00921471        0.908749718E-4      1.01095191   
    -7.10000000        0.646393118E-4      1.00922117        0.910294922E-4      1.01096100   
    -7.09000000        0.647329130E-4      1.00922764        0.911844192E-4      1.01097011   
    -7.08000000        0.648267273E-4      1.00923411        0.913397544E-4      1.01097924   
    -7.07000000        0.649207554E-4      1.00924060        0.914954993E-4      1.01098838   
    -7.06000000        0.650149980E-4      1.00924710        0.916516554E-4      1.01099753   
    -7.05000000        0.651094559E-4      1.00925360        0.918082241E-4      1.01100671   
    -7.04000000        0.652041296E-4      1.00926012        0.919652070E-4      1.01101589   
    -7.03000000        0.652990199E-4      1.00926664        0.921226056E-4      1.01102510   
    -7.02000000        0.653941276E-4      1.00927318        0.922804215E-4      1.01103431   
    -7.01000000        0.654894532E-4      1.00927972        0.924386561E-4      1.01104355   
    -7.00000000        0.655849976E-4      1.00928627        0.925973110E-4      1.01105280   
    -6.99000000        0.656807615E-4      1.00929284        0.927563878E-4      1.01106207   
    -6.98000000        0.657767455E-4      1.00929941        0.929158880E-4      1.01107135   
    -6.97000000        0.658729504E-4      1.00930599        0.930758132E-4      1.01108065   
    -6.96000000        0.659693769E-4      1.00931258        0.932361649E-4      1.01108996   
    -6.95000000        0.660660258E-4      1.00931918        0.933969448E-4      1.01109929   
    -6.94000000        0.661628977E-4      1.00932579        0.935581544E-4      1.01110864   
    -6.93000000        0.662599934E-4      1.00933241        0.937197953E-4      1.01111800   
    -6.92000000        0.663573136E-4      1.00933904        0.938818691E-4      1.01112738   
    -6.91000000        0.664548592E-4      1.00934568        0.940443775E-4      1.01113677   
    -6.90000000        0.665526308E-4      1.00935233        0.942073220E-4      1.01114618   
    -6.89000000        0.666506291E-4      1.00935899        0.943707043E-4      1.01115561   
    -6.88000000        0.667488550E-4      1.00936566        0.945345260E-4      1.01116506   
    -6.87000000        0.668473091E-4      1.00937234        0.946987887E-4      1.01117452   
    -6.86000000        0.669459923E-4      1.00937903        0.948634942E-4      1.01118399   
    -6.85000000        0.670449052E-4      1.00938573        0.950286440E-4      1.01119349   
    -6.84000000        0.671440488E-4      1.00939244        0.951942399E-4      1.01120299   
    -6.83000000        0.672434236E-4      1.00939916        0.953602834E-4      1.01121252   
    -6.82000000        0.673430306E-4      1.00940588        0.955267764E-4      1.01122206   
    -6.81000000        0.674428704E-4      1.00941262        0.956937204E-4      1.01123162   
    -6.80000000        0.675429439E-4      1.00941937        0.958611173E-4      1.01124120   
    -6.79000000        0.676432518E-4      1.00942613        0.960289686E-4      1.01125079   
    -6.78000000        0.677437950E-4      1.00943290        0.961972761E-4      1.01126040   
    -6.77000000        0.678445741E-4      1.00943968        0.963660415E-4      1.01127003   
    -6.76000000        0.679455901E-4      1.00944647        0.965352666E-4      1.01127967   
    -6.75000000        0.680468436E-4      1.00945326        0.967049532E-4      1.01128933   
    -6.74000000        0.681483355E-4      1.00946007        0.968751029E-4      1.01129901   
    -6.73000000        0.682500667E-4      1.00946689        0.970457175E-4      1.01130871   
    -6.72000000        0.683520378E-4      1.00947372        0.972167988E-4      1.01131842   
    -6.71000000        0.684542498E-4      1.00948056        0.973883486E-4      1.01132815   
    -6.70000000        0.685567034E-4      1.00948741        0.975603686E-4      1.01133789   
    -6.69000000        0.686593995E-4      1.00949427        0.977328607E-4      1.01134765   
    -6.68000000        0.687623388E-4      1.00950114        0.979058266E-4      1.01135743   
    -6.67000000        0.688655223E-4      1.00950802        0.980792682E-4      1.01136723   
    -6.66000000        0.689689506E-4      1.00951491        0.982531873E-4      1.01137705   
    -6.65000000        0.690726247E-4      1.00952181        0.984275857E-4      1.01138688   
    -6.64000000        0.691765455E-4      1.00952873        0.986024653E-4      1.01139673   
    -6.63000000        0.692807137E-4      1.00953565        0.987778279E-4      1.01140660   
    -6.62000000        0.693851301E-4      1.00954258        0.989536754E-4      1.01141648   
    -6.61000000        0.694897957E-4      1.00954952        0.991300097E-4      1.01142638   
    -6.60000000        0.695947113E-4      1.00955648        0.993068325E-4      1.01143630   
    -6.59000000        0.696998777E-4      1.00956344        0.994841459E-4      1.01144624   
    -6.58000000        0.698052959E-4      1.00957041        0.996619517E-4      1.01145620   
    -6.57000000        0.699109666E-4      1.00957740        0.998402518E-4      1.01146617   
    -6.56000000        0.700168908E-4      1.00958439        0.100019048E-3      1.01147616   
    -6.55000000        0.701230693E-4      1.00959140        0.100198343E-3      1.01148617   
    -6.54000000        0.702295029E-4      1.00959842        0.100378137E-3      1.01149620   
    -6.53000000        0.703361927E-4      1.00960545        0.100558434E-3      1.01150624   
    -6.52000000        0.704431394E-4      1.00961248        0.100739235E-3      1.01151631   
    -6.51000000        0.705503440E-4      1.00961953        0.100920541E-3      1.01152639   
    -6.50000000        0.706578073E-4      1.00962659        0.101102356E-3      1.01153649   
    -6.49000000        0.707655303E-4      1.00963366        0.101284680E-3      1.01154661   
    -6.48000000        0.708735138E-4      1.00964074        0.101467517E-3      1.01155674   
    -6.47000000        0.709817588E-4      1.00964783        0.101650867E-3      1.01156690   
    -6.46000000        0.710902661E-4      1.00965494        0.101834734E-3      1.01157707   
    -6.45000000        0.711990367E-4      1.00966205        0.102019118E-3      1.01158726   
    -6.44000000        0.713080716E-4      1.00966918        0.102204023E-3      1.01159747   
    -6.43000000        0.714173715E-4      1.00967631        0.102389449E-3      1.01160770   
    -6.42000000        0.715269375E-4      1.00968346        0.102575400E-3      1.01161794   
    -6.41000000        0.716367705E-4      1.00969061        0.102761877E-3      1.01162821   
    -6.40000000        0.717468715E-4      1.00969778        0.102948882E-3      1.01163849   
    -6.39000000        0.718572413E-4      1.00970496        0.103136417E-3      1.01164879   
    -6.38000000        0.719678809E-4      1.00971215        0.103324485E-3      1.01165912   
    -6.37000000        0.720787913E-4      1.00971935        0.103513088E-3      1.01166946   
    -6.36000000        0.721899734E-4      1.00972657        0.103702227E-3      1.01167982   
    -6.35000000        0.723014282E-4      1.00973379        0.103891906E-3      1.01169019   
    -6.34000000        0.724131567E-4      1.00974103        0.104082125E-3      1.01170059   
    -6.33000000        0.725251598E-4      1.00974827        0.104272888E-3      1.01171101   
    -6.32000000        0.726374384E-4      1.00975553        0.104464195E-3      1.01172144   
    -6.31000000        0.727499937E-4      1.00976280        0.104656051E-3      1.01173190   
    -6.30000000        0.728628265E-4      1.00977008        0.104848456E-3      1.01174237   
    -6.29000000        0.729759379E-4      1.00977737        0.105041413E-3      1.01175286   
    -6.28000000        0.730893288E-4      1.00978467        0.105234924E-3      1.01176337   
    -6.27000000        0.732030003E-4      1.00979198        0.105428992E-3      1.01177390   
    -6.26000000        0.733169533E-4      1.00979931        0.105623618E-3      1.01178446   
    -6.25000000        0.734311889E-4      1.00980664        0.105818805E-3      1.01179503   
    -6.24000000        0.735457080E-4      1.00981399        0.106014555E-3      1.01180562   
    -6.23000000        0.736605118E-4      1.00982135        0.106210871E-3      1.01181622   
    -6.22000000        0.737756011E-4      1.00982872        0.106407754E-3      1.01182685   
    -6.21000000        0.738909771E-4      1.00983611        0.106605208E-3      1.01183750   
    -6.20000000        0.740066408E-4      1.00984350        0.106803233E-3      1.01184817   
    -6.19000000        0.741225932E-4      1.00985090        0.107001834E-3      1.01185886   
    -6.18000000        0.742388354E-4      1.00985832        0.107201011E-3      1.01186957   
    -6.17000000        0.743553684E-4      1.00986575        0.107400768E-3      1.01188030   
    -6.16000000        0.744721932E-4      1.00987319        0.107601106E-3      1.01189104   
    -6.15000000        0.745893110E-4      1.00988064        0.107802029E-3      1.01190181   
    -6.14000000        0.747067227E-4      1.00988811        0.108003538E-3      1.01191260   
    -6.13000000        0.748244296E-4      1.00989558        0.108205636E-3      1.01192341   
    -6.12000000        0.749424325E-4      1.00990307        0.108408325E-3      1.01193424   
    -6.11000000        0.750607327E-4      1.00991057        0.108611608E-3      1.01194509   
    -6.10000000        0.751793312E-4      1.00991808        0.108815487E-3      1.01195596   
    -6.09000000        0.752982292E-4      1.00992560        0.109019965E-3      1.01196685   
    -6.08000000        0.754174276E-4      1.00993314        0.109225044E-3      1.01197776   
    -6.07000000        0.755369276E-4      1.00994068        0.109430726E-3      1.01198869   
    -6.06000000        0.756567303E-4      1.00994824        0.109637014E-3      1.01199964   
    -6.05000000        0.757768369E-4      1.00995581        0.109843912E-3      1.01201061   
    -6.04000000        0.758972484E-4      1.00996340        0.110051420E-3      1.01202160   
    -6.03000000        0.760179660E-4      1.00997099        0.110259542E-3      1.01203262   
    -6.02000000        0.761389907E-4      1.00997860        0.110468280E-3      1.01204365   
    -6.01000000        0.762603239E-4      1.00998622        0.110677636E-3      1.01205471   
    -6.00000000        0.763819665E-4      1.00999385        0.110887615E-3      1.01206578   
    -5.99000000        0.765039198E-4      1.01000149        0.111098217E-3      1.01207688   
    -5.98000000        0.766261849E-4      1.01000915        0.111309445E-3      1.01208800   
    -5.97000000        0.767487629E-4      1.01001681        0.111521303E-3      1.01209914   
    -5.96000000        0.768716550E-4      1.01002449        0.111733793E-3      1.01211030   
    -5.95000000        0.769948625E-4      1.01003219        0.111946917E-3      1.01212148   
    -5.94000000        0.771183864E-4      1.01003989        0.112160678E-3      1.01213268   
    -5.93000000        0.772422280E-4      1.01004761        0.112375079E-3      1.01214391   
    -5.92000000        0.773663885E-4      1.01005534        0.112590123E-3      1.01215515   
    -5.91000000        0.774908690E-4      1.01006308        0.112805812E-3      1.01216642   
    -5.90000000        0.776156707E-4      1.01007083        0.113022149E-3      1.01217771   
    -5.89000000        0.777407950E-4      1.01007860        0.113239136E-3      1.01218902   
    -5.88000000        0.778662429E-4      1.01008638        0.113456777E-3      1.01220035   
    -5.87000000        0.779920157E-4      1.01009417        0.113675074E-3      1.01221171   
    -5.86000000        0.781181147E-4      1.01010198        0.113894031E-3      1.01222308   
    -5.85000000        0.782445411E-4      1.01010979        0.114113649E-3      1.01223448   
    -5.84000000        0.783712961E-4      1.01011762        0.114333931E-3      1.01224590   
    -5.83000000        0.784983809E-4      1.01012546        0.114554881E-3      1.01225734   
    -5.82000000        0.786257969E-4      1.01013332        0.114776502E-3      1.01226881   
    -5.81000000        0.787535452E-4      1.01014119        0.114998796E-3      1.01228030   
    -5.80000000        0.788816273E-4      1.01014907        0.115221766E-3      1.01229180   
    -5.79000000        0.790100442E-4      1.01015696        0.115445414E-3      1.01230334   
    -5.78000000        0.791387974E-4      1.01016487        0.115669745E-3      1.01231489   
    -5.77000000        0.792678881E-4      1.01017279        0.115894761E-3      1.01232647   
    -5.76000000        0.793973176E-4      1.01018072        0.116120464E-3      1.01233806   
    -5.75000000        0.795270872E-4      1.01018866        0.116346859E-3      1.01234968   
    -5.74000000        0.796571982E-4      1.01019662        0.116573947E-3      1.01236133   
    -5.73000000        0.797876519E-4      1.01020459        0.116801731E-3      1.01237299   
    -5.72000000        0.799184497E-4      1.01021258        0.117030216E-3      1.01238468   
    -5.71000000        0.800495930E-4      1.01022058        0.117259403E-3      1.01239640   
    -5.70000000        0.801810829E-4      1.01022859        0.117489297E-3      1.01240813   
    -5.69000000        0.803129209E-4      1.01023661        0.117719899E-3      1.01241989   
    -5.68000000        0.804451084E-4      1.01024465        0.117951213E-3      1.01243167   
    -5.67000000        0.805776466E-4      1.01025270        0.118183243E-3      1.01244347   
    -5.66000000        0.807105370E-4      1.01026076        0.118415991E-3      1.01245530   
    -5.65000000        0.808437810E-4      1.01026884        0.118649460E-3      1.01246715   
    -5.64000000        0.809773798E-4      1.01027693        0.118883654E-3      1.01247903   
    -5.63000000        0.811113350E-4      1.01028503        0.119118576E-3      1.01249093   
    -5.62000000        0.812456479E-4      1.01029315        0.119354228E-3      1.01250285   
    -5.61000000        0.813803199E-4      1.01030128        0.119590615E-3      1.01251479   
    -5.60000000        0.815153525E-4      1.01030942        0.119827740E-3      1.01252676   
    -5.59000000        0.816507470E-4      1.01031758        0.120065605E-3      1.01253875   
    -5.58000000        0.817865049E-4      1.01032575        0.120304214E-3      1.01255077   
    -5.57000000        0.819226276E-4      1.01033393        0.120543571E-3      1.01256281   
    -5.56000000        0.820591165E-4      1.01034213        0.120783678E-3      1.01257487   
    -5.55000000        0.821959732E-4      1.01035034        0.121024539E-3      1.01258696   
    -5.54000000        0.823331991E-4      1.01035857        0.121266157E-3      1.01259907   
    -5.53000000        0.824707956E-4      1.01036680        0.121508536E-3      1.01261121   
    -5.52000000        0.826087643E-4      1.01037506        0.121751679E-3      1.01262337   
    -5.51000000        0.827471066E-4      1.01038332        0.121995590E-3      1.01263555   
    -5.50000000        0.828858239E-4      1.01039160        0.122240271E-3      1.01264776   
    -5.49000000        0.830249179E-4      1.01039990        0.122485727E-3      1.01266000   
    -5.48000000        0.831643901E-4      1.01040821        0.122731961E-3      1.01267225   
    -5.47000000        0.833042418E-4      1.01041653        0.122978977E-3      1.01268454   
    -5.46000000        0.834444748E-4      1.01042487        0.123226777E-3      1.01269684   
    -5.45000000        0.835850904E-4      1.01043322        0.123475366E-3      1.01270918   
    -5.44000000        0.837260903E-4      1.01044158        0.123724746E-3      1.01272153   
    -5.43000000        0.838674761E-4      1.01044996        0.123974923E-3      1.01273392   
    -5.42000000        0.840092492E-4      1.01045835        0.124225898E-3      1.01274632   
    -5.41000000        0.841514112E-4      1.01046676        0.124477677E-3      1.01275876   
    -5.40000000        0.842939638E-4      1.01047518        0.124730261E-3      1.01277121   
    -5.39000000        0.844369085E-4      1.01048361        0.124983657E-3      1.01278370   
    -5.38000000        0.845802469E-4      1.01049206        0.125237866E-3      1.01279621   
    -5.37000000        0.847239806E-4      1.01050053        0.125492892E-3      1.01280874   
    -5.36000000        0.848681113E-4      1.01050901        0.125748740E-3      1.01282130   
    -5.35000000        0.850126406E-4      1.01051750        0.126005413E-3      1.01283388   
    -5.34000000        0.851575701E-4      1.01052601        0.126262915E-3      1.01284649   
    -5.33000000        0.853029014E-4      1.01053453        0.126521250E-3      1.01285913   
    -5.32000000        0.854486362E-4      1.01054306        0.126780421E-3      1.01287179   
    -5.31000000        0.855947762E-4      1.01055161        0.127040432E-3      1.01288448   
    -5.30000000        0.857413231E-4      1.01056018        0.127301288E-3      1.01289720   
    -5.29000000        0.858882785E-4      1.01056876        0.127562992E-3      1.01290994   
    -5.28000000        0.860356442E-4      1.01057735        0.127825548E-3      1.01292270   
    -5.27000000        0.861834217E-4      1.01058596        0.128088961E-3      1.01293550   
    -5.26000000        0.863316130E-4      1.01059459        0.128353233E-3      1.01294831   
    -5.25000000        0.864802196E-4      1.01060323        0.128618369E-3      1.01296116   
    -5.24000000        0.866292433E-4      1.01061188        0.128884374E-3      1.01297403   
    -5.23000000        0.867786858E-4      1.01062055        0.129151251E-3      1.01298693   
    -5.22000000        0.869285490E-4      1.01062923        0.129419004E-3      1.01299986   
    -5.21000000        0.870788346E-4      1.01063793        0.129687637E-3      1.01301281   
    -5.20000000        0.872295443E-4      1.01064665        0.129957155E-3      1.01302579   
    -5.19000000        0.873806799E-4      1.01065538        0.130227561E-3      1.01303879   
    -5.18000000        0.875322433E-4      1.01066412        0.130498860E-3      1.01305183   
    -5.17000000        0.876842362E-4      1.01067288        0.130771057E-3      1.01306489   
    -5.16000000        0.878366605E-4      1.01068165        0.131044154E-3      1.01307798   
    -5.15000000        0.879895180E-4      1.01069044        0.131318158E-3      1.01309109   
    -5.14000000        0.881428105E-4      1.01069925        0.131593071E-3      1.01310423   
    -5.13000000        0.882965400E-4      1.01070807        0.131868898E-3      1.01311740   
    -5.12000000        0.884507081E-4      1.01071691        0.132145644E-3      1.01313060   
    -5.11000000        0.886053169E-4      1.01072576        0.132423312E-3      1.01314383   
    -5.10000000        0.887603682E-4      1.01073462        0.132701908E-3      1.01315708   
    -5.09000000        0.889158639E-4      1.01074351        0.132981436E-3      1.01317036   
    -5.08000000        0.890718059E-4      1.01075240        0.133261900E-3      1.01318367   
    -5.07000000        0.892281961E-4      1.01076132        0.133543305E-3      1.01319701   
    -5.06000000        0.893850366E-4      1.01077025        0.133825654E-3      1.01321037   
    -5.05000000        0.895423291E-4      1.01077919        0.134108954E-3      1.01322377   
    -5.04000000        0.897000757E-4      1.01078815        0.134393208E-3      1.01323719   
    -5.03000000        0.898582783E-4      1.01079713        0.134678421E-3      1.01325064   
    -5.02000000        0.900169390E-4      1.01080612        0.134964597E-3      1.01326412   
    -5.01000000        0.901760596E-4      1.01081513        0.135251742E-3      1.01327762   
    -5.00000000        0.903356423E-4      1.01082415        0.135539860E-3      1.01329116   
    -4.99000000        0.904956890E-4      1.01083319        0.135828956E-3      1.01330473   
    -4.98000000        0.906562017E-4      1.01084225        0.136119034E-3      1.01331832   
    -4.97000000        0.908171826E-4      1.01085132        0.136410099E-3      1.01333194   
    -4.96000000        0.909786336E-4      1.01086041        0.136702156E-3      1.01334560   
    -4.95000000        0.911405568E-4      1.01086951        0.136995210E-3      1.01335928   
    -4.94000000        0.913029544E-4      1.01087863        0.137289266E-3      1.01337299   
    -4.93000000        0.914658283E-4      1.01088777        0.137584329E-3      1.01338673   
    -4.92000000        0.916291807E-4      1.01089692        0.137880404E-3      1.01340050   
    -4.91000000        0.917930138E-4      1.01090609        0.138177495E-3      1.01341430   
    -4.90000000        0.919573296E-4      1.01091528        0.138475608E-3      1.01342813   
    -4.89000000        0.921221303E-4      1.01092448        0.138774748E-3      1.01344199   
    -4.88000000        0.922874181E-4      1.01093370        0.139074920E-3      1.01345588   
    -4.87000000        0.924531951E-4      1.01094294        0.139376128E-3      1.01346979   
    -4.86000000        0.926194636E-4      1.01095219        0.139678379E-3      1.01348374   
    -4.85000000        0.927862256E-4      1.01096146        0.139981677E-3      1.01349772   
    -4.84000000        0.929534835E-4      1.01097074        0.140286028E-3      1.01351173   
    -4.83000000        0.931212395E-4      1.01098004        0.140591437E-3      1.01352577   
    -4.82000000        0.932894958E-4      1.01098936        0.140897908E-3      1.01353984   
    -4.81000000        0.934582547E-4      1.01099870        0.141205449E-3      1.01355395   
    -4.80000000        0.936275185E-4      1.01100805        0.141514063E-3      1.01356808   
    -4.79000000        0.937972893E-4      1.01101742        0.141823756E-3      1.01358224   
    -4.78000000        0.939675697E-4      1.01102681        0.142134534E-3      1.01359644   
    -4.77000000        0.941383617E-4      1.01103621        0.142446402E-3      1.01361066   
    -4.76000000        0.943096679E-4      1.01104563        0.142759366E-3      1.01362492   
    -4.75000000        0.944814905E-4      1.01105507        0.143073431E-3      1.01363921   
    -4.74000000        0.946538319E-4      1.01106452        0.143388603E-3      1.01365353   
    -4.73000000        0.948266945E-4      1.01107400        0.143704888E-3      1.01366788   
    -4.72000000        0.950000807E-4      1.01108349        0.144022291E-3      1.01368226   
    -4.71000000        0.951739929E-4      1.01109299        0.144340817E-3      1.01369667   
    -4.70000000        0.953484335E-4      1.01110252        0.144660473E-3      1.01371112   
    -4.69000000        0.955234049E-4      1.01111206        0.144981265E-3      1.01372560   
    -4.68000000        0.956989097E-4      1.01112162        0.145303198E-3      1.01374011   
    -4.67000000        0.958749503E-4      1.01113120        0.145626278E-3      1.01375465   
    -4.66000000        0.960515291E-4      1.01114079        0.145950511E-3      1.01376923   
    -4.65000000        0.962286488E-4      1.01115040        0.146275903E-3      1.01378383   
    -4.64000000        0.964063117E-4      1.01116003        0.146602460E-3      1.01379847   
    -4.63000000        0.965845205E-4      1.01116968        0.146930189E-3      1.01381315   
    -4.62000000        0.967632778E-4      1.01117935        0.147259094E-3      1.01382785   
    -4.61000000        0.969425860E-4      1.01118903        0.147589183E-3      1.01384259   
    -4.60000000        0.971224478E-4      1.01119873        0.147920461E-3      1.01385736   
    -4.59000000        0.973028658E-4      1.01120845        0.148252935E-3      1.01387217   
    -4.58000000        0.974838426E-4      1.01121819        0.148586610E-3      1.01388700   
    -4.57000000        0.976653809E-4      1.01122794        0.148921494E-3      1.01390188   
    -4.56000000        0.978474834E-4      1.01123772        0.149257593E-3      1.01391678   
    -4.55000000        0.980301527E-4      1.01124751        0.149594912E-3      1.01393172   
    -4.54000000        0.982133914E-4      1.01125732        0.149933459E-3      1.01394669   
    -4.53000000        0.983972025E-4      1.01126715        0.150273240E-3      1.01396170   
    -4.52000000        0.985815885E-4      1.01127699        0.150614261E-3      1.01397674   
    -4.51000000        0.987665522E-4      1.01128686        0.150956529E-3      1.01399181   
    -4.50000000        0.989520965E-4      1.01129674        0.151300051E-3      1.01400692   
    -4.49000000        0.991382240E-4      1.01130665        0.151644833E-3      1.01402206   
    -4.48000000        0.993249377E-4      1.01131657        0.151990882E-3      1.01403724   
    -4.47000000        0.995122404E-4      1.01132651        0.152338205E-3      1.01405245   
    -4.46000000        0.997001348E-4      1.01133647        0.152686809E-3      1.01406770   
    -4.45000000        0.998886240E-4      1.01134644        0.153036700E-3      1.01408298   
    -4.44000000        0.100077711E-3      1.01135644        0.153387886E-3      1.01409830   
    -4.43000000        0.100267398E-3      1.01136646        0.153740373E-3      1.01411365   
    -4.42000000        0.100457688E-3      1.01137649        0.154094169E-3      1.01412904   
    -4.41000000        0.100648586E-3      1.01138654        0.154449280E-3      1.01414446   
    -4.40000000        0.100840092E-3      1.01139662        0.154805714E-3      1.01415992   
    -4.39000000        0.101032211E-3      1.01140671        0.155163478E-3      1.01417541   
    -4.38000000        0.101224945E-3      1.01141682        0.155522578E-3      1.01419094   
    -4.37000000        0.101418297E-3      1.01142695        0.155883024E-3      1.01420651   
    -4.36000000        0.101612271E-3      1.01143710        0.156244821E-3      1.01422211   
    -4.35000000        0.101806870E-3      1.01144727        0.156607977E-3      1.01423775   
    -4.34000000        0.102002096E-3      1.01145745        0.156972499E-3      1.01425342   
    -4.33000000        0.102197953E-3      1.01146766        0.157338396E-3      1.01426913   
    -4.32000000        0.102394444E-3      1.01147789        0.157705675E-3      1.01428488   
    -4.31000000        0.102591572E-3      1.01148814        0.158074342E-3      1.01430067   
    -4.30000000        0.102789340E-3      1.01149840        0.158444407E-3      1.01431649   
    -4.29000000        0.102987752E-3      1.01150869        0.158815877E-3      1.01433235   
    -4.28000000        0.103186811E-3      1.01151900        0.159188759E-3      1.01434824   
    -4.27000000        0.103386520E-3      1.01152932        0.159563061E-3      1.01436417   
    -4.26000000        0.103586882E-3      1.01153967        0.159938792E-3      1.01438014   
    -4.25000000        0.103787901E-3      1.01155004        0.160315960E-3      1.01439615   
    -4.24000000        0.103989579E-3      1.01156042        0.160694571E-3      1.01441220   
    -4.23000000        0.104191921E-3      1.01157083        0.161074635E-3      1.01442828   
    -4.22000000        0.104394930E-3      1.01158126        0.161456160E-3      1.01444440   
    -4.21000000        0.104598609E-3      1.01159170        0.161839154E-3      1.01446056   
    -4.20000000        0.104802962E-3      1.01160217        0.162223624E-3      1.01447676   
    -4.19000000        0.105007991E-3      1.01161266        0.162609581E-3      1.01449300   
    -4.18000000        0.105213702E-3      1.01162317        0.162997031E-3      1.01450927   
    -4.17000000        0.105420096E-3      1.01163370        0.163385984E-3      1.01452559   
    -4.16000000        0.105627178E-3      1.01164425        0.163776448E-3      1.01454194   
    -4.15000000        0.105834951E-3      1.01165482        0.164168431E-3      1.01455833   
    -4.14000000        0.106043418E-3      1.01166541        0.164561943E-3      1.01457476   
    -4.13000000        0.106252585E-3      1.01167602        0.164956992E-3      1.01459123   
    -4.12000000        0.106462453E-3      1.01168666        0.165353587E-3      1.01460774   
    -4.11000000        0.106673027E-3      1.01169731        0.165751736E-3      1.01462429   
    -4.10000000        0.106884310E-3      1.01170799        0.166151450E-3      1.01464088   
    -4.09000000        0.107096307E-3      1.01171868        0.166552736E-3      1.01465751   
    -4.08000000        0.107309020E-3      1.01172940        0.166955605E-3      1.01467418   
    -4.07000000        0.107522454E-3      1.01174014        0.167360064E-3      1.01469090   
    -4.06000000        0.107736613E-3      1.01175090        0.167766124E-3      1.01470765   
    -4.05000000        0.107951500E-3      1.01176168        0.168173794E-3      1.01472444   
    -4.04000000        0.108167120E-3      1.01177249        0.168583083E-3      1.01474127   
    -4.03000000        0.108383475E-3      1.01178331        0.168994001E-3      1.01475814   
    -4.02000000        0.108600571E-3      1.01179416        0.169406556E-3      1.01477506   
    -4.01000000        0.108818411E-3      1.01180503        0.169820760E-3      1.01479201   
    -4.00000000        0.109036999E-3      1.01181592        0.170236622E-3      1.01480901   
    -3.99000000        0.109256339E-3      1.01182683        0.170654150E-3      1.01482605   
    -3.98000000        0.109476435E-3      1.01183776        0.171073356E-3      1.01484313   
    -3.97000000        0.109697292E-3      1.01184872        0.171494250E-3      1.01486025   
    -3.96000000        0.109918913E-3      1.01185970        0.171916840E-3      1.01487742   
    -3.95000000        0.110141302E-3      1.01187070        0.172341138E-3      1.01489463   
    -3.94000000        0.110364465E-3      1.01188172        0.172767154E-3      1.01491188   
    -3.93000000        0.110588404E-3      1.01189277        0.173194897E-3      1.01492917   
    -3.92000000        0.110813125E-3      1.01190383        0.173624379E-3      1.01494650   
    -3.91000000        0.111038631E-3      1.01191492        0.174055610E-3      1.01496388   
    -3.90000000        0.111264927E-3      1.01192604        0.174488600E-3      1.01498130   
    -3.89000000        0.111492018E-3      1.01193717        0.174923360E-3      1.01499877   
    -3.88000000        0.111719907E-3      1.01194833        0.175359900E-3      1.01501628   
    -3.87000000        0.111948599E-3      1.01195951        0.175798232E-3      1.01503383   
    -3.86000000        0.112178099E-3      1.01197071        0.176238367E-3      1.01505142   
    -3.85000000        0.112408411E-3      1.01198194        0.176680315E-3      1.01506906   
    -3.84000000        0.112639539E-3      1.01199319        0.177124087E-3      1.01508675   
    -3.83000000        0.112871489E-3      1.01200446        0.177569696E-3      1.01510448   
    -3.82000000        0.113104265E-3      1.01201576        0.178017151E-3      1.01512225   
    -3.81000000        0.113337871E-3      1.01202708        0.178466465E-3      1.01514007   
    -3.80000000        0.113572312E-3      1.01203842        0.178917648E-3      1.01515793   
    -3.79000000        0.113807593E-3      1.01204979        0.179370713E-3      1.01517584   
    -3.78000000        0.114043719E-3      1.01206118        0.179825671E-3      1.01519379   
    -3.77000000        0.114280695E-3      1.01207259        0.180282534E-3      1.01521179   
    -3.76000000        0.114518524E-3      1.01208403        0.180741314E-3      1.01522983   
    -3.75000000        0.114757214E-3      1.01209549        0.181202023E-3      1.01524793   
    -3.74000000        0.114996767E-3      1.01210697        0.181664672E-3      1.01526606   
    -3.73000000        0.115237189E-3      1.01211848        0.182129274E-3      1.01528425   
    -3.72000000        0.115478486E-3      1.01213001        0.182595842E-3      1.01530248   
    -3.71000000        0.115720662E-3      1.01214157        0.183064388E-3      1.01532075   
    -3.70000000        0.115963723E-3      1.01215315        0.183534924E-3      1.01533907   
    -3.69000000        0.116207672E-3      1.01216476        0.184007463E-3      1.01535745   
    -3.68000000        0.116452517E-3      1.01217639        0.184482017E-3      1.01537586   
    -3.67000000        0.116698262E-3      1.01218804        0.184958600E-3      1.01539433   
    -3.66000000        0.116944911E-3      1.01219972        0.185437225E-3      1.01541284   
    -3.65000000        0.117192472E-3      1.01221143        0.185917903E-3      1.01543140   
    -3.64000000        0.117440948E-3      1.01222315        0.186400650E-3      1.01545001   
    -3.63000000        0.117690346E-3      1.01223491        0.186885478E-3      1.01546867   
    -3.62000000        0.117940670E-3      1.01224669        0.187372400E-3      1.01548737   
    -3.61000000        0.118191927E-3      1.01225849        0.187861430E-3      1.01550613   
    -3.60000000        0.118444122E-3      1.01227032        0.188352582E-3      1.01552493   
    -3.59000000        0.118697260E-3      1.01228217        0.188845870E-3      1.01554379   
    -3.58000000        0.118951347E-3      1.01229405        0.189341307E-3      1.01556269   
    -3.57000000        0.119206389E-3      1.01230596        0.189838907E-3      1.01558164   
    -3.56000000        0.119462392E-3      1.01231789        0.190338685E-3      1.01560064   
    -3.55000000        0.119719361E-3      1.01232984        0.190840655E-3      1.01561969   
    -3.54000000        0.119977303E-3      1.01234182        0.191344832E-3      1.01563879   
    -3.53000000        0.120236223E-3      1.01235383        0.191851229E-3      1.01565795   
    -3.52000000        0.120496127E-3      1.01236586        0.192359862E-3      1.01567715   
    -3.51000000        0.120757021E-3      1.01237792        0.192870746E-3      1.01569640   
    -3.50000000        0.121018911E-3      1.01239001        0.193383895E-3      1.01571571   
    -3.49000000        0.121281804E-3      1.01240212        0.193899325E-3      1.01573507   
    -3.48000000        0.121545706E-3      1.01241426        0.194417051E-3      1.01575447   
    -3.47000000        0.121810622E-3      1.01242642        0.194937088E-3      1.01577393   
    -3.46000000        0.122076559E-3      1.01243861        0.195459452E-3      1.01579345   
    -3.45000000        0.122343524E-3      1.01245083        0.195984158E-3      1.01581301   
    -3.44000000        0.122611522E-3      1.01246308        0.196511223E-3      1.01583263   
    -3.43000000        0.122880561E-3      1.01247535        0.197040662E-3      1.01585230   
    -3.42000000        0.123150647E-3      1.01248765        0.197572492E-3      1.01587202   
    -3.41000000        0.123421787E-3      1.01249997        0.198106729E-3      1.01589179   
    -3.40000000        0.123693986E-3      1.01251232        0.198643389E-3      1.01591162   
    -3.39000000        0.123967252E-3      1.01252470        0.199182488E-3      1.01593151   
    -3.38000000        0.124241592E-3      1.01253711        0.199724045E-3      1.01595144   
    -3.37000000        0.124517013E-3      1.01254954        0.200268075E-3      1.01597144   
    -3.36000000        0.124793520E-3      1.01256201        0.200814595E-3      1.01599148   
    -3.35000000        0.125071122E-3      1.01257449        0.201363624E-3      1.01601158   
    -3.34000000        0.125349825E-3      1.01258701        0.201915178E-3      1.01603174   
    -3.33000000        0.125629637E-3      1.01259956        0.202469275E-3      1.01605195   
    -3.32000000        0.125910564E-3      1.01261213        0.203025932E-3      1.01607221   
    -3.31000000        0.126192615E-3      1.01262473        0.203585168E-3      1.01609254   
    -3.30000000        0.126475795E-3      1.01263736        0.204147001E-3      1.01611291   
    -3.29000000        0.126760113E-3      1.01265002        0.204711449E-3      1.01613335   
    -3.28000000        0.127045575E-3      1.01266271        0.205278531E-3      1.01615384   
    -3.27000000        0.127332190E-3      1.01267542        0.205848264E-3      1.01617439   
    -3.26000000        0.127619965E-3      1.01268817        0.206420669E-3      1.01619499   
    -3.25000000        0.127908908E-3      1.01270094        0.206995764E-3      1.01621565   
    -3.24000000        0.128199026E-3      1.01271374        0.207573568E-3      1.01623637   
    -3.23000000        0.128490328E-3      1.01272657        0.208154101E-3      1.01625715   
    -3.22000000        0.128782821E-3      1.01273943        0.208737382E-3      1.01627798   
    -3.21000000        0.129076512E-3      1.01275232        0.209323431E-3      1.01629888   
    -3.20000000        0.129371411E-3      1.01276524        0.209912268E-3      1.01631983   
    -3.19000000        0.129667525E-3      1.01277818        0.210503914E-3      1.01634084   
    -3.18000000        0.129964862E-3      1.01279116        0.211098388E-3      1.01636191   
    -3.17000000        0.130263431E-3      1.01280417        0.211695712E-3      1.01638304   
    -3.16000000        0.130563240E-3      1.01281721        0.212295905E-3      1.01640423   
    -3.15000000        0.130864298E-3      1.01283027        0.212898990E-3      1.01642548   
    -3.14000000        0.131166613E-3      1.01284337        0.213504988E-3      1.01644679   
    -3.13000000        0.131470193E-3      1.01285650        0.214113919E-3      1.01646816   
    -3.12000000        0.131775048E-3      1.01286966        0.214725806E-3      1.01648960   
    -3.11000000        0.132081186E-3      1.01288284        0.215340671E-3      1.01651109   
    -3.10000000        0.132388615E-3      1.01289606        0.215958535E-3      1.01653264   
    -3.09000000        0.132697346E-3      1.01290931        0.216579422E-3      1.01655426   
    -3.08000000        0.133007387E-3      1.01292259        0.217203353E-3      1.01657594   
    -3.07000000        0.133318747E-3      1.01293591        0.217830352E-3      1.01659768   
    -3.06000000        0.133631436E-3      1.01294925        0.218460442E-3      1.01661949   
    -3.05000000        0.133945462E-3      1.01296262        0.219093645E-3      1.01664135   
    -3.04000000        0.134260835E-3      1.01297603        0.219729986E-3      1.01666328   
    -3.03000000        0.134577565E-3      1.01298947        0.220369489E-3      1.01668528   
    -3.02000000        0.134895662E-3      1.01300294        0.221012178E-3      1.01670734   
    -3.01000000        0.135215135E-3      1.01301644        0.221658076E-3      1.01672946   
    -3.00000000        0.135535993E-3      1.01302997        0.222307209E-3      1.01675165   
    -2.99000000        0.135858248E-3      1.01304354        0.222959601E-3      1.01677390   
    -2.98000000        0.136181908E-3      1.01305713        0.223615278E-3      1.01679622   
    -2.97000000        0.136506985E-3      1.01307076        0.224274265E-3      1.01681860   
    -2.96000000        0.136833487E-3      1.01308442        0.224936588E-3      1.01684105   
    -2.95000000        0.137161427E-3      1.01309812        0.225602272E-3      1.01686357   
    -2.94000000        0.137490813E-3      1.01311185        0.226271344E-3      1.01688615   
    -2.93000000        0.137821658E-3      1.01312561        0.226943831E-3      1.01690880   
    -2.92000000        0.138153971E-3      1.01313940        0.227619760E-3      1.01693151   
    -2.91000000        0.138487763E-3      1.01315323        0.228299156E-3      1.01695430   
    -2.90000000        0.138823045E-3      1.01316709        0.228982049E-3      1.01697715   
    -2.89000000        0.139159829E-3      1.01318098        0.229668466E-3      1.01700007   
    -2.88000000        0.139498125E-3      1.01319491        0.230358434E-3      1.01702306   
    -2.87000000        0.139837944E-3      1.01320887        0.231051983E-3      1.01704612   
    -2.86000000        0.140179299E-3      1.01322287        0.231749140E-3      1.01706925   
    -2.85000000        0.140522201E-3      1.01323690        0.232449935E-3      1.01709244   
    -2.84000000        0.140866660E-3      1.01325096        0.233154398E-3      1.01711571   
    -2.83000000        0.141212690E-3      1.01326506        0.233862557E-3      1.01713905   
    -2.82000000        0.141560302E-3      1.01327919        0.234574443E-3      1.01716246   
    -2.81000000        0.141909508E-3      1.01329336        0.235290087E-3      1.01718594   
    -2.80000000        0.142260321E-3      1.01330757        0.236009519E-3      1.01720949   
    -2.79000000        0.142612752E-3      1.01332180        0.236732769E-3      1.01723312   
    -2.78000000        0.142966814E-3      1.01333608        0.237459870E-3      1.01725681   
    -2.77000000        0.143322520E-3      1.01335039        0.238190854E-3      1.01728058   
    -2.76000000        0.143679882E-3      1.01336473        0.238925752E-3      1.01730443   
    -2.75000000        0.144038914E-3      1.01337911        0.239664597E-3      1.01732834   
    -2.74000000        0.144399628E-3      1.01339353        0.240407421E-3      1.01735233   
    -2.73000000        0.144762038E-3      1.01340798        0.241154259E-3      1.01737640   
    -2.72000000        0.145126157E-3      1.01342247        0.241905144E-3      1.01740054   
    -2.71000000        0.145491998E-3      1.01343699        0.242660109E-3      1.01742475   
    -2.70000000        0.145859575E-3      1.01345156        0.243419190E-3      1.01744904   
    -2.69000000        0.146228902E-3      1.01346615        0.244182422E-3      1.01747341   
    -2.68000000        0.146599993E-3      1.01348079        0.244949839E-3      1.01749785   
    -2.67000000        0.146972862E-3      1.01349546        0.245721477E-3      1.01752237   
    -2.66000000        0.147347524E-3      1.01351017        0.246497373E-3      1.01754697   
    -2.65000000        0.147723992E-3      1.01352492        0.247277563E-3      1.01757164   
    -2.64000000        0.148102282E-3      1.01353971        0.248062085E-3      1.01759639   
    -2.63000000        0.148482408E-3      1.01355453        0.248850975E-3      1.01762122   
    -2.62000000        0.148864385E-3      1.01356939        0.249644271E-3      1.01764613   
    -2.61000000        0.149248228E-3      1.01358429        0.250442013E-3      1.01767112   
    -2.60000000        0.149633953E-3      1.01359923        0.251244239E-3      1.01769619   
    -2.59000000        0.150021576E-3      1.01361420        0.252050988E-3      1.01772134   
    -2.58000000        0.150411111E-3      1.01362922        0.252862301E-3      1.01774657   
    -2.57000000        0.150802576E-3      1.01364427        0.253678216E-3      1.01777188   
    -2.56000000        0.151195985E-3      1.01365937        0.254498777E-3      1.01779728   
    -2.55000000        0.151591356E-3      1.01367450        0.255324023E-3      1.01782275   
    -2.54000000        0.151988704E-3      1.01368967        0.256153997E-3      1.01784831   
    -2.53000000        0.152388047E-3      1.01370488        0.256988741E-3      1.01787395   
    -2.52000000        0.152789401E-3      1.01372014        0.257828298E-3      1.01789968   
    -2.51000000        0.153192784E-3      1.01373543        0.258672711E-3      1.01792548   
    -2.50000000        0.153598213E-3      1.01375076        0.259522025E-3      1.01795138   
    -2.49000000        0.154005705E-3      1.01376613        0.260376285E-3      1.01797736   
    -2.48000000        0.154415278E-3      1.01378155        0.261235534E-3      1.01800342   
    -2.47000000        0.154826950E-3      1.01379700        0.262099820E-3      1.01802957   
    -2.46000000        0.155240740E-3      1.01381250        0.262969188E-3      1.01805581   
    -2.45000000        0.155656665E-3      1.01382804        0.263843686E-3      1.01808213   
    -2.44000000        0.156074744E-3      1.01384362        0.264723361E-3      1.01810854   
    -2.43000000        0.156494997E-3      1.01385924        0.265608260E-3      1.01813504   
    -2.42000000        0.156917443E-3      1.01387490        0.266498434E-3      1.01816163   
    -2.41000000        0.157342100E-3      1.01389061        0.267393931E-3      1.01818830   
    -2.40000000        0.157768988E-3      1.01390635        0.268294802E-3      1.01821507   
    -2.39000000        0.158198128E-3      1.01392214        0.269201097E-3      1.01824193   
    -2.38000000        0.158629540E-3      1.01393798        0.270112868E-3      1.01826887   
    -2.37000000        0.159063243E-3      1.01395386        0.271030167E-3      1.01829591   
    -2.36000000        0.159499259E-3      1.01396978        0.271953046E-3      1.01832304   
    -2.35000000        0.159937608E-3      1.01398574        0.272881560E-3      1.01835027   
    -2.34000000        0.160378312E-3      1.01400175        0.273815763E-3      1.01837758   
    -2.33000000        0.160821392E-3      1.01401780        0.274755708E-3      1.01840499   
    -2.32000000        0.161266871E-3      1.01403390        0.275701453E-3      1.01843249   
    -2.31000000        0.161714769E-3      1.01405004        0.276653054E-3      1.01846009   
    -2.30000000        0.162165110E-3      1.01406622        0.277610568E-3      1.01848779   
    -2.29000000        0.162617916E-3      1.01408245        0.278574053E-3      1.01851558   
    -2.28000000        0.163073210E-3      1.01409873        0.279543568E-3      1.01854346   
    -2.27000000        0.163531015E-3      1.01411505        0.280519173E-3      1.01857144   
    -2.26000000        0.163991356E-3      1.01413142        0.281500928E-3      1.01859952   
    -2.25000000        0.164454255E-3      1.01414783        0.282488894E-3      1.01862770   
    -2.24000000        0.164919737E-3      1.01416429        0.283483134E-3      1.01865598   
    -2.23000000        0.165387827E-3      1.01418080        0.284483711E-3      1.01868436   
    -2.22000000        0.165858549E-3      1.01419735        0.285490689E-3      1.01871283   
    -2.21000000        0.166331929E-3      1.01421395        0.286504132E-3      1.01874141   
    -2.20000000        0.166807993E-3      1.01423060        0.287524107E-3      1.01877009   
    -2.19000000        0.167286766E-3      1.01424730        0.288550681E-3      1.01879887   
    -2.18000000        0.167768274E-3      1.01426404        0.289583920E-3      1.01882776   
    -2.17000000        0.168252545E-3      1.01428083        0.290623894E-3      1.01885675   
    -2.16000000        0.168739605E-3      1.01429767        0.291670673E-3      1.01888584   
    -2.15000000        0.169229482E-3      1.01431456        0.292724326E-3      1.01891503   
    -2.14000000        0.169722203E-3      1.01433150        0.293784926E-3      1.01894434   
    -2.13000000        0.170217797E-3      1.01434849        0.294852546E-3      1.01897374   
    -2.12000000        0.170716293E-3      1.01436552        0.295927259E-3      1.01900326   
    -2.11000000        0.171217719E-3      1.01438261        0.297009141E-3      1.01903288   
    -2.10000000        0.171722105E-3      1.01439975        0.298098267E-3      1.01906261   
    -2.09000000        0.172229481E-3      1.01441694        0.299194714E-3      1.01909245   
    -2.08000000        0.172739877E-3      1.01443417        0.300298561E-3      1.01912240   
    -2.07000000        0.173253324E-3      1.01445146        0.301409888E-3      1.01915246   
    -2.06000000        0.173769852E-3      1.01446880        0.302528775E-3      1.01918263   
    -2.05000000        0.174289494E-3      1.01448620        0.303655303E-3      1.01921292   
    -2.04000000        0.174812282E-3      1.01450364        0.304789557E-3      1.01924331   
    -2.03000000        0.175338249E-3      1.01452114        0.305931620E-3      1.01927382   
    -2.02000000        0.175867426E-3      1.01453869        0.307081579E-3      1.01930445   
    -2.01000000        0.176399849E-3      1.01455629        0.308239519E-3      1.01933519   
    -2.00000000        0.176935550E-3      1.01457395        0.309405530E-3      1.01936604   
    -1.99000000        0.177474565E-3      1.01459165        0.310579702E-3      1.01939701   
    -1.98000000        0.178016929E-3      1.01460942        0.311762125E-3      1.01942810   
    -1.97000000        0.178562676E-3      1.01462724        0.312952892E-3      1.01945931   
    -1.96000000        0.179111844E-3      1.01464511        0.314152097E-3      1.01949064   
    -1.95000000        0.179664469E-3      1.01466304        0.315359835E-3      1.01952209   
    -1.94000000        0.180220589E-3      1.01468102        0.316576204E-3      1.01955365   
    -1.93000000        0.180780241E-3      1.01469906        0.317801302E-3      1.01958534   
    -1.92000000        0.181343463E-3      1.01471715        0.319035229E-3      1.01961715   
    -1.91000000        0.181910294E-3      1.01473530        0.320278087E-3      1.01964909   
    -1.90000000        0.182480775E-3      1.01475351        0.321529979E-3      1.01968115   
    -1.89000000        0.183054946E-3      1.01477177        0.322791010E-3      1.01971334   
    -1.88000000        0.183632846E-3      1.01479009        0.324061287E-3      1.01974565   
    -1.87000000        0.184214519E-3      1.01480847        0.325340918E-3      1.01977809   
    -1.86000000        0.184800005E-3      1.01482691        0.326630014E-3      1.01981065   
    -1.85000000        0.185389349E-3      1.01484541        0.327928686E-3      1.01984335   
    -1.84000000        0.185982592E-3      1.01486396        0.329237049E-3      1.01987617   
    -1.83000000        0.186579780E-3      1.01488258        0.330555217E-3      1.01990913   
    -1.82000000        0.187180957E-3      1.01490125        0.331883310E-3      1.01994222   
    -1.81000000        0.187786170E-3      1.01491999        0.333221446E-3      1.01997544   
    -1.80000000        0.188395464E-3      1.01493878        0.334569747E-3      1.02000880   
    -1.79000000        0.189008886E-3      1.01495764        0.335928336E-3      1.02004229   
    -1.78000000        0.189626485E-3      1.01497656        0.337297341E-3      1.02007591   
    -1.77000000        0.190248309E-3      1.01499554        0.338676887E-3      1.02010968   
    -1.76000000        0.190874407E-3      1.01501458        0.340067107E-3      1.02014358   
    -1.75000000        0.191504831E-3      1.01503368        0.341468131E-3      1.02017762   
    -1.74000000        0.192139630E-3      1.01505285        0.342880095E-3      1.02021180   
    -1.73000000        0.192778857E-3      1.01507208        0.344303136E-3      1.02024612   
    -1.72000000        0.193422566E-3      1.01509138        0.345737392E-3      1.02028058   
    -1.71000000        0.194070808E-3      1.01511074        0.347183006E-3      1.02031519   
    -1.70000000        0.194723640E-3      1.01513016        0.348640122E-3      1.02034994   
    -1.69000000        0.195381117E-3      1.01514965        0.350108886E-3      1.02038484   
    -1.68000000        0.196043295E-3      1.01516921        0.351589449E-3      1.02041989   
    -1.67000000        0.196710232E-3      1.01518883        0.353081961E-3      1.02045508   
    -1.66000000        0.197381987E-3      1.01520852        0.354586578E-3      1.02049042   
    -1.65000000        0.198058617E-3      1.01522827        0.356103458E-3      1.02052592   
    -1.64000000        0.198740185E-3      1.01524809        0.357632760E-3      1.02056156   
    -1.63000000        0.199426752E-3      1.01526799        0.359174648E-3      1.02059736   
    -1.62000000        0.200118380E-3      1.01528795        0.360729288E-3      1.02063331   
    -1.61000000        0.200815134E-3      1.01530798        0.362296850E-3      1.02066942   
    -1.60000000        0.201517077E-3      1.01532807        0.363877505E-3      1.02070568   
    -1.59000000        0.202224276E-3      1.01534824        0.365471429E-3      1.02074211   
    -1.58000000        0.202936798E-3      1.01536848        0.367078802E-3      1.02077869   
    -1.57000000        0.203654712E-3      1.01538880        0.368699804E-3      1.02081543   
    -1.56000000        0.204378086E-3      1.01540918        0.370334623E-3      1.02085234   
    -1.55000000        0.205106993E-3      1.01542963        0.371983445E-3      1.02088941   
    -1.54000000        0.205841503E-3      1.01545016        0.373646465E-3      1.02092664   
    -1.53000000        0.206581691E-3      1.01547076        0.375323879E-3      1.02096404   
    -1.52000000        0.207327630E-3      1.01549144        0.377015885E-3      1.02100161   
    -1.51000000        0.208079398E-3      1.01551219        0.378722689E-3      1.02103934   
    -1.50000000        0.208837072E-3      1.01553302        0.380444497E-3      1.02107725   
    -1.49000000        0.209600730E-3      1.01555392        0.382181521E-3      1.02111533   
    -1.48000000        0.210370453E-3      1.01557490        0.383933978E-3      1.02115359   
    -1.47000000        0.211146324E-3      1.01559595        0.385702086E-3      1.02119201   
    -1.46000000        0.211928424E-3      1.01561709        0.387486071E-3      1.02123062   
    -1.45000000        0.212716840E-3      1.01563830        0.389286161E-3      1.02126940   
    -1.44000000        0.213511659E-3      1.01565959        0.391102589E-3      1.02130837   
    -1.43000000        0.214312967E-3      1.01568096        0.392935593E-3      1.02134752   
    -1.42000000        0.215120856E-3      1.01570240        0.394785416E-3      1.02138684   
    -1.41000000        0.215935416E-3      1.01572394        0.396652305E-3      1.02142636   
    -1.40000000        0.216756742E-3      1.01574555        0.398536512E-3      1.02146606   
    -1.39000000        0.217584928E-3      1.01576724        0.400438296E-3      1.02150595   
    -1.38000000        0.218420072E-3      1.01578902        0.402357918E-3      1.02154603   
    -1.37000000        0.219262272E-3      1.01581088        0.404295647E-3      1.02158630   
    -1.36000000        0.220111629E-3      1.01583282        0.406251757E-3      1.02162677   
    -1.35000000        0.220968247E-3      1.01585485        0.408226527E-3      1.02166743   
    -1.34000000        0.221832230E-3      1.01587697        0.410220243E-3      1.02170829   
    -1.33000000        0.222703686E-3      1.01589917        0.412233194E-3      1.02174934   
    -1.32000000        0.223582722E-3      1.01592146        0.414265679E-3      1.02179060   
    -1.31000000        0.224469452E-3      1.01594383        0.416318000E-3      1.02183206   
    -1.30000000        0.225363987E-3      1.01596630        0.418390469E-3      1.02187373   
    -1.29000000        0.226266444E-3      1.01598885        0.420483400E-3      1.02191561   
    -1.28000000        0.227176942E-3      1.01601150        0.422597118E-3      1.02195769   
    -1.27000000        0.228095600E-3      1.01603424        0.424731952E-3      1.02199999   
    -1.26000000        0.229022543E-3      1.01605706        0.426888239E-3      1.02204249   
    -1.25000000        0.229957895E-3      1.01607998        0.429066326E-3      1.02208522   
    -1.24000000        0.230901784E-3      1.01610300        0.431266562E-3      1.02212816   
    -1.23000000        0.231854343E-3      1.01612611        0.433489309E-3      1.02217132   
    -1.22000000        0.232815703E-3      1.01614931        0.435734935E-3      1.02221471   
    -1.21000000        0.233786003E-3      1.01617261        0.438003814E-3      1.02225831   
    -1.20000000        0.234765380E-3      1.01619601        0.440296332E-3      1.02230215   
    -1.19000000        0.235753978E-3      1.01621950        0.442612881E-3      1.02234621   
    -1.18000000        0.236751941E-3      1.01624310        0.444953863E-3      1.02239051   
    -1.17000000        0.237759419E-3      1.01626679        0.447319690E-3      1.02243504   
    -1.16000000        0.238776561E-3      1.01629058        0.449710780E-3      1.02247981   
    -1.15000000        0.239803525E-3      1.01631448        0.452127565E-3      1.02252481   
    -1.14000000        0.240840467E-3      1.01633848        0.454570484E-3      1.02257006   
    -1.13000000        0.241887550E-3      1.01636258        0.457039986E-3      1.02261555   
    -1.12000000        0.242944938E-3      1.01638679        0.459536533E-3      1.02266129   
    -1.11000000        0.244012801E-3      1.01641110        0.462060594E-3      1.02270727   
    -1.10000000        0.245091312E-3      1.01643552        0.464612653E-3      1.02275351   
    -1.09000000        0.246180646E-3      1.01646005        0.467193203E-3      1.02280000   
    -1.08000000        0.247280984E-3      1.01648468        0.469802749E-3      1.02284676   
    -1.07000000        0.248392511E-3      1.01650943        0.472441808E-3      1.02289377   
    -1.06000000        0.249515415E-3      1.01653428        0.475110911E-3      1.02294105   
    -1.05000000        0.250649890E-3      1.01655925        0.477810600E-3      1.02298859   
    -1.04000000        0.251796132E-3      1.01658434        0.480541430E-3      1.02303640   
    -1.03000000        0.252954344E-3      1.01660953        0.483303971E-3      1.02308449   
    -1.02000000        0.254124733E-3      1.01663485        0.486098806E-3      1.02313285   
    -1.01000000        0.255307508E-3      1.01666028        0.488926533E-3      1.02318149   
    -1.00000000        0.256502888E-3      1.01668582        0.491787764E-3      1.02323041   
   -0.990000000        0.257711093E-3      1.01671149        0.494683127E-3      1.02327962   
   -0.980000000        0.258932349E-3      1.01673728        0.497613266E-3      1.02332911   
   -0.970000000        0.260166889E-3      1.01676319        0.500578840E-3      1.02337890   
   -0.960000000        0.261414951E-3      1.01678922        0.503580526E-3      1.02342899   
   -0.950000000        0.262676776E-3      1.01681538        0.506619018E-3      1.02347937   
   -0.940000000        0.263952615E-3      1.01684166        0.509695027E-3      1.02353006   
   -0.930000000        0.265242723E-3      1.01686808        0.512809283E-3      1.02358106   
   -0.920000000        0.266547360E-3      1.01689462        0.515962536E-3      1.02363237   
   -0.910000000        0.267866794E-3      1.01692129        0.519155553E-3      1.02368399   
   -0.900000000        0.269201299E-3      1.01694809        0.522389124E-3      1.02373593   
   -0.890000000        0.270551157E-3      1.01697503        0.525664057E-3      1.02378819   
   -0.880000000        0.271916654E-3      1.01700210        0.528981185E-3      1.02384078   
   -0.870000000        0.273298088E-3      1.01702930        0.532341361E-3      1.02389370   
   -0.860000000        0.274695759E-3      1.01705665        0.535745460E-3      1.02394695   
   -0.850000000        0.276109978E-3      1.01708413        0.539194383E-3      1.02400055   
   -0.840000000        0.277541064E-3      1.01711176        0.542689054E-3      1.02405449   
   -0.830000000        0.278989342E-3      1.01713953        0.546230423E-3      1.02410878   
   -0.820000000        0.280455146E-3      1.01716744        0.549819466E-3      1.02416342   
   -0.810000000        0.281938821E-3      1.01719550        0.553457186E-3      1.02421842   
   -0.800000000        0.283440719E-3      1.01722371        0.557144614E-3      1.02427378   
   -0.790000000        0.284961199E-3      1.01725206        0.560882810E-3      1.02432951   
   -0.780000000        0.286500634E-3      1.01728057        0.564672864E-3      1.02438561   
   -0.770000000        0.288059405E-3      1.01730923        0.568515897E-3      1.02444209   
   -0.760000000        0.289637900E-3      1.01733805        0.572413062E-3      1.02449895   
   -0.750000000        0.291236523E-3      1.01736703        0.576365544E-3      1.02455620   
   -0.740000000        0.292855684E-3      1.01739616        0.580374565E-3      1.02461385   
   -0.730000000        0.294495807E-3      1.01742546        0.584441380E-3      1.02467189   
   -0.720000000        0.296157326E-3      1.01745492        0.588567281E-3      1.02473034   
   -0.710000000        0.297840688E-3      1.01748454        0.592753600E-3      1.02478920   
   -0.700000000        0.299546351E-3      1.01751434        0.597001707E-3      1.02484848   
   -0.690000000        0.301274787E-3      1.01754430        0.601313014E-3      1.02490818   
   -0.680000000        0.303026480E-3      1.01757444        0.605688974E-3      1.02496831   
   -0.670000000        0.304801928E-3      1.01760475        0.610131085E-3      1.02502888   
   -0.660000000        0.306601643E-3      1.01763524        0.614640890E-3      1.02508989   
   -0.650000000        0.308426152E-3      1.01766590        0.619219981E-3      1.02515135   
   -0.640000000        0.310275996E-3      1.01769675        0.623869996E-3      1.02521326   
   -0.630000000        0.312151733E-3      1.01772779        0.628592628E-3      1.02527564   
   -0.620000000        0.314053935E-3      1.01775901        0.633389619E-3      1.02533848   
   -0.610000000        0.315983192E-3      1.01779042        0.638262767E-3      1.02540181   
   -0.600000000        0.317940111E-3      1.01782202        0.643213930E-3      1.02546561   
   -0.590000000        0.319925317E-3      1.01785382        0.648245021E-3      1.02552992   
   -0.580000000        0.321939453E-3      1.01788581        0.653358016E-3      1.02559472   
   -0.570000000        0.323983182E-3      1.01791801        0.658554957E-3      1.02566003   
   -0.560000000        0.326057186E-3      1.01795041        0.663837949E-3      1.02572585   
   -0.550000000        0.328162167E-3      1.01798301        0.669209169E-3      1.02579221   
   -0.540000000        0.330298849E-3      1.01801583        0.674670864E-3      1.02585909   
   -0.530000000        0.332467978E-3      1.01804886        0.680225356E-3      1.02592652   
   -0.520000000        0.334670325E-3      1.01808210        0.685875047E-3      1.02599450   
   -0.510000000        0.336906680E-3      1.01811556        0.691622416E-3      1.02606304   
   -0.500000000        0.339177861E-3      1.01814925        0.697470029E-3      1.02613216   
   -0.490000000        0.341484713E-3      1.01818316        0.703420540E-3      1.02620185   
   -0.480000000        0.343828102E-3      1.01821730        0.709476694E-3      1.02627214   
   -0.470000000        0.346208928E-3      1.01825168        0.715641329E-3      1.02634302   
   -0.460000000        0.348628115E-3      1.01828629        0.721917385E-3      1.02641452   
   -0.450000000        0.351086620E-3      1.01832114        0.728307905E-3      1.02648664   
   -0.440000000        0.353585427E-3      1.01835624        0.734816040E-3      1.02655940   
   -0.430000000        0.356125555E-3      1.01839158        0.741445052E-3      1.02663280   
   -0.420000000        0.358708057E-3      1.01842718        0.748198322E-3      1.02670686   
   -0.410000000        0.361334018E-3      1.01846303        0.755079353E-3      1.02678158   
   -0.400000000        0.364004561E-3      1.01849915        0.762091778E-3      1.02685699   
   -0.390000000        0.366720845E-3      1.01853553        0.769239360E-3      1.02693310   
   -0.380000000        0.369484071E-3      1.01857218        0.776526005E-3      1.02700991   
   -0.370000000        0.372295478E-3      1.01860911        0.783955764E-3      1.02708745   
   -0.360000000        0.375156347E-3      1.01864631        0.791532840E-3      1.02716572   
   -0.350000000        0.378068005E-3      1.01868380        0.799261596E-3      1.02724474   
   -0.340000000        0.381031824E-3      1.01872157        0.807146562E-3      1.02732453   
   -0.330000000        0.384049224E-3      1.01875965        0.815192444E-3      1.02740510   
   -0.320000000        0.387121674E-3      1.01879802        0.823404129E-3      1.02748646   
   -0.310000000        0.390250697E-3      1.01883669        0.831786697E-3      1.02756863   
   -0.300000000        0.393437868E-3      1.01887568        0.840345428E-3      1.02765164   
   -0.290000000        0.396684820E-3      1.01891498        0.849085813E-3      1.02773549   
   -0.280000000        0.399993244E-3      1.01895461        0.858013563E-3      1.02782020   
   -0.270000000        0.403364894E-3      1.01899456        0.867134621E-3      1.02790580   
   -0.260000000        0.406801587E-3      1.01903484        0.876455172E-3      1.02799229   
   -0.250000000        0.410305208E-3      1.01907547        0.885981656E-3      1.02807971   
   -0.240000000        0.413877712E-3      1.01911644        0.895720779E-3      1.02816807   
   -0.230000000        0.417521127E-3      1.01915777        0.905679531E-3      1.02825738   
   -0.220000000        0.421237558E-3      1.01919946        0.915865195E-3      1.02834768   
   -0.210000000        0.425029191E-3      1.01924152        0.926285364E-3      1.02843898   
   -0.200000000        0.428898295E-3      1.01928395        0.936947958E-3      1.02853131   
   -0.190000000        0.432847227E-3      1.01932676        0.947861241E-3      1.02862469   
   -0.180000000        0.436878435E-3      1.01936997        0.959033838E-3      1.02871915   
   -0.170000000        0.440994466E-3      1.01941357        0.970474753E-3      1.02881470   
   -0.160000000        0.445197965E-3      1.01945758        0.982193393E-3      1.02891138   
   -0.150000000        0.449491685E-3      1.01950201        0.994199586E-3      1.02900921   
   -0.140000000        0.453878488E-3      1.01954686        0.100650361E-2      1.02910822   
   -0.130000000        0.458361354E-3      1.01959214        0.101911620E-2      1.02920844   
   -0.120000000        0.462943383E-3      1.01963787        0.103204860E-2      1.02930990   
   -0.110000000        0.467627805E-3      1.01968404        0.104531258E-2      1.02941263   
   -0.100000000        0.472417983E-3      1.01973068        0.105892045E-2      1.02951666   
   -0.900000000E-1     0.477317422E-3      1.01977780        0.107288512E-2      1.02962202   
   -0.800000000E-1     0.482329776E-3      1.01982539        0.108722011E-2      1.02972875   
   -0.700000000E-1     0.487458852E-3      1.01987348        0.110193958E-2      1.02983688   
   -0.600000000E-1     0.492708625E-3      1.01992207        0.111705842E-2      1.02994645   
   -0.500000000E-1     0.498083240E-3      1.01997118        0.113259221E-2      1.03005750   
   -0.400000000E-1     0.503587024E-3      1.02002082        0.114855735E-2      1.03017007   
   -0.300000000E-1     0.509224496E-3      1.02007101        0.116497104E-2      1.03028420   
   -0.200000000E-1     0.515000377E-3      1.02012174        0.118185134E-2      1.03039992   
   -0.100000000E-1     0.520919599E-3      1.02017304        0.119921729E-2      1.03051730   
     0.00000000        0.526987318E-3      1.02022493        0.121708885E-2      1.03063637   
    0.100000000E-1     0.533208927E-3      1.02027741        0.123548709E-2      1.03075717   
    0.200000000E-1     0.539590069E-3      1.02033050        0.125443416E-2      1.03087977   
    0.300000000E-1     0.546136650E-3      1.02038422        0.127395341E-2      1.03100420   
    0.400000000E-1     0.552854852E-3      1.02043858        0.129406944E-2      1.03113053   
    0.500000000E-1     0.559751153E-3      1.02049359        0.131480820E-2      1.03125882   
    0.600000000E-1     0.566832343E-3      1.02054928        0.133619709E-2      1.03138911   
    0.700000000E-1     0.574105538E-3      1.02060567        0.135826504E-2      1.03152148   
    0.800000000E-1     0.581578205E-3      1.02066276        0.138104259E-2      1.03165597   
    0.900000000E-1     0.589258179E-3      1.02072059        0.140456205E-2      1.03179267   
    0.100000000        0.597153684E-3      1.02077917        0.142885760E-2      1.03193164   
    0.110000000        0.605273363E-3      1.02083851        0.145396540E-2      1.03207296   
    0.120000000        0.613626294E-3      1.02089865        0.147992376E-2      1.03221669   
    0.130000000        0.622222025E-3      1.02095961        0.150677330E-2      1.03236291   
    0.140000000        0.631070598E-3      1.02102140        0.153455706E-2      1.03251172   
    0.150000000        0.640182583E-3      1.02108405        0.156332075E-2      1.03266319   
    0.160000000        0.649569111E-3      1.02114758        0.159311292E-2      1.03281741   
    0.170000000        0.659241908E-3      1.02121203        0.162398513E-2      1.03297449   
    0.180000000        0.669213336E-3      1.02127742        0.165599226E-2      1.03313451   
    0.190000000        0.679496434E-3      1.02134377        0.168919269E-2      1.03329759   
    0.200000000        0.690104960E-3      1.02141112        0.172364863E-2      1.03346382   
    0.210000000        0.701053445E-3      1.02147950        0.175942637E-2      1.03363334   
    0.220000000        0.712357239E-3      1.02154893        0.179659666E-2      1.03380624   
    0.230000000        0.724032572E-3      1.02161946        0.183523501E-2      1.03398266   
    0.240000000        0.736096611E-3      1.02169112        0.187542215E-2      1.03416274   
    0.250000000        0.748567528E-3      1.02176393        0.191724439E-2      1.03434661   
    0.260000000        0.761464570E-3      1.02183795        0.196079413E-2      1.03453441   
    0.270000000        0.774808136E-3      1.02191320        0.200617040E-2      1.03472630   
    0.280000000        0.788619859E-3      1.02198974        0.205347936E-2      1.03492244   
    0.290000000        0.802922701E-3      1.02206760        0.210283500E-2      1.03512300   
    0.300000000        0.817741046E-3      1.02214683        0.215435980E-2      1.03532816   
    0.310000000        0.833100808E-3      1.02222748        0.220818549E-2      1.03553811   
    0.320000000        0.849029551E-3      1.02230959        0.226445388E-2      1.03575305   
    0.330000000        0.865556608E-3      1.02239322        0.232331786E-2      1.03597318   
    0.340000000        0.882713227E-3      1.02247843        0.238494236E-2      1.03619874   
    0.350000000        0.900532717E-3      1.02256526        0.244950554E-2      1.03642995   
    0.360000000        0.919050612E-3      1.02265379        0.251720006E-2      1.03666706   
    0.370000000        0.938304852E-3      1.02274406        0.258823452E-2      1.03691035   
    0.380000000        0.958335980E-3      1.02283616        0.266283501E-2      1.03716008   
    0.390000000        0.979187358E-3      1.02293014        0.274124693E-2      1.03741655   
    0.400000000        0.100090540E-2      1.02302608        0.282373692E-2      1.03768007   
    0.410000000        0.102353984E-2      1.02312406        0.291059515E-2      1.03795098   
    0.420000000        0.104714401E-2      1.02322417        0.300213773E-2      1.03822963   
    0.430000000        0.107177516E-2      1.02332647        0.309870959E-2      1.03851639   
    0.440000000        0.109749479E-2      1.02343107        0.320068757E-2      1.03881165   
    0.450000000        0.112436906E-2      1.02353806        0.330848404E-2      1.03911585   
    0.460000000        0.115246920E-2      1.02364754        0.342255087E-2      1.03942942   
    0.470000000        0.118187198E-2      1.02375961        0.354338399E-2      1.03975285   
    0.480000000        0.121266020E-2      1.02387439        0.367152859E-2      1.04008663   
    0.490000000        0.124492333E-2      1.02399199        0.380758494E-2      1.04043132   
    0.500000000        0.127875811E-2      1.02411255        0.395221511E-2      1.04078749   
    0.510000000        0.131426924E-2      1.02423618        0.410615055E-2      1.04115573   
    0.520000000        0.135157024E-2      1.02436304        0.427020084E-2      1.04153672   
    0.530000000        0.139078429E-2      1.02449326        0.444526363E-2      1.04193113   
    0.540000000        0.143204523E-2      1.02462701        0.463233614E-2      1.04233969   
    0.550000000        0.147549870E-2      1.02476446        0.483252828E-2      1.04276320   
    0.560000000        0.152130335E-2      1.02490577        0.504707786E-2      1.04320248   
    0.570000000        0.156963226E-2      1.02505114        0.527736813E-2      1.04365841   
    0.580000000        0.162067455E-2      1.02520077        0.552494802E-2      1.04413191   
    0.590000000        0.167463710E-2      1.02535486        0.579155572E-2      1.04462396   
    0.600000000        0.173174662E-2      1.02551365        0.607914596E-2      1.04513560   
    0.610000000        0.179225190E-2      1.02567737        0.638992182E-2      1.04566790   
    0.620000000        0.185642640E-2      1.02584628        0.672637178E-2      1.04622200   
    0.630000000        0.192457119E-2      1.02602064        0.709131305E-2      1.04679904   
    0.640000000        0.199701830E-2      1.02620075        0.748794208E-2      1.04740022   
    0.650000000        0.207413450E-2      1.02638692        0.791989381E-2      1.04802675   
    0.660000000        0.215632572E-2      1.02657946        0.839131093E-2      1.04867981   
    0.670000000        0.224404197E-2      1.02677873        0.890692494E-2      1.04936056   
    0.680000000        0.233778312E-2      1.02698510        0.947215107E-2      1.05007007   
    0.690000000        0.243810546E-2      1.02719895        0.100931990E-1      1.05080927   
    0.700000000        0.254562933E-2      1.02742071        0.107772014E-1      1.05157884   
    0.710000000        0.266104782E-2      1.02765081        0.115323638E-1      1.05237914   
    0.720000000        0.278513697E-2      1.02788973        0.123681349E-1      1.05321005   
    0.730000000        0.291876750E-2      1.02813794        0.132954016E-1      1.05407074   
    0.740000000        0.306291848E-2      1.02839598        0.143267054E-1      1.05495940   
    0.750000000        0.321869319E-2      1.02866439        0.154764773E-1      1.05587290   
    0.760000000        0.338733769E-2      1.02894372        0.167612814E-1      1.05680625   
    0.770000000        0.357026240E-2      1.02923458        0.182000472E-1      1.05775198   
    0.780000000        0.376906739E-2      1.02953754        0.198142584E-1      1.05869925   
    0.790000000        0.398557196E-2      1.02985323        0.216280368E-1      1.05963267   
    0.800000000        0.422184924E-2      1.03018225        0.236680284E-1      1.06053089   
    0.810000000        0.448026669E-2      1.03052518        0.259629386E-1      1.06136464   
    0.820000000        0.476353351E-2      1.03088256        0.285424877E-1      1.06209445   
    0.830000000        0.507475597E-2      1.03125486        0.314354507E-1      1.06266787   
    0.840000000        0.541750180E-2      1.03164245        0.346663205E-1      1.06301646   
    0.850000000        0.579587475E-2      1.03204551        0.382500156E-1      1.06305297   
    0.860000000        0.621460030E-2      1.03246401        0.421840221E-1      1.06266942   
    0.870000000        0.667912302E-2      1.03289754        0.464375635E-1      1.06173781   
    0.880000000        0.719571520E-2      1.03334525        0.509380861E-1      1.06011552   
    0.890000000        0.777159495E-2      1.03380559        0.555568475E-1      1.05765833   
    0.900000000        0.841504904E-2      1.03427612        0.600978251E-1      1.05424362   
    0.910000000        0.913555126E-2      1.03475317        0.642969984E-1      1.04980373   
    0.920000000        0.994385960E-2      1.03523138        0.678404340E-1      1.04436442   
    0.930000000        0.108520637E-1      1.03570317        0.704064915E-1      1.03807587   
    0.940000000        0.118735359E-1      1.03615799        0.717277566E-1      1.03121938   
    0.950000000        0.130227114E-1      1.03658136        0.716548840E-1      1.02417664   
    0.960000000        0.143145857E-1      1.03695373        0.701966759E-1      1.01736455   
    0.970000000        0.157637616E-1      1.03724911        0.675176355E-1      1.01115670   
    0.980000000        0.173828203E-1      1.03743354        0.638941921E-1      1.00582113   
    0.990000000        0.191797249E-1      1.03746364        0.596498730E-1      1.00149385   
     1.00000000        0.211539488E-1      1.03728560        0.550948590E-1     0.998188875   
     1.01000000        0.232911089E-1      1.03683541        0.504863709E-1     0.995830853   
     1.02000000        0.255562165E-1      1.03604143        0.460129542E-1     0.994293419   
     1.03000000        0.278863804E-1      1.03483057        0.417967105E-1     0.993431620   
     1.04000000        0.301849997E-1      1.03313974        0.379050322E-1     0.993103932   
     1.05000000        0.323209164E-1      1.03093231        0.343650704E-1     0.993184339   
     1.06000000        0.341367930E-1      1.02821755        0.311770131E-1     0.993567119   
     1.07000000        0.354696039E-1      1.02506680        0.283245939E-1     0.994167129   
     1.08000000        0.361814447E-1      1.02161790        0.257826500E-1     0.994917791   
     1.09000000        0.361920943E-1      1.01806105        0.235221750E-1     0.995768187   
     1.10000000        0.355004319E-1      1.01460677        0.215134835E-1     0.996680054   
     1.11000000        0.341847486E-1      1.01144629        0.197280533E-1     0.997625084   
     1.12000000        0.323818010E-1      1.00871914        0.181394941E-1     0.998582630   
     1.13000000        0.302543748E-1      1.00649847        0.167239654E-1     0.999537873   
     1.14000000        0.279602855E-1      1.00479503        0.154602636E-1      1.00048037   
     1.15000000        0.256315571E-1      1.00357320        0.143297221E-1      1.00140296   
     1.16000000        0.233657428E-1      1.00277032        0.133160169E-1      1.00230088   
     1.17000000        0.212265793E-1      1.00231344        0.124049308E-1      1.00317116   
     1.18000000        0.192497127E-1      1.00213075        0.115841106E-1      1.00401212   
     1.19000000        0.174499876E-1      1.00215800        0.108428333E-1      1.00482301   
     1.20000000        0.158282271E-1      1.00234109        0.101717922E-1      1.00560377   
     1.21000000        0.143766396E-1      1.00263638        0.956290491E-2      1.00635479   
     1.22000000        0.130827295E-1      1.00300966        0.900914427E-2      1.00707681   
     1.23000000        0.119319234E-1      1.00343474        0.850439178E-2      1.00777077   
     1.24000000        0.109092216E-1      1.00389193        0.804331066E-2      1.00843775   
     1.25000000        0.100001656E-1      1.00436664        0.762123700E-2      1.00907890   
     1.26000000        0.919135072E-2      1.00484821        0.723408641E-2      1.00969543   
     1.27000000        0.847065152E-2      1.00532898        0.687827434E-2      1.01028855   
     1.28000000        0.782727455E-2      1.00580356        0.655064793E-2      1.01085943   
     1.29000000        0.725171263E-2      1.00626824        0.624842780E-2      1.01140923   
     1.30000000        0.673564856E-2      1.00672053        0.596915831E-2      1.01193909   
     1.31000000        0.627183714E-2      1.00715889        0.571066500E-2      1.01245007   
     1.32000000        0.585398223E-2      1.00758243        0.547101813E-2      1.01294321   
     1.33000000        0.547661852E-2      1.00799075        0.524850140E-2      1.01341946   
     1.34000000        0.513500256E-2      1.00838379        0.504158506E-2      1.01387978   
     1.35000000        0.482501507E-2      1.00876174        0.484890274E-2      1.01432501   
     1.36000000        0.454307501E-2      1.00912495        0.466923153E-2      1.01475600   
     1.37000000        0.428606463E-2      1.00947391        0.450147466E-2      1.01517351   
     1.38000000        0.405126486E-2      1.00980914        0.434464659E-2      1.01557828   
     1.39000000        0.383629976E-2      1.01013124        0.419786004E-2      1.01597099   
     1.40000000        0.363908892E-2      1.01044080        0.406031466E-2      1.01635230   
     1.41000000        0.345780675E-2      1.01073843        0.393128726E-2      1.01672281   
     1.42000000        0.329084777E-2      1.01102474        0.381012316E-2      1.01708309   
     1.43000000        0.313679685E-2      1.01130031        0.369622874E-2      1.01743369   
     1.44000000        0.299440391E-2      1.01156569        0.358906479E-2      1.01777510   
     1.45000000        0.286256214E-2      1.01182145        0.348814077E-2      1.01810780   
     1.46000000        0.274028942E-2      1.01206810        0.339300969E-2      1.01843225   
     1.47000000        0.262671239E-2      1.01230613        0.330326366E-2      1.01874885   
     1.48000000        0.252105270E-2      1.01253601        0.321852984E-2      1.01905801   
     1.49000000        0.242261522E-2      1.01275817        0.313846703E-2      1.01936010   
     1.50000000        0.233077788E-2      1.01297305        0.306276246E-2      1.01965547   
     1.51000000        0.224498284E-2      1.01318103        0.299112909E-2      1.01994445   
     1.52000000        0.216472889E-2      1.01338248        0.292330313E-2      1.02022737   
     1.53000000        0.208956482E-2      1.01357775        0.285904183E-2      1.02050450   
     1.54000000        0.201908368E-2      1.01376717        0.279812152E-2      1.02077614   
     1.55000000        0.195291777E-2      1.01395104        0.274033590E-2      1.02104254   
     1.56000000        0.189073428E-2      1.01412965        0.268549441E-2      1.02130395   
     1.57000000        0.183223142E-2      1.01430328        0.263342088E-2      1.02156062   
     1.58000000        0.177713512E-2      1.01447218        0.258395221E-2      1.02181276   
     1.59000000        0.172519604E-2      1.01463659        0.253693729E-2      1.02206059   
     1.60000000        0.167618700E-2      1.01479674        0.249223592E-2      1.02230431   
     1.61000000        0.162990068E-2      1.01495283        0.244971794E-2      1.02254410   
     1.62000000        0.158614761E-2      1.01510508        0.240926234E-2      1.02278016   
     1.63000000        0.154475438E-2      1.01525366        0.237075654E-2      1.02301264   
     1.64000000        0.150556206E-2      1.01539876        0.233409570E-2      1.02324172   
     1.65000000        0.146842475E-2      1.01554054        0.229918209E-2      1.02346755   
     1.66000000        0.143320842E-2      1.01567916        0.226592454E-2      1.02369028   
     1.67000000        0.139978968E-2      1.01581476        0.223423789E-2      1.02391004   
     1.68000000        0.136805488E-2      1.01594750        0.220404259E-2      1.02412698   
     1.69000000        0.133789916E-2      1.01607750        0.217526421E-2      1.02434122   
     1.70000000        0.130922566E-2      1.01620488        0.214783308E-2      1.02455289   
     1.71000000        0.128194485E-2      1.01632977        0.212168393E-2      1.02476209   
     1.72000000        0.125597381E-2      1.01645228        0.209675559E-2      1.02496894   
     1.73000000        0.123123572E-2      1.01657251        0.207299065E-2      1.02517356   
     1.74000000        0.120765931E-2      1.01669057        0.205033520E-2      1.02537603   
     1.75000000        0.118517837E-2      1.01680655        0.202873863E-2      1.02557645   
     1.76000000        0.116373139E-2      1.01692053        0.200815332E-2      1.02577493   
     1.77000000        0.114326109E-2      1.01703262        0.198853450E-2      1.02597155   
     1.78000000        0.112371414E-2      1.01714289        0.196984000E-2      1.02616639   
     1.79000000        0.110504080E-2      1.01725141        0.195203012E-2      1.02635954   
     1.80000000        0.108719468E-2      1.01735826        0.193506743E-2      1.02655107   
     1.81000000        0.107013243E-2      1.01746351        0.191891664E-2      1.02674107   
     1.82000000        0.105381353E-2      1.01756723        0.190354446E-2      1.02692960   
     1.83000000        0.103820008E-2      1.01766947        0.188891944E-2      1.02711674   
     1.84000000        0.102325658E-2      1.01777031        0.187501189E-2      1.02730255   
     1.85000000        0.100894976E-2      1.01786980        0.186179376E-2      1.02748710   
     1.86000000        0.995248425E-3      1.01796800        0.184923850E-2      1.02767045   
     1.87000000        0.982123293E-3      1.01806494        0.183732103E-2      1.02785265   
     1.88000000        0.969546858E-3      1.01816070        0.182601758E-2      1.02803378   
     1.89000000        0.957493268E-3      1.01825531        0.181530569E-2      1.02821388   
     1.90000000        0.945938202E-3      1.01834882        0.180516404E-2      1.02839300   
     1.91000000        0.934858770E-3      1.01844128        0.179557247E-2      1.02857121   
     1.92000000        0.924233410E-3      1.01853273        0.178651184E-2      1.02874855   
     1.93000000        0.914041799E-3      1.01862320        0.177796401E-2      1.02892507   
     1.94000000        0.904264767E-3      1.01871273        0.176991179E-2      1.02910081   
     1.95000000        0.894884227E-3      1.01880137        0.176233885E-2      1.02927583   
     1.96000000        0.885883093E-3      1.01888915        0.175522970E-2      1.02945017   
     1.97000000        0.877245226E-3      1.01897610        0.174856962E-2      1.02962386   
     1.98000000        0.868955363E-3      1.01906225        0.174234466E-2      1.02979696   
     1.99000000        0.860999067E-3      1.01914764        0.173654154E-2      1.02996950   
     2.00000000        0.853362675E-3      1.01923229        0.173114766E-2      1.03014153   
     2.01000000        0.846033243E-3      1.01931624        0.172615103E-2      1.03031307   
     2.02000000        0.838998510E-3      1.01939951        0.172154029E-2      1.03048417   
     2.03000000        0.832246851E-3      1.01948214        0.171730460E-2      1.03065487   
     2.04000000        0.825767239E-3      1.01956413        0.171343369E-2      1.03082519   
     2.05000000        0.819549210E-3      1.01964553        0.170991776E-2      1.03099518   
     2.06000000        0.813582830E-3      1.01972635        0.170674752E-2      1.03116486   
     2.07000000        0.807858660E-3      1.01980662        0.170391412E-2      1.03133427   
     2.08000000        0.802367733E-3      1.01988635        0.170140917E-2      1.03150344   
     2.09000000        0.797101523E-3      1.01996558        0.169922466E-2      1.03167241   
     2.10000000        0.792051920E-3      1.02004432        0.169735299E-2      1.03184120   
     2.11000000        0.787211205E-3      1.02012259        0.169578693E-2      1.03200984   
     2.12000000        0.782572034E-3      1.02020041        0.169451962E-2      1.03217836   
     2.13000000        0.778127409E-3      1.02027780        0.169354452E-2      1.03234679   
     2.14000000        0.773870665E-3      1.02035477        0.169285543E-2      1.03251515   
     2.15000000        0.769795450E-3      1.02043135        0.169244645E-2      1.03268349   
     2.16000000        0.765895707E-3      1.02050755        0.169231199E-2      1.03285181   
     2.17000000        0.762165660E-3      1.02058339        0.169244673E-2      1.03302015   
     2.18000000        0.758599796E-3      1.02065889        0.169284563E-2      1.03318853   
     2.19000000        0.755192857E-3      1.02073405        0.169350389E-2      1.03335699   
     2.20000000        0.751939819E-3      1.02080889        0.169441699E-2      1.03352553   
     2.21000000        0.748835886E-3      1.02088344        0.169558063E-2      1.03369420   
     2.22000000        0.745876477E-3      1.02095769        0.169699073E-2      1.03386300   
     2.23000000        0.743057213E-3      1.02103167        0.169864346E-2      1.03403198   
     2.24000000        0.740373909E-3      1.02110539        0.170053515E-2      1.03420114   
     2.25000000        0.737822563E-3      1.02117887        0.170266240E-2      1.03437051   
     2.26000000        0.735399347E-3      1.02125210        0.170502194E-2      1.03454012   
     2.27000000        0.733100601E-3      1.02132511        0.170761073E-2      1.03470999   
     2.28000000        0.730922822E-3      1.02139791        0.171042589E-2      1.03488013   
     2.29000000        0.728862656E-3      1.02147051        0.171346473E-2      1.03505058   
     2.30000000        0.726916895E-3      1.02154292        0.171672472E-2      1.03522135   
     2.31000000        0.725082464E-3      1.02161515        0.172020349E-2      1.03539247   
     2.32000000        0.723356421E-3      1.02168721        0.172389883E-2      1.03556395   
     2.33000000        0.721735948E-3      1.02175912        0.172780868E-2      1.03573582   
     2.34000000        0.720218343E-3      1.02183087        0.173193113E-2      1.03590809   
     2.35000000        0.718801019E-3      1.02190249        0.173626441E-2      1.03608080   
     2.36000000        0.717481496E-3      1.02197398        0.174080690E-2      1.03625395   
     2.37000000        0.716257398E-3      1.02204535        0.174555710E-2      1.03642758   
     2.38000000        0.715126448E-3      1.02211661        0.175051365E-2      1.03660169   
     2.39000000        0.714086462E-3      1.02218777        0.175567530E-2      1.03677631   
     2.40000000        0.713135345E-3      1.02225883        0.176104096E-2      1.03695147   
     2.41000000        0.712271092E-3      1.02232981        0.176660962E-2      1.03712717   
     2.42000000        0.711491777E-3      1.02240072        0.177238041E-2      1.03730344   
     2.43000000        0.710795556E-3      1.02247156        0.177835257E-2      1.03748031   
     2.44000000        0.710180659E-3      1.02254233        0.178452545E-2      1.03765778   
     2.45000000        0.709645389E-3      1.02261306        0.179089853E-2      1.03783588   
     2.46000000        0.709188119E-3      1.02268374        0.179747136E-2      1.03801463   
     2.47000000        0.708807290E-3      1.02275439        0.180424363E-2      1.03819404   
     2.48000000        0.708501405E-3      1.02282500        0.181121511E-2      1.03837415   
     2.49000000        0.708269032E-3      1.02289560        0.181838570E-2      1.03855496   
     2.50000000        0.708108794E-3      1.02296618        0.182575536E-2      1.03873650   
     2.51000000        0.708019376E-3      1.02303675        0.183332419E-2      1.03891879   
     2.52000000        0.707999513E-3      1.02310732        0.184109237E-2      1.03910184   
     2.53000000        0.708047996E-3      1.02317789        0.184906017E-2      1.03928568   
     2.54000000        0.708163666E-3      1.02324848        0.185722796E-2      1.03947032   
     2.55000000        0.708345413E-3      1.02331908        0.186559621E-2      1.03965579   
     2.56000000        0.708592173E-3      1.02338971        0.187416547E-2      1.03984210   
     2.57000000        0.708902930E-3      1.02346038        0.188293640E-2      1.04002928   
     2.58000000        0.709276709E-3      1.02353108        0.189190975E-2      1.04021734   
     2.59000000        0.709712580E-3      1.02360182        0.190108634E-2      1.04040631   
     2.60000000        0.710209651E-3      1.02367261        0.191046711E-2      1.04059620   
     2.61000000        0.710767071E-3      1.02374346        0.192005306E-2      1.04078704   
     2.62000000        0.711384028E-3      1.02381437        0.192984531E-2      1.04097884   
     2.63000000        0.712059746E-3      1.02388534        0.193984506E-2      1.04117163   
     2.64000000        0.712793484E-3      1.02395639        0.195005358E-2      1.04136542   
     2.65000000        0.713584536E-3      1.02402752        0.196047226E-2      1.04156024   
     2.66000000        0.714432230E-3      1.02409873        0.197110257E-2      1.04175611   
     2.67000000        0.715335926E-3      1.02417003        0.198194605E-2      1.04195304   
     2.68000000        0.716295016E-3      1.02424143        0.199300437E-2      1.04215107   
     2.69000000        0.717308922E-3      1.02431293        0.200427925E-2      1.04235020   
     2.70000000        0.718377094E-3      1.02438453        0.201577254E-2      1.04255047   
     2.71000000        0.719499014E-3      1.02445625        0.202748616E-2      1.04275189   
     2.72000000        0.720674190E-3      1.02452808        0.203942212E-2      1.04295449   
     2.73000000        0.721902157E-3      1.02460003        0.205158253E-2      1.04315828   
     2.74000000        0.723182478E-3      1.02467211        0.206396960E-2      1.04336330   
     2.75000000        0.724514739E-3      1.02474432        0.207658564E-2      1.04356955   
     2.76000000        0.725898554E-3      1.02481667        0.208943303E-2      1.04377707   
     2.77000000        0.727333560E-3      1.02488916        0.210251428E-2      1.04398588   
     2.78000000        0.728819419E-3      1.02496180        0.211583197E-2      1.04419600   
     2.79000000        0.730355814E-3      1.02503459        0.212938881E-2      1.04440746   
     2.80000000        0.731942453E-3      1.02510753        0.214318759E-2      1.04462027   
     2.81000000        0.733579066E-3      1.02518064        0.215723121E-2      1.04483447   
     2.82000000        0.735265404E-3      1.02525392        0.217152268E-2      1.04505007   
     2.83000000        0.737001240E-3      1.02532737        0.218606511E-2      1.04526710   
     2.84000000        0.738786367E-3      1.02540099        0.220086172E-2      1.04548559   
     2.85000000        0.740620599E-3      1.02547480        0.221591584E-2      1.04570556   
     2.86000000        0.742503771E-3      1.02554879        0.223123091E-2      1.04592704   
     2.87000000        0.744435737E-3      1.02562297        0.224681049E-2      1.04615005   
     2.88000000        0.746416371E-3      1.02569735        0.226265826E-2      1.04637462   
     2.89000000        0.748445564E-3      1.02577193        0.227877802E-2      1.04660077   
     2.90000000        0.750523230E-3      1.02584672        0.229517367E-2      1.04682854   
     2.91000000        0.752649296E-3      1.02592172        0.231184926E-2      1.04705794   
     2.92000000        0.754823713E-3      1.02599693        0.232880897E-2      1.04728902   
     2.93000000        0.757046447E-3      1.02607236        0.234605707E-2      1.04752178   
     2.94000000        0.759317481E-3      1.02614802        0.236359801E-2      1.04775628   
     2.95000000        0.761636819E-3      1.02622390        0.238143636E-2      1.04799252   
     2.96000000        0.764004478E-3      1.02630002        0.239957682E-2      1.04823055   
     2.97000000        0.766420497E-3      1.02637638        0.241802424E-2      1.04847040   
     2.98000000        0.768884928E-3      1.02645298        0.243678362E-2      1.04871208   
     2.99000000        0.771397844E-3      1.02652984        0.245586010E-2      1.04895564   
     3.00000000        0.773959331E-3      1.02660694        0.247525899E-2      1.04920111   
     3.01000000        0.776569494E-3      1.02668430        0.249498575E-2      1.04944851   
     3.02000000        0.779228455E-3      1.02676193        0.251504598E-2      1.04969789   
     3.03000000        0.781936351E-3      1.02683982        0.253544550E-2      1.04994926   
     3.04000000        0.784693338E-3      1.02691799        0.255619024E-2      1.05020268   
     3.05000000        0.787499586E-3      1.02699644        0.257728636E-2      1.05045816   
     3.06000000        0.790355282E-3      1.02707516        0.259874016E-2      1.05071575   
     3.07000000        0.793260632E-3      1.02715418        0.262055815E-2      1.05097549   
     3.08000000        0.796215855E-3      1.02723348        0.264274703E-2      1.05123740   
     3.09000000        0.799221188E-3      1.02731309        0.266531369E-2      1.05150152   
     3.10000000        0.802276885E-3      1.02739299        0.268826522E-2      1.05176790   
     3.11000000        0.805383216E-3      1.02747320        0.271160894E-2      1.05203656   
     3.12000000        0.808540469E-3      1.02755373        0.273535235E-2      1.05230756   
     3.13000000        0.811748945E-3      1.02763457        0.275950322E-2      1.05258092   
     3.14000000        0.815008966E-3      1.02771574        0.278406950E-2      1.05285669   
     3.15000000        0.818320868E-3      1.02779723        0.280905942E-2      1.05313491   
     3.16000000        0.821685005E-3      1.02787905        0.283448143E-2      1.05341563   
     3.17000000        0.825101750E-3      1.02796122        0.286034422E-2      1.05369887   
     3.18000000        0.828571488E-3      1.02804372        0.288665678E-2      1.05398470   
     3.19000000        0.832094627E-3      1.02812658        0.291342833E-2      1.05427315   
     3.20000000        0.835671590E-3      1.02820978        0.294066838E-2      1.05456426   
     3.21000000        0.839302817E-3      1.02829335        0.296838674E-2      1.05485809   
     3.22000000        0.842988767E-3      1.02837728        0.299659351E-2      1.05515469   
     3.23000000        0.846729918E-3      1.02846158        0.302529908E-2      1.05545409   
     3.24000000        0.850526763E-3      1.02854626        0.305451417E-2      1.05575635   
     3.25000000        0.854379817E-3      1.02863131        0.308424984E-2      1.05606152   
     3.26000000        0.858289613E-3      1.02871675        0.311451746E-2      1.05636966   
     3.27000000        0.862256701E-3      1.02880259        0.314532877E-2      1.05668080   
     3.28000000        0.866281654E-3      1.02888882        0.317669588E-2      1.05699502   
     3.29000000        0.870365061E-3      1.02897546        0.320863126E-2      1.05731236   
     3.30000000        0.874507533E-3      1.02906250        0.324114777E-2      1.05763287   
     3.31000000        0.878709700E-3      1.02914996        0.327425869E-2      1.05795662   
     3.32000000        0.882972215E-3      1.02923784        0.330797771E-2      1.05828367   
     3.33000000        0.887295749E-3      1.02932615        0.334231895E-2      1.05861407   
     3.34000000        0.891680997E-3      1.02941489        0.337729698E-2      1.05894789   
     3.35000000        0.896128673E-3      1.02950407        0.341292684E-2      1.05928519   
     3.36000000        0.900639517E-3      1.02959370        0.344922406E-2      1.05962602   
     3.37000000        0.905214287E-3      1.02968377        0.348620468E-2      1.05997047   
     3.38000000        0.909853768E-3      1.02977431        0.352388522E-2      1.06031860   
     3.39000000        0.914558766E-3      1.02986531        0.356228280E-2      1.06067047   
     3.40000000        0.919330112E-3      1.02995678        0.360141507E-2      1.06102615   
     3.41000000        0.924168663E-3      1.03004873        0.364130026E-2      1.06138573   
     3.42000000        0.929075299E-3      1.03014116        0.368195723E-2      1.06174927   
     3.43000000        0.934050926E-3      1.03023408        0.372340546E-2      1.06211684   
     3.44000000        0.939096477E-3      1.03032751        0.376566510E-2      1.06248853   
     3.45000000        0.944212911E-3      1.03042143        0.380875696E-2      1.06286442   
     3.46000000        0.949401216E-3      1.03051587        0.385270259E-2      1.06324459   
     3.47000000        0.954662407E-3      1.03061083        0.389752426E-2      1.06362912   
     3.48000000        0.959997527E-3      1.03070631        0.394324502E-2      1.06401809   
     3.49000000        0.965407652E-3      1.03080233        0.398988875E-2      1.06441160   
     3.50000000        0.970893884E-3      1.03089889        0.403748012E-2      1.06480974   
     3.51000000        0.976457358E-3      1.03099599        0.408604470E-2      1.06521260   
     3.52000000        0.982099243E-3      1.03109366        0.413560898E-2      1.06562028   
     3.53000000        0.987820737E-3      1.03119188        0.418620039E-2      1.06603286   
     3.54000000        0.993623075E-3      1.03129068        0.423784734E-2      1.06645047   
     3.55000000        0.999507523E-3      1.03139006        0.429057930E-2      1.06687319   
     3.56000000        0.100547539E-2      1.03149003        0.434442679E-2      1.06730113   
     3.57000000        0.101152800E-2      1.03159059        0.439942147E-2      1.06773441   
     3.58000000        0.101766675E-2      1.03169176        0.445559620E-2      1.06817313   
     3.59000000        0.102389305E-2      1.03179354        0.451298503E-2      1.06861742   
     3.60000000        0.103020835E-2      1.03189595        0.457162333E-2      1.06906738   
     3.61000000        0.103661415E-2      1.03199898        0.463154781E-2      1.06952314   
     3.62000000        0.104311198E-2      1.03210266        0.469279658E-2      1.06998484   
     3.63000000        0.104970344E-2      1.03220698        0.475540922E-2      1.07045258   
     3.64000000        0.105639014E-2      1.03231196        0.481942686E-2      1.07092652   
     3.65000000        0.106317376E-2      1.03241762        0.488489226E-2      1.07140679   
     3.66000000        0.107005601E-2      1.03252394        0.495184984E-2      1.07189352   
     3.67000000        0.107703867E-2      1.03263096        0.502034583E-2      1.07238687   
     3.68000000        0.108412355E-2      1.03273867        0.509042830E-2      1.07288698   
     3.69000000        0.109131252E-2      1.03284709        0.516214727E-2      1.07339400   
     3.70000000        0.109860751E-2      1.03295623        0.523555481E-2      1.07390811   
     3.71000000        0.110601049E-2      1.03306609        0.531070515E-2      1.07442945   
     3.72000000        0.111352349E-2      1.03317670        0.538765478E-2      1.07495820   
     3.73000000        0.112114862E-2      1.03328805        0.546646254E-2      1.07549454   
     3.74000000        0.112888803E-2      1.03340017        0.554718978E-2      1.07603864   
     3.75000000        0.113674392E-2      1.03351305        0.562990048E-2      1.07659069   
     3.76000000        0.114471859E-2      1.03362672        0.571466135E-2      1.07715089   
     3.77000000        0.115281438E-2      1.03374119        0.580154203E-2      1.07771942   
     3.78000000        0.116103371E-2      1.03385646        0.589061521E-2      1.07829650   
     3.79000000        0.116937907E-2      1.03397256        0.598195680E-2      1.07888234   
     3.80000000        0.117785302E-2      1.03408948        0.607564610E-2      1.07947715   
     3.81000000        0.118645820E-2      1.03420725        0.617176598E-2      1.08008117   
     3.82000000        0.119519733E-2      1.03432588        0.627040312E-2      1.08069462   
     3.83000000        0.120407321E-2      1.03444538        0.637164814E-2      1.08131776   
     3.84000000        0.121308871E-2      1.03456577        0.647559591E-2      1.08195082   
     3.85000000        0.122224683E-2      1.03468705        0.658234572E-2      1.08259407   
     3.86000000        0.123155061E-2      1.03480925        0.669200157E-2      1.08324778   
     3.87000000        0.124100321E-2      1.03493237        0.680467242E-2      1.08391222   
     3.88000000        0.125060790E-2      1.03505643        0.692047250E-2      1.08458769   
     3.89000000        0.126036802E-2      1.03518145        0.703952162E-2      1.08527449   
     3.90000000        0.127028704E-2      1.03530745        0.716194548E-2      1.08597292   
     3.91000000        0.128036852E-2      1.03543443        0.728787602E-2      1.08668331   
     3.92000000        0.129061616E-2      1.03556241        0.741745184E-2      1.08740599   
     3.93000000        0.130103374E-2      1.03569142        0.755081856E-2      1.08814130   
     3.94000000        0.131162520E-2      1.03582146        0.768812929E-2      1.08888961   
     3.95000000        0.132239457E-2      1.03595256        0.782954507E-2      1.08965130   
     3.96000000        0.133334604E-2      1.03608473        0.797523540E-2      1.09042675   
     3.97000000        0.134448393E-2      1.03621798        0.812537873E-2      1.09121636   
     3.98000000        0.135581268E-2      1.03635235        0.828016311E-2      1.09202056   
     3.99000000        0.136733690E-2      1.03648784        0.843978676E-2      1.09283978   
     4.00000000        0.137906135E-2      1.03662448        0.860445876E-2      1.09367448   
     4.01000000        0.139099095E-2      1.03676229        0.877439975E-2      1.09452513   
     4.02000000        0.140313077E-2      1.03690128        0.894984277E-2      1.09539223   
     4.03000000        0.141548607E-2      1.03704148        0.913103405E-2      1.09627630   
     4.04000000        0.142806229E-2      1.03718290        0.931823392E-2      1.09717787   
     4.05000000        0.144086504E-2      1.03732558        0.951171782E-2      1.09809749   
     4.06000000        0.145390014E-2      1.03746952        0.971177736E-2      1.09903577   
     4.07000000        0.146717360E-2      1.03761477        0.991872147E-2      1.09999330   
     4.08000000        0.148069166E-2      1.03776133        0.101328776E-1      1.10097072   
     4.09000000        0.149446076E-2      1.03790923        0.103545933E-1      1.10196870   
     4.10000000        0.150848758E-2      1.03805850        0.105842372E-1      1.10298795   
     4.11000000        0.152277905E-2      1.03820916        0.108222013E-1      1.10402917   
     4.12000000        0.153734232E-2      1.03836124        0.110689021E-1      1.10509315   
     4.13000000        0.155218483E-2      1.03851476        0.113247828E-1      1.10618068   
     4.14000000        0.156731429E-2      1.03866976        0.115903153E-1      1.10729259   
     4.15000000        0.158273867E-2      1.03882625        0.118660026E-1      1.10842976   
     4.16000000        0.159846627E-2      1.03898428        0.121523810E-1      1.10959312   
     4.17000000        0.161450568E-2      1.03914386        0.124500230E-1      1.11078363   
     4.18000000        0.163086583E-2      1.03930504        0.127595402E-1      1.11200229   
     4.19000000        0.164755597E-2      1.03946783        0.130815866E-1      1.11325018   
     4.20000000        0.166458573E-2      1.03963228        0.134168621E-1      1.11452842   
     4.21000000        0.168196509E-2      1.03979841        0.137661163E-1      1.11583818   
     4.22000000        0.169970444E-2      1.03996627        0.141301529E-1      1.11718070   
     4.23000000        0.171781458E-2      1.04013587        0.145098348E-1      1.11855727   
     4.24000000        0.173630672E-2      1.04030727        0.149060885E-1      1.11996929   
     4.25000000        0.175519252E-2      1.04048050        0.153199108E-1      1.12141818   
     4.26000000        0.177448415E-2      1.04065560        0.157523743E-1      1.12290547   
     4.27000000        0.179419422E-2      1.04083260        0.162046353E-1      1.12443278   
     4.28000000        0.181433589E-2      1.04101155        0.166779410E-1      1.12600181   
     4.29000000        0.183492288E-2      1.04119249        0.171736384E-1      1.12761434   
     4.30000000        0.185596944E-2      1.04137546        0.176931842E-1      1.12927228   
     4.31000000        0.187749046E-2      1.04156050        0.182381552E-1      1.13097763   
     4.32000000        0.189950144E-2      1.04174767        0.188102606E-1      1.13273251   
     4.33000000        0.192201857E-2      1.04193701        0.194113553E-1      1.13453918   
     4.34000000        0.194505870E-2      1.04212857        0.200434550E-1      1.13640001   
     4.35000000        0.196863946E-2      1.04232240        0.207087527E-1      1.13831753   
     4.36000000        0.199277924E-2      1.04251856        0.214096383E-1      1.14029442   
     4.37000000        0.201749724E-2      1.04271708        0.221487189E-1      1.14233351   
     4.38000000        0.204281354E-2      1.04291804        0.229288436E-1      1.14443783   
     4.39000000        0.206874910E-2      1.04312149        0.237531301E-1      1.14661056   
     4.40000000        0.209532589E-2      1.04332749        0.246249950E-1      1.14885513   
     4.41000000        0.212256685E-2      1.04353610        0.255481889E-1      1.15117514   
     4.42000000        0.215049600E-2      1.04374739        0.265268354E-1      1.15357444   
     4.43000000        0.217913851E-2      1.04396141        0.275654754E-1      1.15605712   
     4.44000000        0.220852073E-2      1.04417825        0.286691185E-1      1.15862753   
     4.45000000        0.223867027E-2      1.04439797        0.298433003E-1      1.16129028   
     4.46000000        0.226961611E-2      1.04462064        0.310941495E-1      1.16405031   
     4.47000000        0.230138861E-2      1.04484634        0.324284632E-1      1.16691283   
     4.48000000        0.233401967E-2      1.04507514        0.338537947E-1      1.16988340   
     4.49000000        0.236754276E-2      1.04530714        0.353785535E-1      1.17296791   
     4.50000000        0.240199304E-2      1.04554242        0.370121215E-1      1.17617262   
     4.51000000        0.243740749E-2      1.04578106        0.387649868E-1      1.17950414   
     4.52000000        0.247382496E-2      1.04602315        0.406488981E-1      1.18296948   
     4.53000000        0.251128636E-2      1.04626880        0.426770453E-1      1.18657601   
     4.54000000        0.254983474E-2      1.04651809        0.448642674E-1      1.19033148   
     4.55000000        0.258951544E-2      1.04677114        0.472272967E-1      1.19424399   
     4.56000000        0.263037625E-2      1.04702804        0.497850415E-1      1.19832196   
     4.57000000        0.267246755E-2      1.04728892        0.525589180E-1      1.20257409   
     4.58000000        0.271584249E-2      1.04755388        0.555732372E-1      1.20700924   
     4.59000000        0.276055720E-2      1.04782305        0.588556585E-1      1.21163635   
     4.60000000        0.280667095E-2      1.04809655        0.624377196E-1      1.21646422   
     4.61000000        0.285424638E-2      1.04837452        0.663554583E-1      1.22150129   
     4.62000000        0.290334975E-2      1.04865708        0.706501378E-1      1.22675527   
     4.63000000        0.295405118E-2      1.04894439        0.753690935E-1      1.23223268   
     4.64000000        0.300642492E-2      1.04923659        0.805667174E-1      1.23793817   
     4.65000000        0.306054963E-2      1.04953383        0.863055952E-1      1.24387364   
     4.66000000        0.311650875E-2      1.04983629        0.926578083E-1      1.25003705   
     4.67000000        0.317439081E-2      1.05014412        0.997064058E-1      1.25642075   
     4.68000000        0.323428979E-2      1.05045750        0.107547035         1.26300933   
     4.69000000        0.329630558E-2      1.05077663        0.116289691         1.26977663   
     4.70000000        0.336054439E-2      1.05110169        0.126060500         1.27668185   
     4.71000000        0.342711928E-2      1.05143289        0.137003370         1.28366432   
     4.72000000        0.349615061E-2      1.05177044        0.149281220         1.29063656   
     4.73000000        0.356776673E-2      1.05211456        0.163076286         1.29747528   
     4.74000000        0.364210450E-2      1.05246549        0.178588726         1.30400971   
     4.75000000        0.371931008E-2      1.05282347        0.196032254         1.31000694   
     4.76000000        0.379953963E-2      1.05318876        0.215624947         1.31515388   
     4.77000000        0.388296016E-2      1.05356164        0.237572510         1.31903643   
     4.78000000        0.396975044E-2      1.05394238        0.262040367         1.32111725   
     4.79000000        0.406010201E-2      1.05433129        0.289110176         1.32071596   
     4.80000000        0.415422030E-2      1.05472867        0.318716451         1.31699927   
     4.81000000        0.425232578E-2      1.05513487        0.350561233         1.30899322   
     4.82000000        0.435465541E-2      1.05555023        0.384011218         1.29563596   
     4.83000000        0.446146402E-2      1.05597512        0.417994634         1.27589197   
     4.84000000        0.457302600E-2      1.05640993        0.450934473         1.24894345   
     4.85000000        0.468963712E-2      1.05685507        0.480774458         1.21445116   
     4.86000000        0.481161651E-2      1.05731097        0.505157680         1.17283296   
     4.87000000        0.493930893E-2      1.05777808        0.521782513         1.12545603   
     4.88000000        0.507308723E-2      1.05825690        0.528877616         1.07461767   
     4.89000000        0.521335513E-2      1.05874794        0.525642180         1.02324390   
     4.90000000        0.536055032E-2      1.05925172        0.512464584        0.974364394   
     4.91000000        0.551514788E-2      1.05976884        0.490814927        0.930548168   
     4.92000000        0.567766417E-2      1.06029988        0.462863682        0.893508546   
     4.93000000        0.584866114E-2      1.06084551        0.430997553        0.863986446   
     4.94000000        0.602875120E-2      1.06140640        0.397409367        0.841881069   
     4.95000000        0.621860269E-2      1.06198327        0.363856021        0.826511988   
     4.96000000        0.641894600E-2      1.06257691        0.331584469        0.816895013   
     4.97000000        0.663058057E-2      1.06318811        0.301372808        0.811960925   
     4.98000000        0.685438271E-2      1.06381775        0.273625835        0.810696041   
     4.99000000        0.709131451E-2      1.06446676        0.248480869        0.812214342   
     5.00000000        0.734243392E-2      1.06513612        0.225900317        0.815781788   
     5.01000000        0.760890629E-2      1.06582686        0.205742818        0.820812544   
     5.02000000        0.789201737E-2      1.06654011        0.187813345        0.826851623   
     5.03000000        0.819318832E-2      1.06727704        0.171896108        0.833552956   
     5.04000000        0.851399276E-2      1.06803890        0.157774789        0.840657765   
     5.05000000        0.885617635E-2      1.06882703        0.145244050        0.847975472   
     5.06000000        0.922167932E-2      1.06964286        0.134115361        0.855367838   
     5.07000000        0.961266231E-2      1.07048788        0.124219278        0.862736280   
     5.08000000        0.100315363E-1      1.07136369        0.115405630        0.870011969   
     5.09000000        0.104809969E-1      1.07227199        0.107542549        0.877148228   
     5.10000000        0.109640647E-1      1.07321455        0.100514929        0.884114752   
     5.11000000        0.114841314E-1      1.07419326        0.942226658E-1     0.890893268   
     5.12000000        0.120450134E-1      1.07521010        0.885788863E-1     0.897474263   
     5.13000000        0.126510153E-1      1.07626714        0.835082686E-1     0.903854558   
     5.14000000        0.133070022E-1      1.07736651        0.789455149E-1     0.910035494   
     5.15000000        0.140184861E-1      1.07851043        0.748339915E-1     0.916021593   
     5.16000000        0.147917252E-1      1.07970116        0.711245358E-1     0.921819566   
     5.17000000        0.156338410E-1      1.08094096        0.677744230E-1     0.927437580   
     5.18000000        0.165529554E-1      1.08223207        0.647464747E-1     0.932884731   
     5.19000000        0.175583512E-1      1.08357659        0.620082958E-1     0.938170646   
     5.20000000        0.186606588E-1      1.08497648        0.595316206E-1     0.943305211   
     5.21000000        0.198720748E-1      1.08643333        0.572917564E-1     0.948298371   
     5.22000000        0.212066161E-1      1.08794826        0.552671078E-1     0.953159986   
     5.23000000        0.226804119E-1      1.08952166        0.534387719E-1     0.957899745   
     5.24000000        0.243120390E-1      1.09115287        0.517901931E-1     0.962527100   
     5.25000000        0.261228993E-1      1.09283975        0.503068690E-1     0.967051231   
     5.26000000        0.281376361E-1      1.09457813        0.489760998E-1     0.971481029   
     5.27000000        0.303845797E-1      1.09636100        0.477867744E-1     0.975825091   
     5.28000000        0.328961958E-1      1.09817750        0.467291882E-1     0.980091724   
     5.29000000        0.357094941E-1      1.10001155        0.457948883E-1     0.984288958   
     5.30000000        0.388663156E-1      1.10184002        0.449765414E-1     0.988424560   
     5.31000000        0.424133677E-1      1.10363042        0.442678225E-1     0.992506056   
     5.32000000        0.464017920E-1      1.10533780        0.436633202E-1     0.996540755   
     5.33000000        0.508859310E-1      1.10690096        0.431584578E-1      1.00053577   
     5.34000000        0.559207973E-1      1.10823781        0.427494280E-1      1.00449804   
     5.35000000        0.615575282E-1      1.10924001        0.424331387E-1      1.00843436   
     5.36000000        0.678358804E-1      1.10976738        0.422071704E-1      1.01235141   
     5.37000000        0.747726365E-1      1.10964307        0.420697430E-1      1.01625578   
     5.38000000        0.823448685E-1      1.10865169        0.420196916E-1      1.02015399   
     5.39000000        0.904676861E-1      1.10654338        0.420564514E-1      1.02405250   
     5.40000000        0.989679147E-1      1.10304900        0.421800503E-1      1.02795779   
     5.41000000        0.107558641         1.09791136        0.423911098E-1      1.03187632   
     5.42000000        0.115824600         1.09093626        0.426908544E-1      1.03581460   
     5.43000000        0.123233110         1.08205995        0.430811289E-1      1.03977921   
     5.44000000        0.129185188         1.07141834        0.435644247E-1      1.04377679   
     5.45000000        0.133110867         1.05939005        0.441439161E-1      1.04781411   
     5.46000000        0.134590632         1.04658250        0.448235055E-1      1.05189808   
     5.47000000        0.133461632         1.03374648        0.456078812E-1      1.05603575   
     5.48000000        0.129862547         1.02163909        0.465025874E-1      1.06023435   
     5.49000000        0.124195497         1.01088426        0.475141079E-1      1.06450132   
     5.50000000        0.117023429         1.00188169        0.486499672E-1      1.06884432   
     5.51000000        0.108948135        0.994786914        0.499188496E-1      1.07327122   
     5.52000000        0.100511652        0.989550677        0.513307401E-1      1.07779013   
     5.53000000        0.921413142E-1     0.985987105        0.528970906E-1      1.08240940   
     5.54000000        0.841359235E-1     0.983842116        0.546310158E-1      1.08713760   
     5.55000000        0.766788290E-1     0.982846043        0.565475228E-1      1.09198350   
     5.56000000        0.698629542E-1     0.982746520        0.586637815E-1      1.09695602   
     5.57000000        0.637173306E-1     0.983324722        0.609994422E-1      1.10206416   
     5.58000000        0.582298242E-1     0.984400240        0.635770078E-1      1.10731688   
     5.59000000        0.533643809E-1     0.985829432        0.664222711E-1      1.11272298   
     5.60000000        0.490730609E-1     0.987500719        0.695648263E-1      1.11829082   
     5.61000000        0.453038860E-1     0.989328905        0.730386672E-1      1.12402807   
     5.62000000        0.420056310E-1     0.991249666        0.768828834E-1      1.12994126   
     5.63000000        0.391305179E-1     0.993214669        0.811424673E-1      1.13603519   
     5.64000000        0.366355348E-1     0.995187475        0.858692408E-1      1.14231212   
     5.65000000        0.344828760E-1     0.997140167        0.911229094E-1      1.14877074   
     5.66000000        0.326398160E-1     0.999050598        0.969722370E-1      1.15540469   
     5.67000000        0.310781972E-1      1.00090014        0.103496324         1.16220060   
     5.68000000        0.297736036E-1      1.00267180        0.110785939         1.16913548   
     5.69000000        0.287042213E-1      1.00434873        0.118944796         1.17617324   
     5.70000000        0.278493354E-1      1.00591302        0.128090614         1.18326005   
     5.71000000        0.271874071E-1      1.00734504        0.138355635         1.19031827   
     5.72000000        0.266937291E-1      1.00862349        0.149886106         1.19723859   
     5.73000000        0.263378313E-1      1.00972656        0.162839933         1.20387001   
     5.74000000        0.260811261E-1      1.01063464        0.177381277         1.21000742   
     5.75000000        0.258757187E-1      1.01133481        0.193670345         1.21537698   
     5.76000000        0.256656690E-1      1.01182649        0.211845895         1.21961996   
     5.77000000        0.253918481E-1      1.01212709        0.231997416         1.22227735   
     5.78000000        0.250004392E-1      1.01227477        0.254123654         1.22277956   
     5.79000000        0.244531373E-1      1.01232614        0.278075268         1.22044928   
     5.80000000        0.237353065E-1      1.01234795        0.303482924         1.21452925   
     5.81000000        0.228583923E-1      1.01240507        0.329680023         1.20425032   
     5.82000000        0.218553675E-1      1.01254917        0.355642114         1.18895348   
     5.83000000        0.207713493E-1      1.01281206        0.379980286         1.16826708   
     5.84000000        0.196533570E-1      1.01320515        0.401033823         1.14231283   
     5.85000000        0.185425484E-1      1.01372339        0.417091906         1.11187546   
     5.86000000        0.174702398E-1      1.01435124        0.426723401         1.07844475   
     5.87000000        0.164572274E-1      1.01506826        0.429121781         1.04405908   
     5.88000000        0.155151350E-1      1.01585327        0.424327825         1.01096079   
     5.89000000        0.146485763E-1      1.01668680        0.413226477        0.981174802   
     5.90000000        0.138573324E-1      1.01755231        0.397319682        0.956168336   
     5.91000000        0.131381659E-1      1.01843642        0.378381151        0.936700342   
     5.92000000        0.124861681E-1      1.01932877        0.358130044        0.922868061   
     5.93000000        0.118956832E-1      1.02022155        0.338014487        0.914278113   
     5.94000000        0.113608977E-1      1.02110906        0.319123874        0.910251027   
     5.95000000        0.108761906E-1      1.02198729        0.302199180        0.909995188   
     5.96000000        0.104363227E-1      1.02285349        0.287695964        0.912724607   
     5.97000000        0.100365217E-1      1.02370587        0.275863085        0.917722224   
     5.98000000        0.967250495E-2      1.02454338        0.266815379        0.924362344   
     5.99000000        0.934046567E-2      1.02536549        0.260591112        0.932107078   
     6.00000000        0.903704012E-2      1.02617207        0.257192584        0.940488325   
     6.01000000        0.875926643E-2      1.02696324        0.256611442        0.949082726   
     6.02000000        0.850454101E-2      1.02773933        0.258840826        0.957483711   
     6.03000000        0.827057625E-2      1.02850080        0.263875758        0.965272882   
     6.04000000        0.805536128E-2      1.02924819        0.271701838        0.971992235   
     6.05000000        0.785712653E-2      1.02998212        0.282271092        0.977119394   
     6.06000000        0.767431240E-2      1.03070321        0.295463003        0.980049795   
     6.07000000        0.750554171E-2      1.03141210        0.311029314        0.980092944   
     6.08000000        0.734959588E-2      1.03210945        0.328524269        0.976493806   
     6.09000000        0.720539424E-2      1.03279589        0.347229177        0.968493533   
     6.10000000        0.707197620E-2      1.03347204        0.366092268        0.955442502   
     6.11000000        0.694848596E-2      1.03413852        0.383719378        0.936967095   
     6.12000000        0.683415930E-2      1.03479591        0.398458843        0.913165410   
     6.13000000        0.672831220E-2      1.03544478        0.408609798        0.884770274   
     6.14000000        0.663033105E-2      1.03608567        0.412735128        0.853192233   
     6.15000000        0.653966427E-2      1.03671910        0.409991472        0.820373588   
     6.16000000        0.645581491E-2      1.03734557        0.400345009        0.788461197   
     6.17000000        0.637833445E-2      1.03796556        0.384572259        0.759403153   
     6.18000000        0.630681725E-2      1.03857954        0.364045218        0.734620099   
     6.19000000        0.624089580E-2      1.03918792        0.340400696        0.714857302   
     6.20000000        0.618023662E-2      1.03979114        0.315225231        0.700226381   
     6.21000000        0.612453660E-2      1.04038960        0.289843976        0.690368429   
     6.22000000        0.607351984E-2      1.04098367        0.265233025        0.684651159   
     6.23000000        0.602693490E-2      1.04157373        0.242026390        0.682338148   
     6.24000000        0.598455236E-2      1.04216014        0.220574271        0.682705115   
     6.25000000        0.594616265E-2      1.04274322        0.201017037        0.685104659   
     6.26000000        0.591157418E-2      1.04332331        0.183353939        0.688992602   
     6.27000000        0.588061167E-2      1.04390072        0.167497865        0.693930492   
     6.28000000        0.585311467E-2      1.04447575        0.153314880        0.699575725   
     6.29000000        0.582893622E-2      1.04504870        0.140650762        0.705666760   
     6.30000000        0.580794172E-2      1.04561985        0.129347653        0.712007691   
     6.31000000        0.579000788E-2      1.04618947        0.119253780        0.718454223   
     6.32000000        0.577502178E-2      1.04675782        0.110228583        0.724901833   
     6.33000000        0.576288006E-2      1.04732517        0.102144940        0.731276199   
     6.34000000        0.575348819E-2      1.04789175        0.948896410E-1     0.737525680   
     6.35000000        0.574675980E-2      1.04845782        0.883628817E-1     0.743615520   
     6.36000000        0.574261608E-2      1.04902361        0.824772448E-1     0.749523430   
     6.37000000        0.574098530E-2      1.04958935        0.771564676E-1     0.755236256   
     6.38000000        0.574180229E-2      1.05015527        0.723341651E-1     0.760747475   
     6.39000000        0.574500805E-2      1.05072159        0.679526038E-1     0.766055336   
     6.40000000        0.575054935E-2      1.05128852        0.639615727E-1     0.771161463   
     6.41000000        0.575837845E-2      1.05185627        0.603173721E-1     0.776069835   
     6.42000000        0.576845274E-2      1.05242506        0.569819235E-1     0.780786018   
     6.43000000        0.578073454E-2      1.05299510        0.539219938E-1     0.785316612   
     6.44000000        0.579519083E-2      1.05356657        0.511085251E-1     0.789668839   
     6.45000000        0.581179306E-2      1.05413969        0.485160591E-1     0.793850247   
     6.46000000        0.583051702E-2      1.05471466        0.461222427E-1     0.797868495   
     6.47000000        0.585134262E-2      1.05529166        0.439074055E-1     0.801731201   
     6.48000000        0.587425386E-2      1.05587090        0.418541980E-1     0.805445837   
     6.49000000        0.589923866E-2      1.05645257        0.399472828E-1     0.809019653   
     6.50000000        0.592628885E-2      1.05703686        0.381730697E-1     0.812459633   
     6.51000000        0.595540008E-2      1.05762397        0.365194893E-1     0.815772467   
     6.52000000        0.598657184E-2      1.05821409        0.349757983E-1     0.818964530   
     6.53000000        0.601980741E-2      1.05880741        0.335324125E-1     0.822041882   
     6.54000000        0.605511395E-2      1.05940412        0.321807632E-1     0.825010267   
     6.55000000        0.609250252E-2      1.06000442        0.309131731E-1     0.827875119   
     6.56000000        0.613198816E-2      1.06060851        0.297227495E-1     0.830641572   
     6.57000000        0.617359002E-2      1.06121657        0.286032911E-1     0.833314469   
     6.58000000        0.621733150E-2      1.06182881        0.275492081E-1     0.835898381   
     6.59000000        0.626324042E-2      1.06244543        0.265554519E-1     0.838397615   
     6.60000000        0.631134927E-2      1.06306661        0.256174548E-1     0.840816229   
     6.61000000        0.636169546E-2      1.06369258        0.247310763E-1     0.843158050   
     6.62000000        0.641432164E-2      1.06432353        0.238925569E-1     0.845426681   
     6.63000000        0.646927609E-2      1.06495968        0.230984776E-1     0.847625520   
     6.64000000        0.652661314E-2      1.06560123        0.223457240E-1     0.849757771   
     6.65000000        0.658639370E-2      1.06624840        0.216314548E-1     0.851826454   
     6.66000000        0.664868588E-2      1.06690141        0.209530745E-1     0.853834420   
     6.67000000        0.671356566E-2      1.06756048        0.203082088E-1     0.855784359   
     6.68000000        0.678111777E-2      1.06822584        0.196946831E-1     0.857678811   
     6.69000000        0.685143659E-2      1.06889771        0.191105036E-1     0.859520175   
     6.70000000        0.692462732E-2      1.06957634        0.185538403E-1     0.861310721   
     6.71000000        0.700080727E-2      1.07026196        0.180230124E-1     0.863052593   
     6.72000000        0.708010741E-2      1.07095482        0.175164749E-1     0.864747823   
     6.73000000        0.716267412E-2      1.07165517        0.170328070E-1     0.866398331   
     6.74000000        0.724867134E-2      1.07236325        0.165707019E-1     0.868005938   
     6.75000000        0.733828297E-2      1.07307932        0.161289581E-1     0.869572367   
     6.76000000        0.743171576E-2      1.07380365        0.157064708E-1     0.871099254   
     6.77000000        0.752920261E-2      1.07453648        0.153022258E-1     0.872588146   
     6.78000000        0.763100650E-2      1.07527808        0.149152930E-1     0.874040512   
     6.79000000        0.773742496E-2      1.07602870        0.145448218E-1     0.875457739   
     6.80000000        0.784879525E-2      1.07678859        0.141900362E-1     0.876841143   
     6.81000000        0.796550031E-2      1.07755798        0.138502321E-1     0.878191965   
     6.82000000        0.808797537E-2      1.07833709        0.135247737E-1     0.879511376   
     6.83000000        0.821671533E-2      1.07912610        0.132130911E-1     0.880800470   
     6.84000000        0.835228255E-2      1.07992515        0.129146782E-1     0.882060272   
     6.85000000        0.849531471E-2      1.08073432        0.126290905E-1     0.883291724   
     6.86000000        0.864653197E-2      1.08155363        0.123559417E-1     0.884495686   
     6.87000000        0.880674206E-2      1.08238295        0.120948997E-1     0.885672923   
     6.88000000        0.897684113E-2      1.08322203        0.118456787E-1     0.886824094   
     6.89000000        0.915780684E-2      1.08407039        0.116080276E-1     0.887949737   
     6.90000000        0.935067856E-2      1.08492730        0.113817105E-1     0.889050250   
     6.91000000        0.955651704E-2      1.08579170        0.111664759E-1     0.890125870   
     6.92000000        0.977633306E-2      1.08666209        0.109620110E-1     0.891176661   
     6.93000000        0.100109715E-1      1.08753644        0.107678774E-1     0.892202503   
     6.94000000        0.102609344E-1      1.08841216        0.105834269E-1     0.893203113   
     6.95000000        0.105261267E-1      1.08928596        0.104077027E-1     0.894178099   
     6.96000000        0.108055131E-1      1.09015400        0.102393462E-1     0.895127077   
     6.97000000        0.110966928E-1      1.09101196        0.100765419E-1     0.896049851   
     6.98000000        0.113954447E-1      1.09185554        0.991705071E-2     0.896946650   
     6.99000000        0.116953682E-1      1.09268115        0.975837521E-2     0.897818370   
     7.00000000        0.119878465E-1      1.09348703        0.959806735E-2     0.898666734   
     7.01000000        0.122626135E-1      1.09427447        0.943412384E-2     0.899494280   
     7.02000000        0.125091209E-1      1.09504889        0.926535439E-2     0.900304133   
     7.03000000        0.127185797E-1      1.09582010        0.909159438E-2     0.901099603   
     7.04000000        0.128861009E-1      1.09660128        0.891368514E-2     0.901883727   
     7.05000000        0.130120733E-1      1.09740691        0.873323433E-2     0.902658889   
     7.06000000        0.131021292E-1      1.09825006        0.855224664E-2     0.903426630   
     7.07000000        0.131657127E-1      1.09914033        0.837274583E-2     0.904187653   
     7.08000000        0.132139127E-1      1.10008290        0.819648677E-2     0.904941982   
     7.09000000        0.132574199E-1      1.10107885        0.802480124E-2     0.905689197   
     7.10000000        0.133051735E-1      1.10212625        0.785856672E-2     0.906428658   
     7.11000000        0.133638137E-1      1.10322143        0.769825751E-2     0.907159679   
     7.12000000        0.134377448E-1      1.10436010        0.754403332E-2     0.907881639   
     7.13000000        0.135295270E-1      1.10553809        0.739583263E-2     0.908594036   
     7.14000000        0.136403642E-1      1.10675178        0.725345307E-2     0.909296503   
     7.15000000        0.137705551E-1      1.10799827        0.711661274E-2     0.909988801   
     7.16000000        0.139198507E-1      1.10927535        0.698499319E-2     0.910670804   
     7.17000000        0.140877129E-1      1.11058150        0.685826736E-2     0.911342475   
     7.18000000        0.142734877E-1      1.11191574        0.673611652E-2     0.912003850   
     7.19000000        0.144765145E-1      1.11327756        0.661823960E-2     0.912655017   
     7.20000000        0.146961898E-1      1.11466681        0.650435761E-2     0.913296105   
     7.21000000        0.149320024E-1      1.11608365        0.639421506E-2     0.913927268   
     7.22000000        0.151835483E-1      1.11752846        0.628757947E-2     0.914548683   
     7.23000000        0.154505359E-1      1.11900182        0.618424006E-2     0.915160536   
     7.24000000        0.157327834E-1      1.12050443        0.608400588E-2     0.915763024   
     7.25000000        0.160302146E-1      1.12203715        0.598670390E-2     0.916356345   
     7.26000000        0.163428524E-1      1.12360092        0.589217706E-2     0.916940699   
     7.27000000        0.166708120E-1      1.12519678        0.580028242E-2     0.917516287   
     7.28000000        0.170142959E-1      1.12682584        0.571088961E-2     0.918083304   
     7.29000000        0.173735878E-1      1.12848929        0.562387925E-2     0.918641945   
     7.30000000        0.177490493E-1      1.13018839        0.553914178E-2     0.919192400   
     7.31000000        0.181411164E-1      1.13192446        0.545657624E-2     0.919734854   
     7.32000000        0.185502971E-1      1.13369890        0.537608933E-2     0.920269489   
     7.33000000        0.189771705E-1      1.13551317        0.529759456E-2     0.920796480   
     7.34000000        0.194223863E-1      1.13736879        0.522101150E-2     0.921315999   
     7.35000000        0.198866648E-1      1.13926736        0.514626516E-2     0.921828213   
     7.36000000        0.203707989E-1      1.14121056        0.507328540E-2     0.922333283   
     7.37000000        0.208756552E-1      1.14320014        0.500200647E-2     0.922831366   
     7.38000000        0.214021772E-1      1.14523793        0.493236660E-2     0.923322615   
     7.39000000        0.219513885E-1      1.14732585        0.486430760E-2     0.923807176   
     7.40000000        0.225243969E-1      1.14946592        0.479777454E-2     0.924285195   
     7.41000000        0.231223992E-1      1.15166025        0.473271551E-2     0.924756810   
     7.42000000        0.237466868E-1      1.15391105        0.466908131E-2     0.925222157   
     7.43000000        0.243986519E-1      1.15622066        0.460682528E-2     0.925681367   
     7.44000000        0.250797952E-1      1.15859150        0.454590306E-2     0.926134566   
     7.45000000        0.257917334E-1      1.16102616        0.448627243E-2     0.926581880   
     7.46000000        0.265362086E-1      1.16352733        0.442789316E-2     0.927023428   
     7.47000000        0.273150984E-1      1.16609786        0.437072689E-2     0.927459328   
     7.48000000        0.281304273E-1      1.16874074        0.431473694E-2     0.927889692   
     7.49000000        0.289843789E-1      1.17145913        0.425988826E-2     0.928314632   
     7.50000000        0.298793106E-1      1.17425637        0.420614729E-2     0.928734254   
     7.51000000        0.308177685E-1      1.17713596        0.415348187E-2     0.929148664   
     7.52000000        0.318025052E-1      1.18010163        0.410186119E-2     0.929557961   
     7.53000000        0.328364993E-1      1.18315729        0.405125564E-2     0.929962246   
     7.54000000        0.339229764E-1      1.18630709        0.400163681E-2     0.930361615   
     7.55000000        0.350654338E-1      1.18955543        0.395297740E-2     0.930756160   
     7.56000000        0.362676673E-1      1.19290695        0.390525112E-2     0.931145974   
     7.57000000        0.375338010E-1      1.19636658        0.385843271E-2     0.931531144   
     7.58000000        0.388683214E-1      1.19993953        0.381249781E-2     0.931911758   
     7.59000000        0.402761153E-1      1.20363135        0.376742298E-2     0.932287899   
     7.60000000        0.417625119E-1      1.20744791        0.372318560E-2     0.932659650   
     7.61000000        0.433333314E-1      1.21139545        0.367976387E-2     0.933027090   
     7.62000000        0.449949383E-1      1.21548059        0.363713675E-2     0.933390298   
     7.63000000        0.467543027E-1      1.21971037        0.359528391E-2     0.933749349   
     7.64000000        0.486190692E-1      1.22409229        0.355418573E-2     0.934104318   
     7.65000000        0.505976348E-1      1.22863429        0.351382326E-2     0.934455277   
     7.66000000        0.526992379E-1      1.23334485        0.347417818E-2     0.934802296   
     7.67000000        0.549340590E-1      1.23823299        0.343523275E-2     0.935145444   
     7.68000000        0.573133356E-1      1.24330828        0.339696984E-2     0.935484790   
     7.69000000        0.598494935E-1      1.24858092        0.335937286E-2     0.935820397   
     7.70000000        0.625562970E-1      1.25406177        0.332242575E-2     0.936152330   
     7.71000000        0.654490211E-1      1.25976238        0.328611296E-2     0.936480652   
     7.72000000        0.685446490E-1      1.26569499        0.325041943E-2     0.936805423   
     7.73000000        0.718621003E-1      1.27187265        0.321533056E-2     0.937126704   
     7.74000000        0.754224930E-1      1.27830916        0.318083222E-2     0.937444552   
     7.75000000        0.792494475E-1      1.28501916        0.314691068E-2     0.937759025   
     7.76000000        0.833694379E-1      1.29201810        0.311355266E-2     0.938070178   
     7.77000000        0.878122000E-1      1.29932229        0.308074524E-2     0.938378066   
     7.78000000        0.926112057E-1      1.30694884        0.304847592E-2     0.938682741   
     7.79000000        0.978042150E-1      1.31491562        0.301673254E-2     0.938984256   
     7.80000000        0.103433921         1.32324123        0.298550331E-2     0.939282661   
     7.81000000        0.109548700         1.33194479        0.295477679E-2     0.939578007   
     7.82000000        0.116203497         1.34104582        0.292454186E-2     0.939870341   
     7.83000000        0.123460849         1.35056387        0.289478770E-2     0.940159712   
     7.84000000        0.131392096         1.36051818        0.286550384E-2     0.940446166   
     7.85000000        0.140078790         1.37092703        0.283668005E-2     0.940729748   
     7.86000000        0.149614344         1.38180696        0.280830644E-2     0.941010503   
     7.87000000        0.160105956         1.39317165        0.278037335E-2     0.941288475   
     7.88000000        0.171676842         1.40503039        0.275287142E-2     0.941563706   
     7.89000000        0.184468814         1.41738599        0.272579152E-2     0.941836238   
     7.90000000        0.198645227         1.43023201        0.269912479E-2     0.942106113   
     7.91000000        0.214394303         1.44354895        0.267286258E-2     0.942373369   
     7.92000000        0.231932794         1.45729917        0.264699651E-2     0.942638047   
     7.93000000        0.251509900         1.47142007        0.262151840E-2     0.942900185   
     7.94000000        0.273411210         1.48581498        0.259642028E-2     0.943159821   
     7.95000000        0.297962277         1.50034103        0.257169440E-2     0.943416991   
     7.96000000        0.325531125         1.51479322        0.254733322E-2     0.943671732   
     7.97000000        0.356528506         1.52888357        0.252332938E-2     0.943924079   
     7.98000000        0.391404019         1.54221426        0.249967572E-2     0.944174066   
     7.99000000        0.430635137         1.55424398        0.247636526E-2     0.944421729   
     8.00000000        0.474704729         1.56424691        0.245339120E-2     0.944667100   
     8.01000000        0.524060787         1.57126560        0.243074690E-2     0.944910212   
     8.02000000        0.579049967         1.57406180        0.240842591E-2     0.945151098   
     8.03000000        0.639815033         1.57107448        0.238642193E-2     0.945389788   
     8.04000000        0.706146968         1.56040308        0.236472880E-2     0.945626313   
     8.05000000        0.777288588         1.53984532        0.234334055E-2     0.945860704   
     8.06000000        0.851702714         1.50703156        0.232225131E-2     0.946092991   
     8.07000000        0.926848839         1.45970243        0.230145540E-2     0.946323203   
     8.08000000        0.999056677         1.39615959        0.228094724E-2     0.946551367   
     8.09000000         1.06362637         1.31586097        0.226072141E-2     0.946777513   
     8.10000000         1.11528346         1.22002782        0.224077261E-2     0.947001668   
     8.11000000         1.14902203         1.11201885        0.222109566E-2     0.947223859   
     8.12000000         1.16117386        0.997198989        0.220168553E-2     0.947444112   
     8.13000000         1.15033776        0.882180324        0.218253727E-2     0.947662454   
     8.14000000         1.11776484        0.773612652        0.216364608E-2     0.947878909   
     8.15000000         1.06701375        0.676959752        0.214500725E-2     0.948093504   
     8.16000000         1.00304269        0.595706177        0.212661619E-2     0.948306262   
     8.17000000        0.931136966        0.531190597        0.210846842E-2     0.948517209   
     8.18000000        0.856046052        0.482957506        0.209055955E-2     0.948726367   
     8.19000000        0.781505554        0.449358377        0.207288531E-2     0.948933760   
     8.20000000        0.710119546        0.428152382        0.205544151E-2     0.949139411   
     8.21000000        0.643477704        0.416967086        0.203822405E-2     0.949343342   
     8.22000000        0.582375904        0.413585677        0.202122895E-2     0.949545577   
     8.23000000        0.527049134        0.416088347        0.200445229E-2     0.949746135   
     8.24000000        0.477370514        0.422894483        0.198789025E-2     0.949945040   
     8.25000000        0.433002009        0.432748113        0.197153911E-2     0.950142311   
     8.26000000        0.393499387        0.444676849        0.195539520E-2     0.950337969   
     8.27000000        0.358380489        0.457942773        0.193945495E-2     0.950532035   
     8.28000000        0.327166777        0.471995051        0.192371487E-2     0.950724529   
     8.29000000        0.299406649        0.486428548        0.190817155E-2     0.950915470   
     8.30000000        0.274686940        0.500949696        0.189282163E-2     0.951104877   
     8.31000000        0.252637125        0.515349299        0.187766185E-2     0.951292770   
     8.32000000        0.232929239        0.529481376        0.186268901E-2     0.951479166   
     8.33000000        0.215275467        0.543246932        0.184789996E-2     0.951664085   
     8.34000000        0.199424604        0.556581661        0.183329165E-2     0.951847544   
     8.35000000        0.185158122        0.569446679        0.181886107E-2     0.952029562   
     8.36000000        0.172286246        0.581821586        0.180460529E-2     0.952210154   
     8.37000000        0.160644273        0.593699291        0.179052143E-2     0.952389340   
     8.38000000        0.150089223        0.605082158        0.177660666E-2     0.952567134   
     8.39000000        0.140496874        0.615979157        0.176285824E-2     0.952743555   
     8.40000000        0.131759161        0.626403751        0.174927347E-2     0.952918618   
     8.41000000        0.123781925        0.636372346        0.173584969E-2     0.953092339   
     8.42000000        0.116482972        0.645903149        0.172258431E-2     0.953264735   
     8.43000000        0.109790407        0.655015341        0.170947480E-2     0.953435820   
     8.44000000        0.103641215        0.663728482        0.169651867E-2     0.953605610   
     8.45000000        0.979800382E-1     0.672062081        0.168371349E-2     0.953774120   
     8.46000000        0.927581415E-1     0.680035300        0.167105686E-2     0.953941365   
     8.47000000        0.879325212E-1     0.687666747        0.165854645E-2     0.954107359   
     8.48000000        0.834651465E-1     0.694974345        0.164617996E-2     0.954272118   
     8.49000000        0.793223095E-1     0.701975246        0.163395515E-2     0.954435654   
     8.50000000        0.754740679E-1     0.708685788        0.162186981E-2     0.954597981   
     8.51000000        0.718937666E-1     0.715121475        0.160992178E-2     0.954759115   
     8.52000000        0.685576258E-1     0.721296979        0.159810896E-2     0.954919067   
     8.53000000        0.654443868E-1     0.727226155        0.158642925E-2     0.955077852   
     8.54000000        0.625350060E-1     0.732922065        0.157488063E-2     0.955235482   
     8.55000000        0.598123895E-1     0.738397011        0.156346110E-2     0.955391970   
     8.56000000        0.572611641E-1     0.743662565        0.155216870E-2     0.955547329   
     8.57000000        0.548674774E-1     0.748729608        0.154100152E-2     0.955701571   
     8.58000000        0.526188248E-1     0.753608370        0.152995766E-2     0.955854709   
     8.59000000        0.505038974E-1     0.758308461        0.151903529E-2     0.956006755   
     8.60000000        0.485124505E-1     0.762838915        0.150823259E-2     0.956157721   
     8.61000000        0.466351868E-1     0.767208218        0.149754778E-2     0.956307618   
     8.62000000        0.448636558E-1     0.771424351        0.148697911E-2     0.956456459   
     8.63000000        0.431901634E-1     0.775494812        0.147652488E-2     0.956604254   
     8.64000000        0.416076939E-1     0.779426656        0.146618341E-2     0.956751014   
     8.65000000        0.401098401E-1     0.783226518        0.145595305E-2     0.956896752   
     8.66000000        0.386907419E-1     0.786900646        0.144583217E-2     0.957041477   
     8.67000000        0.373450323E-1     0.790454919        0.143581919E-2     0.957185201   
     8.68000000        0.360677883E-1     0.793894878        0.142591256E-2     0.957327935   
     8.69000000        0.348544887E-1     0.797225745        0.141611073E-2     0.957469687   
     8.70000000        0.337009755E-1     0.800452443        0.140641221E-2     0.957610470   
     8.71000000        0.326034199E-1     0.803579619        0.139681553E-2     0.957750293   
     8.72000000        0.315582919E-1     0.806611659        0.138731923E-2     0.957889166   
     8.73000000        0.305623329E-1     0.809552705        0.137792189E-2     0.958027099   
     8.74000000        0.296125313E-1     0.812406673        0.136862211E-2     0.958164102   
     8.75000000        0.287061006E-1     0.815177265        0.135941852E-2     0.958300185   
     8.76000000        0.278404597E-1     0.817867985        0.135030978E-2     0.958435356   
     8.77000000        0.270132153E-1     0.820482148        0.134129455E-2     0.958569625   
     8.78000000        0.262221455E-1     0.823022897        0.133237154E-2     0.958703002   
     8.79000000        0.254651857E-1     0.825493207        0.132353948E-2     0.958835495   
     8.80000000        0.247404154E-1     0.827895903        0.131479710E-2     0.958967114   
     8.81000000        0.240460466E-1     0.830233663        0.130614317E-2     0.959097867   
     8.82000000        0.233804127E-1     0.832509030        0.129757648E-2     0.959227763   
     8.83000000        0.227419591E-1     0.834724420        0.128909584E-2     0.959356811   
     8.84000000        0.221292342E-1     0.836882128        0.128070008E-2     0.959485018   
     8.85000000        0.215408814E-1     0.838984337        0.127238805E-2     0.959612394   
     8.86000000        0.209756320E-1     0.841033124        0.126415862E-2     0.959738947   
     8.87000000        0.204322980E-1     0.843030465        0.125601067E-2     0.959864685   
     8.88000000        0.199097666E-1     0.844978243        0.124794312E-2     0.959989615   
     8.89000000        0.194069942E-1     0.846878252        0.123995489E-2     0.960113746   
     8.90000000        0.189230017E-1     0.848732201        0.123204493E-2     0.960237086   
     8.91000000        0.184568692E-1     0.850541722        0.122421219E-2     0.960359642   
     8.92000000        0.180077325E-1     0.852308371        0.121645566E-2     0.960481422   
     8.93000000        0.175747788E-1     0.854033634        0.120877433E-2     0.960602434   
     8.94000000        0.171572427E-1     0.855718930        0.120116721E-2     0.960722684   
     8.95000000        0.167544037E-1     0.857365614        0.119363335E-2     0.960842181   
     8.96000000        0.163655826E-1     0.858974984        0.118617177E-2     0.960960930   
     8.97000000        0.159901388E-1     0.860548280        0.117878155E-2     0.961078941   
     8.98000000        0.156274676E-1     0.862086688        0.117146176E-2     0.961196219   
     8.99000000        0.152769981E-1     0.863591344        0.116421149E-2     0.961312771   
     9.00000000        0.149381908E-1     0.865063335        0.115702985E-2     0.961428605   
     9.01000000        0.146105355E-1     0.866503705        0.114991596E-2     0.961543727   
     9.02000000        0.142935496E-1     0.867913452        0.114286895E-2     0.961658144   
     9.03000000        0.139867760E-1     0.869293533        0.113588798E-2     0.961771862   
     9.04000000        0.136897821E-1     0.870644868        0.112897220E-2     0.961884889   
     9.05000000        0.134021575E-1     0.871968339        0.112212080E-2     0.961997229   
     9.06000000        0.131235132E-1     0.873264792        0.111533296E-2     0.962108891   
     9.07000000        0.128534802E-1     0.874535040        0.110860789E-2     0.962219879   
     9.08000000        0.125917080E-1     0.875779864        0.110194480E-2     0.962330201   
     9.09000000        0.123378640E-1     0.877000015        0.109534292E-2     0.962439861   
     9.10000000        0.120916317E-1     0.878196215        0.108880149E-2     0.962548868   
     9.11000000        0.118527105E-1     0.879369157        0.108231975E-2     0.962657225   
     9.12000000        0.116208144E-1     0.880519510        0.107589698E-2     0.962764940   
     9.13000000        0.113956711E-1     0.881647916        0.106953245E-2     0.962872018   
     9.14000000        0.111770214E-1     0.882754995        0.106322544E-2     0.962978464   
     9.15000000        0.109646185E-1     0.883841342        0.105697525E-2     0.963084285   
     9.16000000        0.107582269E-1     0.884907532        0.105078119E-2     0.963189487   
     9.17000000        0.105576224E-1     0.885954117        0.104464258E-2     0.963294073   
     9.18000000        0.103625908E-1     0.886981633        0.103855875E-2     0.963398051   
     9.19000000        0.101729280E-1     0.887990592        0.103252903E-2     0.963501426   
     9.20000000        0.998843885E-2     0.888981491        0.102655278E-2     0.963604202   
     9.21000000        0.980893720E-2     0.889954810        0.102062935E-2     0.963706385   
     9.22000000        0.963424505E-2     0.890911011        0.101475812E-2     0.963807981   
     9.23000000        0.946419230E-2     0.891850539        0.100893846E-2     0.963908994   
     9.24000000        0.929861627E-2     0.892773826        0.100316976E-2     0.964009430   
     9.25000000        0.913736135E-2     0.893681288        0.997451415E-3     0.964109294   
     9.26000000        0.898027859E-2     0.894573328        0.991782835E-3     0.964208590   
     9.27000000        0.882722541E-2     0.895450334        0.986163433E-3     0.964307324   
     9.28000000        0.867806527E-2     0.896312684        0.980592632E-3     0.964405500   
     9.29000000        0.853266733E-2     0.897160740        0.975069866E-3     0.964503123   
     9.30000000        0.839090619E-2     0.897994854        0.969594573E-3     0.964600199   
     9.31000000        0.825266164E-2     0.898815366        0.964166204E-3     0.964696731   
     9.32000000        0.811781838E-2     0.899622607        0.958784214E-3     0.964792724   
     9.33000000        0.798626579E-2     0.900416896        0.953448069E-3     0.964888183   
     9.34000000        0.785789769E-2     0.901198541        0.948157241E-3     0.964983113   
     9.35000000        0.773261215E-2     0.901967841        0.942911209E-3     0.965077517   
     9.36000000        0.761031130E-2     0.902725087        0.937709463E-3     0.965171401   
     9.37000000        0.749090108E-2     0.903470559        0.932551497E-3     0.965264768   
     9.38000000        0.737429113E-2     0.904204531        0.927436813E-3     0.965357624   
     9.39000000        0.726039458E-2     0.904927265        0.922364921E-3     0.965449971   
     9.40000000        0.714912789E-2     0.905639018        0.917335337E-3     0.965541816   
     9.41000000        0.704041072E-2     0.906340038        0.912347585E-3     0.965633161   
     9.42000000        0.693416575E-2     0.907030567        0.907401195E-3     0.965724011   
     9.43000000        0.683031859E-2     0.907710838        0.902495705E-3     0.965814369   
     9.44000000        0.672879761E-2     0.908381078        0.897630656E-3     0.965904241   
     9.45000000        0.662953384E-2     0.909041508        0.892805599E-3     0.965993630   
     9.46000000        0.653246082E-2     0.909692342        0.888020091E-3     0.966082540   
     9.47000000        0.643751455E-2     0.910333786        0.883273694E-3     0.966170974   
     9.48000000        0.634463332E-2     0.910966044        0.878565976E-3     0.966258938   
     9.49000000        0.625375766E-2     0.911589312        0.873896511E-3     0.966346433   
     9.50000000        0.616483021E-2     0.912203779        0.869264881E-3     0.966433466   
     9.51000000        0.607779565E-2     0.912809632        0.864670671E-3     0.966520038   
     9.52000000        0.599260061E-2     0.913407051        0.860113473E-3     0.966606154   
     9.53000000        0.590919357E-2     0.913996210        0.855592885E-3     0.966691818   
     9.54000000        0.582752482E-2     0.914577280        0.851108510E-3     0.966777032   
     9.55000000        0.574754636E-2     0.915150427        0.846659956E-3     0.966861801   
     9.56000000        0.566921183E-2     0.915715812        0.842246838E-3     0.966946129   
     9.57000000        0.559247644E-2     0.916273592        0.837868774E-3     0.967030018   
     9.58000000        0.551729693E-2     0.916823920        0.833525388E-3     0.967113472   
     9.59000000        0.544363148E-2     0.917366944        0.829216310E-3     0.967196495   
     9.60000000        0.537143966E-2     0.917902810        0.824941175E-3     0.967279090   
     9.61000000        0.530068240E-2     0.918431658        0.820699621E-3     0.967361261   
     9.62000000        0.523132190E-2     0.918953625        0.816491292E-3     0.967443010   
     9.63000000        0.516332160E-2     0.919468845        0.812315838E-3     0.967524341   
     9.64000000        0.509664613E-2     0.919977449        0.808172912E-3     0.967605257   
     9.65000000        0.503126125E-2     0.920479563        0.804062172E-3     0.967685761   
     9.66000000        0.496713384E-2     0.920975311        0.799983280E-3     0.967765858   
     9.67000000        0.490423181E-2     0.921464815        0.795935905E-3     0.967845549   
     9.68000000        0.484252411E-2     0.921948191        0.791919717E-3     0.967924838   
     9.69000000        0.478198065E-2     0.922425554        0.787934392E-3     0.968003728   
     9.70000000        0.472257230E-2     0.922897016        0.783979611E-3     0.968082222   
     9.71000000        0.466427080E-2     0.923362686        0.780055057E-3     0.968160323   
     9.72000000        0.460704881E-2     0.923822671        0.776160419E-3     0.968238034   
     9.73000000        0.455087979E-2     0.924277074        0.772295389E-3     0.968315359   
     9.74000000        0.449573803E-2     0.924725997        0.768459664E-3     0.968392299   
     9.75000000        0.444159860E-2     0.925169539        0.764652945E-3     0.968468858   
     9.76000000        0.438843732E-2     0.925607795        0.760874935E-3     0.968545039   
     9.77000000        0.433623071E-2     0.926040861        0.757125342E-3     0.968620844   
     9.78000000        0.428495604E-2     0.926468829        0.753403878E-3     0.968696277   
     9.79000000        0.423459121E-2     0.926891788        0.749710259E-3     0.968771340   
     9.80000000        0.418511478E-2     0.927309825        0.746044204E-3     0.968846036   
     9.81000000        0.413650595E-2     0.927723028        0.742405435E-3     0.968920368   
     9.82000000        0.408874453E-2     0.928131479        0.738793679E-3     0.968994338   
     9.83000000        0.404181088E-2     0.928535260        0.735208664E-3     0.969067949   
     9.84000000        0.399568596E-2     0.928934452        0.731650125E-3     0.969141204   
     9.85000000        0.395035126E-2     0.929329132        0.728117798E-3     0.969214105   
     9.86000000        0.390578880E-2     0.929719376        0.724611422E-3     0.969286655   
     9.87000000        0.386198111E-2     0.930105260        0.721130740E-3     0.969358857   
     9.88000000        0.381891121E-2     0.930486857        0.717675498E-3     0.969430712   
     9.89000000        0.377656258E-2     0.930864237        0.714245447E-3     0.969502225   
     9.90000000        0.373491919E-2     0.931237471        0.710840338E-3     0.969573396   
     9.91000000        0.369396542E-2     0.931606627        0.707459926E-3     0.969644229   
     9.92000000        0.365368612E-2     0.931971771        0.704103971E-3     0.969714725   
     9.93000000        0.361406650E-2     0.932332970        0.700772234E-3     0.969784889   
     9.94000000        0.357509223E-2     0.932690286        0.697464479E-3     0.969854721   
     9.95000000        0.353674932E-2     0.933043783        0.694180474E-3     0.969924224   
     9.96000000        0.349902420E-2     0.933393522        0.690919989E-3     0.969993401   
     9.97000000        0.346190362E-2     0.933739562        0.687682796E-3     0.970062253   
     9.98000000        0.342537471E-2     0.934081962        0.684468672E-3     0.970130784   
     9.99000000        0.338942494E-2     0.934420780        0.681277396E-3     0.970198995   
     10.0000000        0.335404210E-2     0.934756072        0.678108747E-3     0.970266889   
# 
# 12/09/2020 at 00:25 yambo @ VivoBook [start]
# 12/09/2020 at 00:25                  [end]
#  
# Timing   [Min/Max/Average]: 08s/08s/08s
#
# .-Input file  yambo.in
# | optics                           # [R] Linear Response optical properties
# | bss                              # [R] BSE solver
# | bse                              # [R][BSE] Bethe Salpeter Equation.
# | tddft                            # [R][K] Use TDDFT kernel
# | ElecTemp= 0.025861         eV    # Electronic Temperature
# | BoseTemp= 0.025861         eV    # Bosonic Temperature
# | FFTGvecs=  9999            RL    # [FFT] Plane-waves
# | BS_nCPU_LinAlg_INV= 1            # [PARALLEL] CPUs for Linear Algebra (if -1 it is automatically set)
# | BS_nCPU_LinAlg_DIAGO= 1          # [PARALLEL] CPUs for Linear Algebra (if -1 it is automatically set)
# | X_Threads= 1                     # [OPENMP/X] Number of threads for response functions
# | DIP_Threads= 1                   # [OPENMP/X] Number of threads for dipoles
# | K_Threads= 1                     # [OPENMP/BSK] Number of threads for response functions
# | BSEmod= "resonant"               # [BSE] resonant/retarded/coupling
# | BSKmod= "ALDA"                   # [BSE] IP/Hartree/HF/ALDA/SEX/BSfxc
# | BSSmod= "hd"                     # [BSS] (h)aydock/(d)iagonalization/(i)nversion/(t)ddft`
# | DipComputed= "R V P"             # [DIP] [default R P V; extra P2 Spin Orb]
# | BSENGexx= 2003             RL    # [BSK] Exchange components
# | BSEprop= "abs kerr dos esrt"     # [BSE] abs/kerr/magn/dichr trace
# | % BSEQptR
# |  1 | 1 |                             # [BSK] Transferred momenta range
# | %
# | % BSEBands
# |  12 | 18 |                           # [BSK] Bands range
# | %
# | % BEnRange
# | -10.00000 | 10.00000 |         eV    # [BSS] Energy range
# | %
# | % BDmRange
# |  0.100000 | 0.100000 |         eV    # [BSS] Damping range
# | %
# | BEnSteps= 2001                   # [BSS] Energy steps
# | % BLongDir
# |  0.100000E-4 |  0.00000    |  0.00000    # [BSS] [cc] Electric Field
# | %
# | #WRbsWF                        # [BSS] Write to disk excitonic the WFs
# | BSHayTrs= 0.100000E-3            # [BSS] Relative [o/o] Haydock threshold. Strict(>0)/Average(<0)
# | BSHayItrMAX= 150                 # [BSS] MaX number of Haydock iterations.
