#                                                                     
#  __  __   ________   ___ __ __    _______   ______                  
# /_/\/_/\ /_______/\ /__//_//_/\ /_______/\ /_____/\                 
# \ \ \ \ \\::: _  \ \\::\| \| \ \\::: _  \ \\:::_ \ \                
#  \:\_\ \ \\::(_)  \ \\:.      \ \\::(_)  \/_\:\ \ \ \               
#   \::::_\/ \:: __  \ \\:.\-/\  \ \\::  _  \ \\:\ \ \ \              
#     \::\ \  \:.\ \  \ \\. \  \  \ \\::(_)  \ \\:\_\ \ \             
#      \__\/   \__\/\__\/ \__\/ \__\/ \_______\/ \_____\/             
#                                                                     
#                                                                     
#       Version 5.0.1 Revision 19034 Hash 9840da05f                   
#                 Branch is devel-magnons                             
#         MPI+OpenMP+SLK+SLEPC+HDF5_MPI_IO Build                      
#                http://www.yambo-code.org                            
#
# Absorption @ Q(1)                 q->0 direction:  0.100000000E-4   0.00000000      0.00000000   
#
# [GEN] GF Energies                               : Perdew, Burke & Ernzerhof(X)+Perdew, Burke & Ernzerhof(C)
# [GEN] Wavefunctions                             : Perdew, Burke & Ernzerhof(X)+Perdew, Burke & Ernzerhof(C)
# [GEN] Green`s Function                          : Retarded
# [GEN] Gauge                                     : Length
# [GEN] [r,Vnl] included                          : yes
#
#
# [K] Identifier                                  :  1521
# [K] Dimension                                   :  22
# [K] Bands                                       :  12  18
# [K] Exchange                                    : yes
# [K] Correlation                                 : no
# [K] Kernel`s coupling                           : yes
# [K] Exchange                                    : yes
# [K] Correlation                                 : no
# [K] W interaction is bare                       : no
# [K] ALDA kernel in R-space                      : yes
# [K] RL vectors                                  :  2003 [exchange]
# [K] E/h energy range                            :  -1.00000000     -1.00000000    [ev]
# [K] Coupling range                              :   100.000000      100.000000    [o/o]
#
#    Diamagnetic term
#    A [nel]            A0[nel]
#:     0.00000000        -28.7880053   
#
#    E/ev[1]            EPS-Im[2]          EPS-Re[3]          EPSo-Im[4]         EPSo-Re[5]
#
    -10.0000000        0.263400506E-4      1.00467639       -0.619323930E-3     0.979107865   
    -9.99000000        0.263697532E-4      1.00467903       -0.622413366E-3     0.979045853   
    -9.98000000        0.263995062E-4      1.00468166       -0.625525268E-3     0.978983532   
    -9.97000000        0.264293095E-4      1.00468431       -0.628659854E-3     0.978920899   
    -9.96000000        0.264591633E-4      1.00468695       -0.631817344E-3     0.978857952   
    -9.95000000        0.264890678E-4      1.00468960       -0.634997964E-3     0.978794689   
    -9.94000000        0.265190230E-4      1.00469225       -0.638201939E-3     0.978731107   
    -9.93000000        0.265490291E-4      1.00469490       -0.641429498E-3     0.978667205   
    -9.92000000        0.265790861E-4      1.00469756       -0.644680875E-3     0.978602980   
    -9.91000000        0.266091942E-4      1.00470022       -0.647956303E-3     0.978538429   
    -9.90000000        0.266393535E-4      1.00470288       -0.651256022E-3     0.978473550   
    -9.89000000        0.266695641E-4      1.00470554       -0.654580271E-3     0.978408340   
    -9.88000000        0.266998262E-4      1.00470821       -0.657929295E-3     0.978342798   
    -9.87000000        0.267301398E-4      1.00471088       -0.661303342E-3     0.978276921   
    -9.86000000        0.267605051E-4      1.00471356       -0.664702660E-3     0.978210705   
    -9.85000000        0.267909221E-4      1.00471624       -0.668127504E-3     0.978144149   
    -9.84000000        0.268213911E-4      1.00471892       -0.671578131E-3     0.978077251   
    -9.83000000        0.268519120E-4      1.00472160       -0.675054799E-3     0.978010007   
    -9.82000000        0.268824851E-4      1.00472429       -0.678557772E-3     0.977942415   
    -9.81000000        0.269131105E-4      1.00472698       -0.682087317E-3     0.977874472   
    -9.80000000        0.269437882E-4      1.00472967       -0.685643703E-3     0.977806175   
    -9.79000000        0.269745185E-4      1.00473236       -0.689227203E-3     0.977737523   
    -9.78000000        0.270053013E-4      1.00473506       -0.692838096E-3     0.977668512   
    -9.77000000        0.270361369E-4      1.00473776       -0.696476660E-3     0.977599139   
    -9.76000000        0.270670254E-4      1.00474047       -0.700143181E-3     0.977529402   
    -9.75000000        0.270979668E-4      1.00474318       -0.703837945E-3     0.977459298   
    -9.74000000        0.271289613E-4      1.00474589       -0.707561244E-3     0.977388824   
    -9.73000000        0.271600090E-4      1.00474860       -0.711313375E-3     0.977317977   
    -9.72000000        0.271911101E-4      1.00475132       -0.715094635E-3     0.977246755   
    -9.71000000        0.272222647E-4      1.00475404       -0.718905327E-3     0.977175154   
    -9.70000000        0.272534728E-4      1.00475676       -0.722745760E-3     0.977103171   
    -9.69000000        0.272847346E-4      1.00475949       -0.726616244E-3     0.977030804   
    -9.68000000        0.273160503E-4      1.00476222       -0.730517094E-3     0.976958049   
    -9.67000000        0.273474199E-4      1.00476495       -0.734448629E-3     0.976884904   
    -9.66000000        0.273788437E-4      1.00476769       -0.738411174E-3     0.976811365   
    -9.65000000        0.274103216E-4      1.00477043       -0.742405056E-3     0.976737430   
    -9.64000000        0.274418538E-4      1.00477317       -0.746430608E-3     0.976663095   
    -9.63000000        0.274734405E-4      1.00477592       -0.750488166E-3     0.976588356   
    -9.62000000        0.275050818E-4      1.00477867       -0.754578072E-3     0.976513212   
    -9.61000000        0.275367778E-4      1.00478142       -0.758700672E-3     0.976437658   
    -9.60000000        0.275685286E-4      1.00478417       -0.762856316E-3     0.976361691   
    -9.59000000        0.276003344E-4      1.00478693       -0.767045360E-3     0.976285308   
    -9.58000000        0.276321952E-4      1.00478969       -0.771268164E-3     0.976208506   
    -9.57000000        0.276641113E-4      1.00479246       -0.775525093E-3     0.976131281   
    -9.56000000        0.276960827E-4      1.00479523       -0.779816518E-3     0.976053630   
    -9.55000000        0.277281096E-4      1.00479800       -0.784142812E-3     0.975975550   
    -9.54000000        0.277601921E-4      1.00480077       -0.788504358E-3     0.975897036   
    -9.53000000        0.277923303E-4      1.00480355       -0.792901540E-3     0.975818085   
    -9.52000000        0.278245244E-4      1.00480633       -0.797334750E-3     0.975738695   
    -9.51000000        0.278567744E-4      1.00480911       -0.801804384E-3     0.975658860   
    -9.50000000        0.278890806E-4      1.00481190       -0.806310843E-3     0.975578578   
    -9.49000000        0.279214430E-4      1.00481469       -0.810854536E-3     0.975497845   
    -9.48000000        0.279538618E-4      1.00481748       -0.815435875E-3     0.975416657   
    -9.47000000        0.279863371E-4      1.00482028       -0.820055280E-3     0.975335011   
    -9.46000000        0.280188690E-4      1.00482308       -0.824713175E-3     0.975252902   
    -9.45000000        0.280514577E-4      1.00482588       -0.829409992E-3     0.975170327   
    -9.44000000        0.280841034E-4      1.00482869       -0.834146167E-3     0.975087281   
    -9.43000000        0.281168060E-4      1.00483150       -0.838922145E-3     0.975003762   
    -9.42000000        0.281495658E-4      1.00483431       -0.843738373E-3     0.974919764   
    -9.41000000        0.281823829E-4      1.00483713       -0.848595309E-3     0.974835284   
    -9.40000000        0.282152575E-4      1.00483995       -0.853493416E-3     0.974750319   
    -9.39000000        0.282481896E-4      1.00484277       -0.858433161E-3     0.974664862   
    -9.38000000        0.282811794E-4      1.00484560       -0.863415022E-3     0.974578912   
    -9.37000000        0.283142271E-4      1.00484843       -0.868439481E-3     0.974492462   
    -9.36000000        0.283473327E-4      1.00485126       -0.873507028E-3     0.974405510   
    -9.35000000        0.283804964E-4      1.00485410       -0.878618160E-3     0.974318050   
    -9.34000000        0.284137184E-4      1.00485694       -0.883773382E-3     0.974230079   
    -9.33000000        0.284469988E-4      1.00485978       -0.888973205E-3     0.974141592   
    -9.32000000        0.284803377E-4      1.00486263       -0.894218149E-3     0.974052584   
    -9.31000000        0.285137352E-4      1.00486548       -0.899508739E-3     0.973963051   
    -9.30000000        0.285471916E-4      1.00486833       -0.904845512E-3     0.973872989   
    -9.29000000        0.285807068E-4      1.00487118       -0.910229009E-3     0.973782392   
    -9.28000000        0.286142812E-4      1.00487404       -0.915659782E-3     0.973691257   
    -9.27000000        0.286479147E-4      1.00487691       -0.921138389E-3     0.973599578   
    -9.26000000        0.286816076E-4      1.00487977       -0.926665398E-3     0.973507351   
    -9.25000000        0.287153600E-4      1.00488264       -0.932241384E-3     0.973414570   
    -9.24000000        0.287491721E-4      1.00488552       -0.937866932E-3     0.973321232   
    -9.23000000        0.287830439E-4      1.00488839       -0.943542636E-3     0.973227330   
    -9.22000000        0.288169756E-4      1.00489127       -0.949269097E-3     0.973132860   
    -9.21000000        0.288509673E-4      1.00489416       -0.955046927E-3     0.973037817   
    -9.20000000        0.288850193E-4      1.00489704       -0.960876748E-3     0.972942196   
    -9.19000000        0.289191315E-4      1.00489993       -0.966759190E-3     0.972845992   
    -9.18000000        0.289533043E-4      1.00490283       -0.972694892E-3     0.972749198   
    -9.17000000        0.289875377E-4      1.00490572       -0.978684505E-3     0.972651811   
    -9.16000000        0.290218319E-4      1.00490862       -0.984728688E-3     0.972553824   
    -9.15000000        0.290561869E-4      1.00491153       -0.990828113E-3     0.972455232   
    -9.14000000        0.290906030E-4      1.00491443       -0.996983460E-3     0.972356030   
    -9.13000000        0.291250803E-4      1.00491734       -0.100319542E-2     0.972256211   
    -9.12000000        0.291596190E-4      1.00492026       -0.100946470E-2     0.972155771   
    -9.11000000        0.291942191E-4      1.00492318       -0.101579200E-2     0.972054704   
    -9.10000000        0.292288809E-4      1.00492610       -0.102217806E-2     0.971953003   
    -9.09000000        0.292636045E-4      1.00492902       -0.102862360E-2     0.971850663   
    -9.08000000        0.292983900E-4      1.00493195       -0.103512939E-2     0.971747678   
    -9.07000000        0.293332376E-4      1.00493488       -0.104169617E-2     0.971644042   
    -9.06000000        0.293681474E-4      1.00493782       -0.104832472E-2     0.971539749   
    -9.05000000        0.294031195E-4      1.00494075       -0.105501582E-2     0.971434793   
    -9.04000000        0.294381542E-4      1.00494370       -0.106177028E-2     0.971329167   
    -9.03000000        0.294732516E-4      1.00494664       -0.106858889E-2     0.971222865   
    -9.02000000        0.295084118E-4      1.00494959       -0.107547248E-2     0.971115881   
    -9.01000000        0.295436349E-4      1.00495254       -0.108242190E-2     0.971008208   
    -9.00000000        0.295789212E-4      1.00495550       -0.108943798E-2     0.970899839   
    -8.99000000        0.296142707E-4      1.00495846       -0.109652160E-2     0.970790769   
    -8.98000000        0.296496837E-4      1.00496142       -0.110367362E-2     0.970680990   
    -8.97000000        0.296851602E-4      1.00496439       -0.111089495E-2     0.970570495   
    -8.96000000        0.297207005E-4      1.00496736       -0.111818649E-2     0.970459277   
    -8.95000000        0.297563046E-4      1.00497033       -0.112554917E-2     0.970347330   
    -8.94000000        0.297919728E-4      1.00497331       -0.113298391E-2     0.970234646   
    -8.93000000        0.298277052E-4      1.00497629       -0.114049168E-2     0.970121218   
    -8.92000000        0.298635019E-4      1.00497927       -0.114807345E-2     0.970007039   
    -8.91000000        0.298993631E-4      1.00498226       -0.115573020E-2     0.969892102   
    -8.90000000        0.299352890E-4      1.00498525       -0.116346293E-2     0.969776398   
    -8.89000000        0.299712796E-4      1.00498825       -0.117127266E-2     0.969659921   
    -8.88000000        0.300073353E-4      1.00499125       -0.117916044E-2     0.969542662   
    -8.87000000        0.300434560E-4      1.00499425       -0.118712731E-2     0.969424614   
    -8.86000000        0.300796420E-4      1.00499725       -0.119517435E-2     0.969305769   
    -8.85000000        0.301158935E-4      1.00500026       -0.120330265E-2     0.969186119   
    -8.84000000        0.301522105E-4      1.00500328       -0.121151332E-2     0.969065656   
    -8.83000000        0.301885933E-4      1.00500629       -0.121980750E-2     0.968944371   
    -8.82000000        0.302250420E-4      1.00500931       -0.122818632E-2     0.968822257   
    -8.81000000        0.302615568E-4      1.00501234       -0.123665096E-2     0.968699304   
    -8.80000000        0.302981378E-4      1.00501537       -0.124520262E-2     0.968575505   
    -8.79000000        0.303347852E-4      1.00501840       -0.125384249E-2     0.968450850   
    -8.78000000        0.303714991E-4      1.00502143       -0.126257182E-2     0.968325331   
    -8.77000000        0.304082797E-4      1.00502447       -0.127139186E-2     0.968198938   
    -8.76000000        0.304451272E-4      1.00502751       -0.128030388E-2     0.968071663   
    -8.75000000        0.304820418E-4      1.00503056       -0.128930919E-2     0.967943497   
    -8.74000000        0.305190235E-4      1.00503361       -0.129840911E-2     0.967814430   
    -8.73000000        0.305560726E-4      1.00503666       -0.130760499E-2     0.967684453   
    -8.72000000        0.305931893E-4      1.00503972       -0.131689819E-2     0.967553556   
    -8.71000000        0.306303736E-4      1.00504278       -0.132629012E-2     0.967421729   
    -8.70000000        0.306676257E-4      1.00504585       -0.133578219E-2     0.967288963   
    -8.69000000        0.307049459E-4      1.00504891       -0.134537586E-2     0.967155248   
    -8.68000000        0.307423343E-4      1.00505199       -0.135507260E-2     0.967020573   
    -8.67000000        0.307797910E-4      1.00505506       -0.136487391E-2     0.966884928   
    -8.66000000        0.308173163E-4      1.00505814       -0.137478132E-2     0.966748303   
    -8.65000000        0.308549102E-4      1.00506123       -0.138479639E-2     0.966610688   
    -8.64000000        0.308925729E-4      1.00506431       -0.139492070E-2     0.966472070   
    -8.63000000        0.309303047E-4      1.00506740       -0.140515588E-2     0.966332440   
    -8.62000000        0.309681057E-4      1.00507050       -0.141550358E-2     0.966191787   
    -8.61000000        0.310059760E-4      1.00507360       -0.142596546E-2     0.966050098   
    -8.60000000        0.310439159E-4      1.00507670       -0.143654325E-2     0.965907364   
    -8.59000000        0.310819255E-4      1.00507981       -0.144723869E-2     0.965763572   
    -8.58000000        0.311200049E-4      1.00508292       -0.145805355E-2     0.965618710   
    -8.57000000        0.311581544E-4      1.00508603       -0.146898964E-2     0.965472767   
    -8.56000000        0.311963741E-4      1.00508915       -0.148004882E-2     0.965325730   
    -8.55000000        0.312346641E-4      1.00509227       -0.149123296E-2     0.965177588   
    -8.54000000        0.312730248E-4      1.00509539       -0.150254398E-2     0.965028327   
    -8.53000000        0.313114561E-4      1.00509852       -0.151398385E-2     0.964877935   
    -8.52000000        0.313499584E-4      1.00510165       -0.152555455E-2     0.964726400   
    -8.51000000        0.313885317E-4      1.00510479       -0.153725812E-2     0.964573707   
    -8.50000000        0.314271763E-4      1.00510793       -0.154909663E-2     0.964419845   
    -8.49000000        0.314658924E-4      1.00511108       -0.156107220E-2     0.964264799   
    -8.48000000        0.315046800E-4      1.00511422       -0.157318700E-2     0.964108556   
    -8.47000000        0.315435394E-4      1.00511738       -0.158544322E-2     0.963951102   
    -8.46000000        0.315824708E-4      1.00512053       -0.159784310E-2     0.963792423   
    -8.45000000        0.316214743E-4      1.00512369       -0.161038895E-2     0.963632504   
    -8.44000000        0.316605501E-4      1.00512686       -0.162308309E-2     0.963471331   
    -8.43000000        0.316996985E-4      1.00513002       -0.163592792E-2     0.963308889   
    -8.42000000        0.317389195E-4      1.00513320       -0.164892587E-2     0.963145163   
    -8.41000000        0.317782134E-4      1.00513637       -0.166207943E-2     0.962980138   
    -8.40000000        0.318175803E-4      1.00513955       -0.167539113E-2     0.962813799   
    -8.39000000        0.318570204E-4      1.00514273       -0.168886357E-2     0.962646129   
    -8.38000000        0.318965339E-4      1.00514592       -0.170249939E-2     0.962477112   
    -8.37000000        0.319361210E-4      1.00514911       -0.171630129E-2     0.962306733   
    -8.36000000        0.319757819E-4      1.00515231       -0.173027203E-2     0.962134975   
    -8.35000000        0.320155167E-4      1.00515551       -0.174441442E-2     0.961961820   
    -8.34000000        0.320553256E-4      1.00515871       -0.175873134E-2     0.961787252   
    -8.33000000        0.320952089E-4      1.00516192       -0.177322572E-2     0.961611254   
    -8.32000000        0.321351666E-4      1.00516513       -0.178790058E-2     0.961433807   
    -8.31000000        0.321751991E-4      1.00516835       -0.180275896E-2     0.961254894   
    -8.30000000        0.322153064E-4      1.00517156       -0.181780401E-2     0.961074497   
    -8.29000000        0.322554888E-4      1.00517479       -0.183303893E-2     0.960892596   
    -8.28000000        0.322957464E-4      1.00517802       -0.184846699E-2     0.960709173   
    -8.27000000        0.323360795E-4      1.00518125       -0.186409152E-2     0.960524209   
    -8.26000000        0.323764882E-4      1.00518448       -0.187991596E-2     0.960337684   
    -8.25000000        0.324169727E-4      1.00518772       -0.189594378E-2     0.960149579   
    -8.24000000        0.324575332E-4      1.00519096       -0.191217857E-2     0.959959872   
    -8.23000000        0.324981699E-4      1.00519421       -0.192862397E-2     0.959768544   
    -8.22000000        0.325388830E-4      1.00519746       -0.194528371E-2     0.959575573   
    -8.21000000        0.325796726E-4      1.00520072       -0.196216163E-2     0.959380938   
    -8.20000000        0.326205391E-4      1.00520398       -0.197926162E-2     0.959184618   
    -8.19000000        0.326614825E-4      1.00520724       -0.199658768E-2     0.958986590   
    -8.18000000        0.327025030E-4      1.00521051       -0.201414390E-2     0.958786831   
    -8.17000000        0.327436009E-4      1.00521378       -0.203193446E-2     0.958585320   
    -8.16000000        0.327847764E-4      1.00521706       -0.204996365E-2     0.958382032   
    -8.15000000        0.328260296E-4      1.00522034       -0.206823583E-2     0.958176944   
    -8.14000000        0.328673607E-4      1.00522362       -0.208675551E-2     0.957970031   
    -8.13000000        0.329087699E-4      1.00522691       -0.210552727E-2     0.957761270   
    -8.12000000        0.329502575E-4      1.00523021       -0.212455581E-2     0.957550634   
    -8.11000000        0.329918236E-4      1.00523350       -0.214384594E-2     0.957338099   
    -8.10000000        0.330334685E-4      1.00523680       -0.216340259E-2     0.957123638   
    -8.09000000        0.330751922E-4      1.00524011       -0.218323081E-2     0.956907225   
    -8.08000000        0.331169951E-4      1.00524342       -0.220333577E-2     0.956688834   
    -8.07000000        0.331588773E-4      1.00524673       -0.222372276E-2     0.956468435   
    -8.06000000        0.332008390E-4      1.00525005       -0.224439723E-2     0.956246002   
    -8.05000000        0.332428805E-4      1.00525337       -0.226536472E-2     0.956021506   
    -8.04000000        0.332850019E-4      1.00525670       -0.228663094E-2     0.955794917   
    -8.03000000        0.333272034E-4      1.00526003       -0.230820174E-2     0.955566207   
    -8.02000000        0.333694852E-4      1.00526336       -0.233008310E-2     0.955335344   
    -8.01000000        0.334118476E-4      1.00526670       -0.235228117E-2     0.955102298   
    -8.00000000        0.334542908E-4      1.00527004       -0.237480225E-2     0.954867038   
    -7.99000000        0.334968148E-4      1.00527339       -0.239765280E-2     0.954629531   
    -7.98000000        0.335394201E-4      1.00527674       -0.242083945E-2     0.954389744   
    -7.97000000        0.335821067E-4      1.00528010       -0.244436899E-2     0.954147645   
    -7.96000000        0.336248748E-4      1.00528346       -0.246824842E-2     0.953903200   
    -7.95000000        0.336677248E-4      1.00528682       -0.249248489E-2     0.953656373   
    -7.94000000        0.337106567E-4      1.00529019       -0.251708575E-2     0.953407129   
    -7.93000000        0.337536708E-4      1.00529356       -0.254205855E-2     0.953155432   
    -7.92000000        0.337967674E-4      1.00529694       -0.256741104E-2     0.952901245   
    -7.91000000        0.338399465E-4      1.00530032       -0.259315118E-2     0.952644531   
    -7.90000000        0.338832085E-4      1.00530371       -0.261928715E-2     0.952385251   
    -7.89000000        0.339265535E-4      1.00530710       -0.264582734E-2     0.952123365   
    -7.88000000        0.339699818E-4      1.00531049       -0.267278038E-2     0.951858835   
    -7.87000000        0.340134935E-4      1.00531389       -0.270015515E-2     0.951591618   
    -7.86000000        0.340570889E-4      1.00531730       -0.272796077E-2     0.951321674   
    -7.85000000        0.341007682E-4      1.00532070       -0.275620660E-2     0.951048958   
    -7.84000000        0.341445316E-4      1.00532412       -0.278490228E-2     0.950773429   
    -7.83000000        0.341883794E-4      1.00532753       -0.281405774E-2     0.950495041   
    -7.82000000        0.342323116E-4      1.00533095       -0.284368317E-2     0.950213748   
    -7.81000000        0.342763287E-4      1.00533438       -0.287378906E-2     0.949929505   
    -7.80000000        0.343204307E-4      1.00533781       -0.290438622E-2     0.949642264   
    -7.79000000        0.343646179E-4      1.00534124       -0.293548577E-2     0.949351975   
    -7.78000000        0.344088906E-4      1.00534468       -0.296709915E-2     0.949058591   
    -7.77000000        0.344532488E-4      1.00534812       -0.299923815E-2     0.948762059   
    -7.76000000        0.344976930E-4      1.00535157       -0.303191493E-2     0.948462327   
    -7.75000000        0.345422232E-4      1.00535502       -0.306514200E-2     0.948159343   
    -7.74000000        0.345868397E-4      1.00535848       -0.309893225E-2     0.947853053   
    -7.73000000        0.346315428E-4      1.00536194       -0.313329898E-2     0.947543400   
    -7.72000000        0.346763325E-4      1.00536540       -0.316825591E-2     0.947230328   
    -7.71000000        0.347212093E-4      1.00536887       -0.320381718E-2     0.946913778   
    -7.70000000        0.347661733E-4      1.00537235       -0.323999738E-2     0.946593692   
    -7.69000000        0.348112247E-4      1.00537583       -0.327681157E-2     0.946270007   
    -7.68000000        0.348563637E-4      1.00537931       -0.331427530E-2     0.945942661   
    -7.67000000        0.349015907E-4      1.00538280       -0.335240463E-2     0.945611591   
    -7.66000000        0.349469057E-4      1.00538629       -0.339121614E-2     0.945276731   
    -7.65000000        0.349923091E-4      1.00538978       -0.343072698E-2     0.944938014   
    -7.64000000        0.350378010E-4      1.00539329       -0.347095487E-2     0.944595370   
    -7.63000000        0.350833818E-4      1.00539679       -0.351191813E-2     0.944248730   
    -7.62000000        0.351290515E-4      1.00540030       -0.355363571E-2     0.943898021   
    -7.61000000        0.351748106E-4      1.00540382       -0.359612724E-2     0.943543169   
    -7.60000000        0.352206591E-4      1.00540734       -0.363941304E-2     0.943184098   
    -7.59000000        0.352665974E-4      1.00541086       -0.368351414E-2     0.942820730   
    -7.58000000        0.353126256E-4      1.00541439       -0.372845236E-2     0.942452985   
    -7.57000000        0.353587440E-4      1.00541792       -0.377425030E-2     0.942080782   
    -7.56000000        0.354049529E-4      1.00542146       -0.382093141E-2     0.941704036   
    -7.55000000        0.354512524E-4      1.00542500       -0.386852003E-2     0.941322660   
    -7.54000000        0.354976429E-4      1.00542855       -0.391704146E-2     0.940936566   
    -7.53000000        0.355441244E-4      1.00543210       -0.396652194E-2     0.940545663   
    -7.52000000        0.355906974E-4      1.00543566       -0.401698879E-2     0.940149857   
    -7.51000000        0.356373620E-4      1.00543922       -0.406847044E-2     0.939749052   
    -7.50000000        0.356841185E-4      1.00544279       -0.412099646E-2     0.939343150   
    -7.49000000        0.357309670E-4      1.00544636       -0.417459769E-2     0.938932048   
    -7.48000000        0.357779079E-4      1.00544993       -0.422930627E-2     0.938515644   
    -7.47000000        0.358249415E-4      1.00545351       -0.428515576E-2     0.938093828   
    -7.46000000        0.358720678E-4      1.00545710       -0.434218122E-2     0.937666492   
    -7.45000000        0.359192872E-4      1.00546068       -0.440041932E-2     0.937233520   
    -7.44000000        0.359666000E-4      1.00546428       -0.445990842E-2     0.936794798   
    -7.43000000        0.360140063E-4      1.00546788       -0.452068876E-2     0.936350203   
    -7.42000000        0.360615065E-4      1.00547148       -0.458280254E-2     0.935899613   
    -7.41000000        0.361091007E-4      1.00547509       -0.464629412E-2     0.935442900   
    -7.40000000        0.361567892E-4      1.00547870       -0.471121017E-2     0.934979933   
    -7.39000000        0.362045723E-4      1.00548232       -0.477759989E-2     0.934510577   
    -7.38000000        0.362524502E-4      1.00548594       -0.484551519E-2     0.934034692   
    -7.37000000        0.363004232E-4      1.00548957       -0.491501098E-2     0.933552134   
    -7.36000000        0.363484915E-4      1.00549320       -0.498614546E-2     0.933062757   
    -7.35000000        0.363966554E-4      1.00549684       -0.505898041E-2     0.932566407   
    -7.34000000        0.364449151E-4      1.00550048       -0.513358156E-2     0.932062928   
    -7.33000000        0.364932708E-4      1.00550413       -0.521001906E-2     0.931552158   
    -7.32000000        0.365417229E-4      1.00550778       -0.528836789E-2     0.931033930   
    -7.31000000        0.365902716E-4      1.00551143       -0.536870849E-2     0.930508073   
    -7.30000000        0.366389172E-4      1.00551510       -0.545112735E-2     0.929974412   
    -7.29000000        0.366876599E-4      1.00551876       -0.553571775E-2     0.929432764   
    -7.28000000        0.367364999E-4      1.00552243       -0.562258066E-2     0.928882946   
    -7.27000000        0.367854375E-4      1.00552611       -0.571182565E-2     0.928324765   
    -7.26000000        0.368344730E-4      1.00552979       -0.580357208E-2     0.927758030   
    -7.25000000        0.368836067E-4      1.00553347       -0.589795033E-2     0.927182542   
    -7.24000000        0.369328388E-4      1.00553717       -0.599510333E-2     0.926598103   
    -7.23000000        0.369821696E-4      1.00554086       -0.609518814E-2     0.926004511   
    -7.22000000        0.370315993E-4      1.00554456       -0.619837780E-2     0.925401569   
    -7.21000000        0.370811281E-4      1.00554827       -0.630486325E-2     0.924789081   
    -7.20000000        0.371307565E-4      1.00555198       -0.641485527E-2     0.924166859   
    -7.19000000        0.371804846E-4      1.00555569       -0.652858632E-2     0.923534728   
    -7.18000000        0.372303127E-4      1.00555941       -0.664631193E-2     0.922892532   
    -7.17000000        0.372802410E-4      1.00556314       -0.676831106E-2     0.922240144   
    -7.16000000        0.373302699E-4      1.00556687       -0.689488477E-2     0.921577475   
    -7.15000000        0.373803996E-4      1.00557060       -0.702635181E-2     0.920904489   
    -7.14000000        0.374306304E-4      1.00557434       -0.716303923E-2     0.920221223   
    -7.13000000        0.374809626E-4      1.00557809       -0.730526549E-2     0.919527804   
    -7.12000000        0.375313963E-4      1.00558184       -0.745331247E-2     0.918824470   
    -7.11000000        0.375819320E-4      1.00558559       -0.760738254E-2     0.918111589   
    -7.10000000        0.376325698E-4      1.00558935       -0.776753723E-2     0.917389661   
    -7.09000000        0.376833101E-4      1.00559312       -0.793361682E-2     0.916659310   
    -7.08000000        0.377341531E-4      1.00559689       -0.810514702E-2     0.915921220   
    -7.07000000        0.377850991E-4      1.00560067       -0.828125033E-2     0.915176031   
    -7.06000000        0.378361484E-4      1.00560445       -0.846059499E-2     0.914424164   
    -7.05000000        0.378873012E-4      1.00560823       -0.864142611E-2     0.913665594   
    -7.04000000        0.379385579E-4      1.00561202       -0.882171993E-2     0.912899620   
    -7.03000000        0.379899187E-4      1.00561582       -0.899947178E-2     0.912124699   
    -7.02000000        0.380413840E-4      1.00561962       -0.917307397E-2     0.911338448   
    -7.01000000        0.380929539E-4      1.00562343       -0.934168518E-2     0.910537829   
    -7.00000000        0.381446287E-4      1.00562724       -0.950547004E-2     0.909719534   
    -6.99000000        0.381964089E-4      1.00563105       -0.966561882E-2     0.908880436   
    -6.98000000        0.382482946E-4      1.00563488       -0.982413482E-2     0.908017998   
    -6.97000000        0.383002861E-4      1.00563870       -0.998346609E-2     0.907130497   
    -6.96000000        0.383523837E-4      1.00564254       -0.101461100E-1     0.906217037   
    -6.95000000        0.384045877E-4      1.00564637       -0.103143057E-1     0.905277390   
    -6.94000000        0.384568985E-4      1.00565022       -0.104898687E-1     0.904311750   
    -6.93000000        0.385093162E-4      1.00565406       -0.106741576E-1     0.903320502   
    -6.92000000        0.385618412E-4      1.00565792       -0.108681291E-1     0.902304039   
    -6.91000000        0.386144738E-4      1.00566178       -0.110724315E-1     0.901262643   
    -6.90000000        0.386672143E-4      1.00566564       -0.112875032E-1     0.900196434   
    -6.89000000        0.387200629E-4      1.00566951       -0.115136569E-1     0.899105349   
    -6.88000000        0.387730199E-4      1.00567338       -0.117511442E-1     0.897989149   
    -6.87000000        0.388260858E-4      1.00567726       -0.120002009E-1     0.896847439   
    -6.86000000        0.388792607E-4      1.00568115       -0.122610783E-1     0.895679678   
    -6.85000000        0.389325449E-4      1.00568504       -0.125340619E-1     0.894485210   
    -6.84000000        0.389859388E-4      1.00568893       -0.128194840E-1     0.893263267   
    -6.83000000        0.390394427E-4      1.00569283       -0.131177308E-1     0.892012992   
    -6.82000000        0.390930568E-4      1.00569674       -0.134292469E-1     0.890733440   
    -6.81000000        0.391467814E-4      1.00570065       -0.137545384E-1     0.889423589   
    -6.80000000        0.392006170E-4      1.00570457       -0.140941751E-1     0.888082343   
    -6.79000000        0.392545637E-4      1.00570849       -0.144487928E-1     0.886708532   
    -6.78000000        0.393086219E-4      1.00571242       -0.148190958E-1     0.885300914   
    -6.77000000        0.393627919E-4      1.00571635       -0.152058598E-1     0.883858176   
    -6.76000000        0.394170739E-4      1.00572029       -0.156099356E-1     0.882378927   
    -6.75000000        0.394714684E-4      1.00572423       -0.160322531E-1     0.880861700   
    -6.74000000        0.395259756E-4      1.00572818       -0.164738268E-1     0.879304948   
    -6.73000000        0.395805958E-4      1.00573214       -0.169357612E-1     0.877707036   
    -6.72000000        0.396353293E-4      1.00573610       -0.174192581E-1     0.876066239   
    -6.71000000        0.396901765E-4      1.00574007       -0.179256241E-1     0.874380738   
    -6.70000000        0.397451377E-4      1.00574404       -0.184562799E-1     0.872648612   
    -6.69000000        0.398002131E-4      1.00574801       -0.190127707E-1     0.870867829   
    -6.68000000        0.398554032E-4      1.00575200       -0.195967772E-1     0.869036245   
    -6.67000000        0.399107081E-4      1.00575598       -0.202101295E-1     0.867151591   
    -6.66000000        0.399661284E-4      1.00575998       -0.208548213E-1     0.865211468   
    -6.65000000        0.400216641E-4      1.00576398       -0.215330272E-1     0.863213334   
    -6.64000000        0.400773158E-4      1.00576798       -0.222471215E-1     0.861154501   
    -6.63000000        0.401330836E-4      1.00577199       -0.229996998E-1     0.859032117   
    -6.62000000        0.401889680E-4      1.00577601       -0.237936032E-1     0.856843163   
    -6.61000000        0.402449692E-4      1.00578003       -0.246319463E-1     0.854584434   
    -6.60000000        0.403010876E-4      1.00578406       -0.255181480E-1     0.852252534   
    -6.59000000        0.403573235E-4      1.00578809       -0.264559678E-1     0.849843857   
    -6.58000000        0.404136773E-4      1.00579213       -0.274495461E-1     0.847354579   
    -6.57000000        0.404701492E-4      1.00579617       -0.285034509E-1     0.844780641   
    -6.56000000        0.405267396E-4      1.00580022       -0.296227304E-1     0.842117735   
    -6.55000000        0.405834488E-4      1.00580427       -0.308129748E-1     0.839361292   
    -6.54000000        0.406402772E-4      1.00580834       -0.320803850E-1     0.836506467   
    -6.53000000        0.406972251E-4      1.00581240       -0.334318540E-1     0.833548127   
    -6.52000000        0.407542928E-4      1.00581647       -0.348750590E-1     0.830480838   
    -6.51000000        0.408114807E-4      1.00582055       -0.364185688E-1     0.827298856   
    -6.50000000        0.408687891E-4      1.00582464       -0.380719674E-1     0.823996122   
    -6.49000000        0.409262183E-4      1.00582872       -0.398459981E-1     0.820566259   
    -6.48000000        0.409837687E-4      1.00583282       -0.417527305E-1     0.817002579   
    -6.47000000        0.410414406E-4      1.00583692       -0.438057546E-1     0.813298097   
    -6.46000000        0.410992344E-4      1.00584103       -0.460204080E-1     0.809445563   
    -6.45000000        0.411571504E-4      1.00584514       -0.484140400E-1     0.805437506   
    -6.44000000        0.412151890E-4      1.00584926       -0.510063211E-1     0.801266308   
    -6.43000000        0.412733504E-4      1.00585338       -0.538196043E-1     0.796924309   
    -6.42000000        0.413316352E-4      1.00585751       -0.568793481E-1     0.792403961   
    -6.41000000        0.413900435E-4      1.00586165       -0.602146102E-1     0.787698043   
    -6.40000000        0.414485757E-4      1.00586579       -0.638586238E-1     0.782799956   
    -6.39000000        0.415072323E-4      1.00586994       -0.678494674E-1     0.777704131   
    -6.38000000        0.415660135E-4      1.00587409       -0.722308407E-1     0.772406591   
    -6.37000000        0.416249197E-4      1.00587825       -0.770529545E-1     0.766905712   
    -6.36000000        0.416839512E-4      1.00588241       -0.823735426E-1     0.761203245   
    -6.35000000        0.417431085E-4      1.00588658       -0.882589898E-1     0.755305713   
    -6.34000000        0.418023919E-4      1.00589076       -0.947855588E-1     0.749226270   
    -6.33000000        0.418618017E-4      1.00589494       -0.102040667        0.742987205   
    -6.32000000        0.419213382E-4      1.00589913       -0.110124119        0.736623274   
    -6.31000000        0.419810020E-4      1.00590333       -0.119149123        0.730186119   
    -6.30000000        0.420407932E-4      1.00590753       -0.129242804        0.723750060   
    -6.29000000        0.421007123E-4      1.00591174       -0.140545721        0.717419622   
    -6.28000000        0.421607597E-4      1.00591595       -0.153209645        0.711339098   
    -6.27000000        0.422209357E-4      1.00592017       -0.167392436        0.705704397   
    -6.26000000        0.422812406E-4      1.00592439       -0.183248316        0.700777057   
    -6.25000000        0.423416749E-4      1.00592862       -0.200911218        0.696899684   
    -6.24000000        0.424022389E-4      1.00593286       -0.220468256        0.694510730   
    -6.23000000        0.424629330E-4      1.00593710       -0.241920179        0.694154373   
    -6.22000000        0.425237576E-4      1.00594135       -0.265126617        0.696478012   
    -6.21000000        0.425847130E-4      1.00594561       -0.289737371        0.702205932   
    -6.20000000        0.426457996E-4      1.00594987       -0.315118428        0.712074552   
    -6.19000000        0.427070178E-4      1.00595413       -0.340293694        0.726716161   
    -6.18000000        0.427683680E-4      1.00595841       -0.363938017        0.746489667   
    -6.17000000        0.428298505E-4      1.00596269       -0.384464858        0.771283449   
    -6.16000000        0.428914658E-4      1.00596697       -0.400237408        0.800352241   
    -6.15000000        0.429532141E-4      1.00597126       -0.409883670        0.832275400   
    -6.14000000        0.430150960E-4      1.00597556       -0.412627124        0.865104833   
    -6.13000000        0.430771117E-4      1.00597987       -0.408501592        0.896693683   
    -6.12000000        0.431392617E-4      1.00598418       -0.398350435        0.925099647   
    -6.11000000        0.432015464E-4      1.00598849       -0.383610766        0.948912182   
    -6.10000000        0.432639661E-4      1.00599282       -0.365983453        0.967398458   
    -6.09000000        0.433265212E-4      1.00599714       -0.347120157        0.980460379   
    -6.08000000        0.433892122E-4      1.00600148       -0.328415044        0.988471562   
    -6.07000000        0.434520393E-4      1.00600582       -0.310919883        0.992081631   
    -6.06000000        0.435150031E-4      1.00601017       -0.295353366        0.992049433   
    -6.05000000        0.435781039E-4      1.00601452       -0.282161248        0.989130004   
    -6.04000000        0.436413422E-4      1.00601888       -0.271591786        0.984013838   
    -6.03000000        0.437047182E-4      1.00602325       -0.263765498        0.977305498   
    -6.02000000        0.437682324E-4      1.00602762       -0.258730358        0.969527362   
    -6.01000000        0.438318853E-4      1.00603200       -0.256500764        0.961137431   
    -6.00000000        0.438956772E-4      1.00603639       -0.257081697        0.952554107   
    -5.99000000        0.439596085E-4      1.00604078       -0.260480013        0.944183957   
    -5.98000000        0.440236796E-4      1.00604518       -0.266704070        0.936450342   
    -5.97000000        0.440878909E-4      1.00604959       -0.275751564        0.929821361   
    -5.96000000        0.441522429E-4      1.00605400       -0.287584230        0.924834904   
    -5.95000000        0.442167360E-4      1.00605842       -0.302087234        0.922116667   
    -5.94000000        0.442813706E-4      1.00606284       -0.319011714        0.922383709   
    -5.93000000        0.443461470E-4      1.00606727       -0.337902112        0.926422020   
    -5.92000000        0.444110657E-4      1.00607171       -0.358017454        0.935023214   
    -5.91000000        0.444761272E-4      1.00607615       -0.378268345        0.948866763   
    -5.90000000        0.445413317E-4      1.00608060       -0.397206660        0.968346047   
    -5.89000000        0.446066799E-4      1.00608506       -0.413113238        0.993363824   
    -5.88000000        0.446721720E-4      1.00608952       -0.424214368         1.02316114   
    -5.87000000        0.447378085E-4      1.00609399       -0.429008106         1.05627079   
    -5.86000000        0.448035899E-4      1.00609847       -0.426609507         1.09066783   
    -5.85000000        0.448695165E-4      1.00610295       -0.416977793         1.12410994   
    -5.84000000        0.449355888E-4      1.00610744       -0.400919490         1.15455874   
    -5.83000000        0.450018072E-4      1.00611194       -0.379865731         1.18052443   
    -5.82000000        0.450681721E-4      1.00611644       -0.355527337         1.20122229   
    -5.81000000        0.451346841E-4      1.00612095       -0.329565024         1.21653061   
    -5.80000000        0.452013434E-4      1.00612547       -0.303367702         1.22682105   
    -5.79000000        0.452681506E-4      1.00612999       -0.277959822         1.23275262   
    -5.78000000        0.453351061E-4      1.00613452       -0.254007984         1.23509445   
    -5.77000000        0.454022103E-4      1.00613906       -0.231881521         1.23460381   
    -5.76000000        0.454694636E-4      1.00614360       -0.211729775         1.23195803   
    -5.75000000        0.455368666E-4      1.00614815       -0.193553998         1.22772666   
    -5.74000000        0.456044196E-4      1.00615271       -0.177264703         1.22236875   
    -5.73000000        0.456721232E-4      1.00615727       -0.162723131         1.21624300   
    -5.72000000        0.457399776E-4      1.00616184       -0.149769076         1.20962327   
    -5.71000000        0.458079835E-4      1.00616642       -0.138238375         1.20271466   
    -5.70000000        0.458761412E-4      1.00617100       -0.127973125         1.19566818   
    -5.69000000        0.459444512E-4      1.00617559       -0.118827076         1.18859313   
    -5.68000000        0.460129140E-4      1.00618019       -0.110667988         1.18156715   
    -5.67000000        0.460815300E-4      1.00618479       -0.103378141         1.17464407   
    -5.66000000        0.461502996E-4      1.00618940       -0.968538210E-1      1.16785999   
    -5.65000000        0.462192234E-4      1.00619402       -0.910042599E-1      1.16123789   
    -5.64000000        0.462883018E-4      1.00619865       -0.857503572E-1      1.15479114   
    -5.63000000        0.463575352E-4      1.00620328       -0.810233487E-1      1.14852611   
    -5.62000000        0.464269241E-4      1.00620792       -0.767635292E-1      1.14244411   
    -5.61000000        0.464964691E-4      1.00621256       -0.729190766E-1      1.13654287   
    -5.60000000        0.465661704E-4      1.00621721       -0.694449986E-1      1.13081758   
    -5.59000000        0.466360287E-4      1.00622187       -0.663022055E-1      1.12526173   
    -5.58000000        0.467060444E-4      1.00622654       -0.634567036E-1      1.11986765   
    -5.57000000        0.467762179E-4      1.00623121       -0.608788986E-1      1.11462697   
    -5.56000000        0.468465498E-4      1.00623590       -0.585429978E-1      1.10953090   
    -5.55000000        0.469170405E-4      1.00624058       -0.564264982E-1      1.10457046   
    -5.54000000        0.469876905E-4      1.00624528       -0.545097497E-1      1.09973667   
    -5.53000000        0.470585003E-4      1.00624998       -0.527755821E-1      1.09502061   
    -5.52000000        0.471294704E-4      1.00625469       -0.512089884E-1      1.09041350   
    -5.51000000        0.472006011E-4      1.00625940       -0.497968540E-1      1.08590677   
    -5.50000000        0.472718932E-4      1.00626413       -0.485277269E-1      1.08149208   
    -5.49000000        0.473433469E-4      1.00626886       -0.473916221E-1      1.07716132   
    -5.48000000        0.474149628E-4      1.00627359       -0.463798554E-1      1.07290660   
    -5.47000000        0.474867415E-4      1.00627834       -0.454849023E-1      1.06872028   
    -5.46000000        0.475586833E-4      1.00628309       -0.447002787E-1      1.06459493   
    -5.45000000        0.476307888E-4      1.00628785       -0.440204407E-1      1.06052329   
    -5.44000000        0.477030585E-4      1.00629262       -0.434407000E-1      1.05649833   
    -5.43000000        0.477754929E-4      1.00629739       -0.429571539E-1      1.05251313   
    -5.42000000        0.478480925E-4      1.00630217       -0.425666285E-1      1.04856093   
    -5.41000000        0.479208577E-4      1.00630696       -0.422666322E-1      1.04463508   
    -5.40000000        0.479937892E-4      1.00631175       -0.420553201E-1      1.04072900   
    -5.39000000        0.480668873E-4      1.00631656       -0.419314678E-1      1.03683620   
    -5.38000000        0.481401527E-4      1.00632137       -0.418944538E-1      1.03295019   
    -5.37000000        0.482135858E-4      1.00632618       -0.419442501E-1      1.02906452   
    -5.36000000        0.482871871E-4      1.00633101       -0.420814217E-1      1.02517271   
    -5.35000000        0.483609572E-4      1.00633584       -0.423071333E-1      1.02126824   
    -5.34000000        0.484348965E-4      1.00634068       -0.426231651E-1      1.01734453   
    -5.33000000        0.485090056E-4      1.00634552       -0.430319366E-1      1.01339490   
    -5.32000000        0.485832850E-4      1.00635038       -0.435365398E-1      1.00941255   
    -5.31000000        0.486577352E-4      1.00635524       -0.441407821E-1      1.00539054   
    -5.30000000        0.487323568E-4      1.00636011       -0.448492402E-1      1.00132176   
    -5.29000000        0.488071503E-4      1.00636499       -0.456673253E-1     0.997198894   
    -5.28000000        0.488821162E-4      1.00636987       -0.466013627E-1     0.993014426   
    -5.27000000        0.489572550E-4      1.00637476       -0.476586854E-1     0.988760586   
    -5.26000000        0.490325672E-4      1.00637966       -0.488477466E-1     0.984429343   
    -5.25000000        0.491080535E-4      1.00638457       -0.501782506E-1     0.980012391   
    -5.24000000        0.491837143E-4      1.00638948       -0.516613087E-1     0.975501132   
    -5.23000000        0.492595502E-4      1.00639440       -0.533096206E-1     0.970886677   
    -5.22000000        0.493355617E-4      1.00639933       -0.551376888E-1     0.966159843   
    -5.21000000        0.494117493E-4      1.00640427       -0.571620688E-1     0.961311180   
    -5.20000000        0.494881137E-4      1.00640921       -0.594016635E-1     0.956331000   
    -5.19000000        0.495646553E-4      1.00641416       -0.618780682E-1     0.951209440   
    -5.18000000        0.496413748E-4      1.00641912       -0.646159759E-1     0.945936559   
    -5.17000000        0.497182725E-4      1.00642409       -0.676436519E-1     0.940502469   
    -5.16000000        0.497953492E-4      1.00642907       -0.709934916E-1     0.934897542   
    -5.15000000        0.498726054E-4      1.00643405       -0.747026733E-1     0.929112684   
    -5.14000000        0.499500416E-4      1.00643904       -0.788139218E-1     0.923139728   
    -5.13000000        0.500276583E-4      1.00644404       -0.833763997E-1     0.916971962   
    -5.12000000        0.501054562E-4      1.00644904       -0.884467407E-1     0.910604865   
    -5.11000000        0.501834358E-4      1.00645406       -0.940902424E-1     0.904037095   
    -5.10000000        0.502615977E-4      1.00645908       -0.100382227        0.897271833   
    -5.09000000        0.503399425E-4      1.00646411       -0.107409567        0.890318589   
    -5.08000000        0.504184706E-4      1.00646915       -0.115272368        0.883195640   
    -5.07000000        0.504971828E-4      1.00647419       -0.124085734        0.875933287   
    -5.06000000        0.505760795E-4      1.00647924       -0.133981535        0.868578210   
    -5.05000000        0.506551613E-4      1.00648431       -0.145109941        0.861199238   
    -5.04000000        0.507344289E-4      1.00648937       -0.157640396        0.853894953   
    -5.03000000        0.508138827E-4      1.00649445       -0.171761430        0.846803594   
    -5.02000000        0.508935235E-4      1.00649954       -0.187678380        0.840115740   
    -5.01000000        0.509733517E-4      1.00650463       -0.205607566        0.834090169   
    -5.00000000        0.510533680E-4      1.00650973       -0.225764777        0.829072950   
    -4.99000000        0.511335730E-4      1.00651484       -0.248345040        0.825519069   
    -4.98000000        0.512139672E-4      1.00651995       -0.273489716        0.824014361   
    -4.97000000        0.512945512E-4      1.00652508       -0.301236398        0.825292869   
    -4.96000000        0.513753257E-4      1.00653021       -0.331447767        0.830240609   
    -4.95000000        0.514562913E-4      1.00653535       -0.363719026        0.839871265   
    -4.94000000        0.515374485E-4      1.00654050       -0.397272078        0.855254058   
    -4.93000000        0.516187979E-4      1.00654566       -0.430859969        0.877373175   
    -4.92000000        0.517003403E-4      1.00655082       -0.462725801        0.906909045   
    -4.91000000        0.517820761E-4      1.00655600       -0.490676750        0.943962466   
    -4.90000000        0.518640059E-4      1.00656118       -0.512326108        0.987792522   
    -4.89000000        0.519461305E-4      1.00656637       -0.525503405         1.03668589   
    -4.88000000        0.520284504E-4      1.00657157       -0.528738541         1.08807354   
    -4.87000000        0.521109663E-4      1.00657677       -0.521643137         1.13892582   
    -4.86000000        0.521936787E-4      1.00658199       -0.505018001         1.18631670   
    -4.85000000        0.522765883E-4      1.00658721       -0.480634476         1.22794888   
    -4.84000000        0.523596957E-4      1.00659244       -0.450794187         1.26245519   
    -4.83000000        0.524430015E-4      1.00659768       -0.417854042         1.28941775   
    -4.82000000        0.525265065E-4      1.00660293       -0.383870320         1.30917580   
    -4.81000000        0.526102111E-4      1.00660819       -0.350420027         1.32254717   
    -4.80000000        0.526941161E-4      1.00661345       -0.318574937         1.33056734   
    -4.79000000        0.527782221E-4      1.00661872       -0.288968352         1.33429821   
    -4.78000000        0.528625298E-4      1.00662401       -0.261898232         1.33471368   
    -4.77000000        0.529470397E-4      1.00662929       -0.237430064         1.33264709   
    -4.76000000        0.530317525E-4      1.00663459       -0.215482188         1.32877880   
    -4.75000000        0.531166689E-4      1.00663990       -0.195889181         1.32364614   
    -4.74000000        0.532017896E-4      1.00664522       -0.178445338         1.31766324   
    -4.73000000        0.532871151E-4      1.00665054       -0.162932581         1.31114315   
    -4.72000000        0.533726462E-4      1.00665587       -0.149137198         1.30431882   
    -4.71000000        0.534583835E-4      1.00666121       -0.136859029         1.29736099   
    -4.70000000        0.535443277E-4      1.00666656       -0.125915839         1.29039297   
    -4.69000000        0.536304794E-4      1.00667192       -0.116144710         1.28350223   
    -4.68000000        0.537168393E-4      1.00667729       -0.107401732         1.27674944   
    -4.67000000        0.538034081E-4      1.00668266       -0.995607795E-1      1.27017541   
    -4.66000000        0.538901865E-4      1.00668805       -0.925118577E-1      1.26380628   
    -4.65000000        0.539771751E-4      1.00669344       -0.861593193E-1      1.25765748   
    -4.64000000        0.540643746E-4      1.00669884       -0.804201149E-1      1.25173664   
    -4.63000000        0.541517857E-4      1.00670425       -0.752221633E-1      1.24604582   
    -4.62000000        0.542394091E-4      1.00670967       -0.705028787E-1      1.24058312   
    -4.61000000        0.543272454E-4      1.00671510       -0.662078692E-1      1.23534388   
    -4.60000000        0.544152954E-4      1.00672053       -0.622897992E-1      1.23032158   
    -4.59000000        0.545035598E-4      1.00672598       -0.587074055E-1      1.22550851   
    -4.58000000        0.545920392E-4      1.00673143       -0.554246506E-1      1.22089624   
    -4.57000000        0.546807344E-4      1.00673689       -0.524099965E-1      1.21647596   
    -4.56000000        0.547696460E-4      1.00674237       -0.496357839E-1      1.21223874   
    -4.55000000        0.548587747E-4      1.00674785       -0.470777018E-1      1.20817571   
    -4.54000000        0.549481214E-4      1.00675334       -0.447143340E-1      1.20427817   
    -4.53000000        0.550376866E-4      1.00675884       -0.425267720E-1      1.20053771   
    -4.52000000        0.551274711E-4      1.00676434       -0.404982839E-1      1.19694622   
    -4.51000000        0.552174756E-4      1.00676986       -0.386140303E-1      1.19349595   
    -4.50000000        0.553077009E-4      1.00677538       -0.368608215E-1      1.19017954   
    -4.49000000        0.553981476E-4      1.00678092       -0.352269087E-1      1.18698997   
    -4.48000000        0.554888165E-4      1.00678646       -0.337018038E-1      1.18392064   
    -4.47000000        0.555797082E-4      1.00679202       -0.322761250E-1      1.18096528   
    -4.46000000        0.556708237E-4      1.00679758       -0.309414627E-1      1.17811801   
    -4.45000000        0.557621635E-4      1.00680315       -0.296902636E-1      1.17537327   
    -4.44000000        0.558537284E-4      1.00680873       -0.285157306E-1      1.17272583   
    -4.43000000        0.559455191E-4      1.00681432       -0.274117351E-1      1.17017077   
    -4.42000000        0.560375365E-4      1.00681992       -0.263727412E-1      1.16770348   
    -4.41000000        0.561297812E-4      1.00682552       -0.253937397E-1      1.16531960   
    -4.40000000        0.562222540E-4      1.00683114       -0.244701893E-1      1.16301505   
    -4.39000000        0.563149556E-4      1.00683677       -0.235979666E-1      1.16078598   
    -4.38000000        0.564078868E-4      1.00684240       -0.227733210E-1      1.15862877   
    -4.37000000        0.565010484E-4      1.00684805       -0.219928359E-1      1.15654002   
    -4.36000000        0.565944411E-4      1.00685370       -0.212533934E-1      1.15451653   
    -4.35000000        0.566880658E-4      1.00685936       -0.205521448E-1      1.15255528   
    -4.34000000        0.567819230E-4      1.00686504       -0.198864825E-1      1.15065344   
    -4.33000000        0.568760137E-4      1.00687072       -0.192540169E-1      1.14880832   
    -4.32000000        0.569703386E-4      1.00687641       -0.186525549E-1      1.14701740   
    -4.31000000        0.570648985E-4      1.00688211       -0.180800808E-1      1.14527830   
    -4.30000000        0.571596942E-4      1.00688782       -0.175347397E-1      1.14358877   
    -4.29000000        0.572547264E-4      1.00689354       -0.170148225E-1      1.14194669   
    -4.28000000        0.573499959E-4      1.00689927       -0.165187522E-1      1.14035005   
    -4.27000000        0.574455036E-4      1.00690501       -0.160450722E-1      1.13879696   
    -4.26000000        0.575412502E-4      1.00691076       -0.155924355E-1      1.13728562   
    -4.25000000        0.576372365E-4      1.00691652       -0.151595948E-1      1.13581433   
    -4.24000000        0.577334634E-4      1.00692228       -0.147453940E-1      1.13438148   
    -4.23000000        0.578299316E-4      1.00692806       -0.143487602E-1      1.13298556   
    -4.22000000        0.579266419E-4      1.00693385       -0.139686968E-1      1.13162510   
    -4.21000000        0.580235952E-4      1.00693965       -0.136042771E-1      1.13029874   
    -4.20000000        0.581207922E-4      1.00694545       -0.132546385E-1      1.12900518   
    -4.19000000        0.582182338E-4      1.00695127       -0.129189771E-1      1.12774318   
    -4.18000000        0.583159209E-4      1.00695709       -0.125965432E-1      1.12651157   
    -4.17000000        0.584138541E-4      1.00696293       -0.122866370E-1      1.12530921   
    -4.16000000        0.585120344E-4      1.00696878       -0.119886045E-1      1.12413506   
    -4.15000000        0.586104626E-4      1.00697463       -0.117018342E-1      1.12298810   
    -4.14000000        0.587091396E-4      1.00698050       -0.114257534E-1      1.12186735   
    -4.13000000        0.588080661E-4      1.00698637       -0.111598258E-1      1.12077191   
    -4.12000000        0.589072430E-4      1.00699226       -0.109035485E-1      1.11970090   
    -4.11000000        0.590066712E-4      1.00699815       -0.106564496E-1      1.11865347   
    -4.10000000        0.591063515E-4      1.00700406       -0.104180858E-1      1.11762883   
    -4.09000000        0.592062847E-4      1.00700997       -0.101880405E-1      1.11662622   
    -4.08000000        0.593064718E-4      1.00701589       -0.996592203E-2      1.11564490   
    -4.07000000        0.594069135E-4      1.00702183       -0.975136140E-2      1.11468419   
    -4.06000000        0.595076108E-4      1.00702777       -0.954401124E-2      1.11374341   
    -4.05000000        0.596085645E-4      1.00703373       -0.934354402E-2      1.11282193   
    -4.04000000        0.597097755E-4      1.00703969       -0.914965083E-2      1.11191914   
    -4.03000000        0.598112446E-4      1.00704567       -0.896204005E-2      1.11103444   
    -4.02000000        0.599129728E-4      1.00705166       -0.878043622E-2      1.11016729   
    -4.01000000        0.600149609E-4      1.00705765       -0.860457899E-2      1.10931715   
    -4.00000000        0.601172098E-4      1.00706366       -0.843422213E-2      1.10848349   
    -3.99000000        0.602197204E-4      1.00706967       -0.826913261E-2      1.10766583   
    -3.98000000        0.603224936E-4      1.00707570       -0.810908976E-2      1.10686369   
    -3.97000000        0.604255303E-4      1.00708174       -0.795388448E-2      1.10607661   
    -3.96000000        0.605288314E-4      1.00708778       -0.780331856E-2      1.10530416   
    -3.95000000        0.606323978E-4      1.00709384       -0.765720394E-2      1.10454592   
    -3.94000000        0.607362304E-4      1.00709991       -0.751536214E-2      1.10380149   
    -3.93000000        0.608403301E-4      1.00710598       -0.737762366E-2      1.10307047   
    -3.92000000        0.609446979E-4      1.00711207       -0.724382746E-2      1.10235249   
    -3.91000000        0.610493346E-4      1.00711817       -0.711382041E-2      1.10164719   
    -3.90000000        0.611542413E-4      1.00712428       -0.698745688E-2      1.10095422   
    -3.89000000        0.612594187E-4      1.00713040       -0.686459826E-2      1.10027326   
    -3.88000000        0.613648679E-4      1.00713653       -0.674511260E-2      1.09960397   
    -3.87000000        0.614705898E-4      1.00714267       -0.662887418E-2      1.09894605   
    -3.86000000        0.615765853E-4      1.00714882       -0.651576320E-2      1.09829920   
    -3.85000000        0.616828554E-4      1.00715499       -0.640566541E-2      1.09766313   
    -3.84000000        0.617894011E-4      1.00716116       -0.629847183E-2      1.09703756   
    -3.83000000        0.618962232E-4      1.00716734       -0.619407845E-2      1.09642223   
    -3.82000000        0.620033227E-4      1.00717354       -0.609238597E-2      1.09581687   
    -3.81000000        0.621107007E-4      1.00717974       -0.599329952E-2      1.09522124   
    -3.80000000        0.622183580E-4      1.00718596       -0.589672845E-2      1.09463508   
    -3.79000000        0.623262957E-4      1.00719218       -0.580258609E-2      1.09405818   
    -3.78000000        0.624345147E-4      1.00719842       -0.571078954E-2      1.09349029   
    -3.77000000        0.625430160E-4      1.00720467       -0.562125950E-2      1.09293121   
    -3.76000000        0.626518006E-4      1.00721093       -0.553392004E-2      1.09238072   
    -3.75000000        0.627608694E-4      1.00721720       -0.544869845E-2      1.09183862   
    -3.74000000        0.628702235E-4      1.00722348       -0.536552511E-2      1.09130470   
    -3.73000000        0.629798638E-4      1.00722977       -0.528433327E-2      1.09077878   
    -3.72000000        0.630897914E-4      1.00723607       -0.520505894E-2      1.09026068   
    -3.71000000        0.632000073E-4      1.00724238       -0.512764077E-2      1.08975020   
    -3.70000000        0.633105124E-4      1.00724871       -0.505201989E-2      1.08924718   
    -3.69000000        0.634213078E-4      1.00725504       -0.497813980E-2      1.08875145   
    -3.68000000        0.635323946E-4      1.00726139       -0.490594628E-2      1.08826284   
    -3.67000000        0.636437736E-4      1.00726775       -0.483538723E-2      1.08778120   
    -3.66000000        0.637554460E-4      1.00727412       -0.476641262E-2      1.08730636   
    -3.65000000        0.638674128E-4      1.00728050       -0.469897435E-2      1.08683819   
    -3.64000000        0.639796750E-4      1.00728689       -0.463302621E-2      1.08637653   
    -3.63000000        0.640922337E-4      1.00729329       -0.456852374E-2      1.08592125   
    -3.62000000        0.642050899E-4      1.00729971       -0.450542418E-2      1.08547221   
    -3.61000000        0.643182446E-4      1.00730613       -0.444368638E-2      1.08502927   
    -3.60000000        0.644316990E-4      1.00731257       -0.438327075E-2      1.08459231   
    -3.59000000        0.645454540E-4      1.00731901       -0.432413916E-2      1.08416120   
    -3.58000000        0.646595108E-4      1.00732547       -0.426625489E-2      1.08373582   
    -3.57000000        0.647738704E-4      1.00733194       -0.420958257E-2      1.08331605   
    -3.56000000        0.648885338E-4      1.00733843       -0.415408810E-2      1.08290177   
    -3.55000000        0.650035023E-4      1.00734492       -0.409973864E-2      1.08249288   
    -3.54000000        0.651187767E-4      1.00735143       -0.404650251E-2      1.08208926   
    -3.53000000        0.652343583E-4      1.00735794       -0.399434916E-2      1.08169081   
    -3.52000000        0.653502481E-4      1.00736447       -0.394324912E-2      1.08129743   
    -3.51000000        0.654664473E-4      1.00737101       -0.389317396E-2      1.08090901   
    -3.50000000        0.655829569E-4      1.00737756       -0.384409622E-2      1.08052545   
    -3.49000000        0.656997780E-4      1.00738412       -0.379598942E-2      1.08014667   
    -3.48000000        0.658169117E-4      1.00739070       -0.374882797E-2      1.07977256   
    -3.47000000        0.659343592E-4      1.00739729       -0.370258717E-2      1.07940305   
    -3.46000000        0.660521216E-4      1.00740388       -0.365724313E-2      1.07903803   
    -3.45000000        0.661702000E-4      1.00741049       -0.361277280E-2      1.07867743   
    -3.44000000        0.662885956E-4      1.00741712       -0.356915387E-2      1.07832116   
    -3.43000000        0.664073094E-4      1.00742375       -0.352636480E-2      1.07796914   
    -3.42000000        0.665263427E-4      1.00743040       -0.348438474E-2      1.07762128   
    -3.41000000        0.666456965E-4      1.00743705       -0.344319353E-2      1.07727752   
    -3.40000000        0.667653721E-4      1.00744372       -0.340277168E-2      1.07693778   
    -3.39000000        0.668853705E-4      1.00745040       -0.336310031E-2      1.07660197   
    -3.38000000        0.670056930E-4      1.00745710       -0.332416118E-2      1.07627004   
    -3.37000000        0.671263407E-4      1.00746380       -0.328593660E-2      1.07594191   
    -3.36000000        0.672473149E-4      1.00747052       -0.324840947E-2      1.07561751   
    -3.35000000        0.673686166E-4      1.00747725       -0.321156322E-2      1.07529677   
    -3.34000000        0.674902470E-4      1.00748399       -0.317538180E-2      1.07497963   
    -3.33000000        0.676122074E-4      1.00749075       -0.313984967E-2      1.07466602   
    -3.32000000        0.677344989E-4      1.00749751       -0.310495178E-2      1.07435588   
    -3.31000000        0.678571228E-4      1.00750429       -0.307067352E-2      1.07404916   
    -3.30000000        0.679800802E-4      1.00751108       -0.303700077E-2      1.07374579   
    -3.29000000        0.681033724E-4      1.00751788       -0.300391981E-2      1.07344570   
    -3.28000000        0.682270006E-4      1.00752470       -0.297141735E-2      1.07314886   
    -3.27000000        0.683509660E-4      1.00753153       -0.293948051E-2      1.07285519   
    -3.26000000        0.684752698E-4      1.00753837       -0.290809679E-2      1.07256465   
    -3.25000000        0.685999133E-4      1.00754522       -0.287725407E-2      1.07227718   
    -3.24000000        0.687248977E-4      1.00755209       -0.284694061E-2      1.07199272   
    -3.23000000        0.688502242E-4      1.00755896       -0.281714498E-2      1.07171124   
    -3.22000000        0.689758942E-4      1.00756585       -0.278785613E-2      1.07143267   
    -3.21000000        0.691019088E-4      1.00757276       -0.275906331E-2      1.07115697   
    -3.20000000        0.692282693E-4      1.00757967       -0.273075611E-2      1.07088409   
    -3.19000000        0.693549770E-4      1.00758660       -0.270292441E-2      1.07061399   
    -3.18000000        0.694820332E-4      1.00759354       -0.267555839E-2      1.07034661   
    -3.17000000        0.696094391E-4      1.00760049       -0.264864851E-2      1.07008192   
    -3.16000000        0.697371960E-4      1.00760746       -0.262218552E-2      1.06981986   
    -3.15000000        0.698653053E-4      1.00761444       -0.259616043E-2      1.06956040   
    -3.14000000        0.699937682E-4      1.00762143       -0.257056452E-2      1.06930348   
    -3.13000000        0.701225860E-4      1.00762844       -0.254538930E-2      1.06904908   
    -3.12000000        0.702517601E-4      1.00763545       -0.252062655E-2      1.06879715   
    -3.11000000        0.703812917E-4      1.00764248       -0.249626826E-2      1.06854765   
    -3.10000000        0.705111822E-4      1.00764953       -0.247230669E-2      1.06830054   
    -3.09000000        0.706414329E-4      1.00765658       -0.244873427E-2      1.06805578   
    -3.08000000        0.707720451E-4      1.00766365       -0.242554368E-2      1.06781334   
    -3.07000000        0.709030202E-4      1.00767074       -0.240272780E-2      1.06757317   
    -3.06000000        0.710343595E-4      1.00767783       -0.238027972E-2      1.06733524   
    -3.05000000        0.711660644E-4      1.00768494       -0.235819271E-2      1.06709952   
    -3.04000000        0.712981363E-4      1.00769206       -0.233646025E-2      1.06686596   
    -3.03000000        0.714305764E-4      1.00769920       -0.231507601E-2      1.06663454   
    -3.02000000        0.715633862E-4      1.00770635       -0.229403381E-2      1.06640522   
    -3.01000000        0.716965671E-4      1.00771351       -0.227332767E-2      1.06617797   
    -3.00000000        0.718301204E-4      1.00772068       -0.225295178E-2      1.06595276   
    -2.99000000        0.719640476E-4      1.00772787       -0.223290050E-2      1.06572954   
    -2.98000000        0.720983499E-4      1.00773507       -0.221316834E-2      1.06550830   
    -2.97000000        0.722330289E-4      1.00774229       -0.219374998E-2      1.06528900   
    -2.96000000        0.723680859E-4      1.00774952       -0.217464023E-2      1.06507160   
    -2.95000000        0.725035224E-4      1.00775676       -0.215583409E-2      1.06485609   
    -2.94000000        0.726393398E-4      1.00776401       -0.213732667E-2      1.06464243   
    -2.93000000        0.727755395E-4      1.00777128       -0.211911324E-2      1.06443058   
    -2.92000000        0.729121230E-4      1.00777857       -0.210118921E-2      1.06422053   
    -2.91000000        0.730490916E-4      1.00778586       -0.208355011E-2      1.06401224   
    -2.90000000        0.731864469E-4      1.00779317       -0.206619162E-2      1.06380569   
    -2.89000000        0.733241903E-4      1.00780050       -0.204910955E-2      1.06360084   
    -2.88000000        0.734623233E-4      1.00780784       -0.203229983E-2      1.06339768   
    -2.87000000        0.736008473E-4      1.00781519       -0.201575851E-2      1.06319617   
    -2.86000000        0.737397638E-4      1.00782255       -0.199948177E-2      1.06299628   
    -2.85000000        0.738790744E-4      1.00782993       -0.198346590E-2      1.06279801   
    -2.84000000        0.740187804E-4      1.00783733       -0.196770732E-2      1.06260130   
    -2.83000000        0.741588835E-4      1.00784473       -0.195220255E-2      1.06240615   
    -2.82000000        0.742993851E-4      1.00785216       -0.193694824E-2      1.06221253   
    -2.81000000        0.744402867E-4      1.00785959       -0.192194113E-2      1.06202041   
    -2.80000000        0.745815898E-4      1.00786704       -0.190717807E-2      1.06182976   
    -2.79000000        0.747232960E-4      1.00787451       -0.189265604E-2      1.06164058   
    -2.78000000        0.748654068E-4      1.00788198       -0.187837210E-2      1.06145282   
    -2.77000000        0.750079238E-4      1.00788948       -0.186432342E-2      1.06126647   
    -2.76000000        0.751508485E-4      1.00789698       -0.185050728E-2      1.06108150   
    -2.75000000        0.752941825E-4      1.00790450       -0.183692104E-2      1.06089789   
    -2.74000000        0.754379272E-4      1.00791204       -0.182356218E-2      1.06071563   
    -2.73000000        0.755820844E-4      1.00791959       -0.181042827E-2      1.06053468   
    -2.72000000        0.757266556E-4      1.00792715       -0.179751697E-2      1.06035502   
    -2.71000000        0.758716423E-4      1.00793473       -0.178482605E-2      1.06017664   
    -2.70000000        0.760170462E-4      1.00794232       -0.177235335E-2      1.05999951   
    -2.69000000        0.761628689E-4      1.00794993       -0.176009683E-2      1.05982361   
    -2.68000000        0.763091120E-4      1.00795755       -0.174805453E-2      1.05964892   
    -2.67000000        0.764557770E-4      1.00796519       -0.173622457E-2      1.05947541   
    -2.66000000        0.766028657E-4      1.00797284       -0.172460519E-2      1.05930307   
    -2.65000000        0.767503797E-4      1.00798051       -0.171319470E-2      1.05913188   
    -2.64000000        0.768983205E-4      1.00798819       -0.170199150E-2      1.05896181   
    -2.63000000        0.770466900E-4      1.00799589       -0.169099408E-2      1.05879285   
    -2.62000000        0.771954896E-4      1.00800360       -0.168020104E-2      1.05862497   
    -2.61000000        0.773447211E-4      1.00801132       -0.166961105E-2      1.05845816   
    -2.60000000        0.774943862E-4      1.00801906       -0.165922287E-2      1.05829239   
    -2.59000000        0.776444865E-4      1.00802682       -0.164903536E-2      1.05812765   
    -2.58000000        0.777950238E-4      1.00803459       -0.163904745E-2      1.05796392   
    -2.57000000        0.779459997E-4      1.00804237       -0.162925819E-2      1.05780116   
    -2.56000000        0.780974159E-4      1.00805017       -0.161966669E-2      1.05763938   
    -2.55000000        0.782492742E-4      1.00805799       -0.161027218E-2      1.05747854   
    -2.54000000        0.784015763E-4      1.00806582       -0.160107396E-2      1.05731863   
    -2.53000000        0.785543239E-4      1.00807367       -0.159207143E-2      1.05715963   
    -2.52000000        0.787075187E-4      1.00808153       -0.158326407E-2      1.05700152   
    -2.51000000        0.788611625E-4      1.00808941       -0.157465148E-2      1.05684427   
    -2.50000000        0.790152571E-4      1.00809730       -0.156623334E-2      1.05668788   
    -2.49000000        0.791698043E-4      1.00810521       -0.155800941E-2      1.05653232   
    -2.48000000        0.793248057E-4      1.00811313       -0.154997958E-2      1.05637757   
    -2.47000000        0.794802633E-4      1.00812107       -0.154214381E-2      1.05622361   
    -2.46000000        0.796361787E-4      1.00812902       -0.153450217E-2      1.05607043   
    -2.45000000        0.797925538E-4      1.00813699       -0.152705484E-2      1.05591801   
    -2.44000000        0.799493904E-4      1.00814498       -0.151980209E-2      1.05576632   
    -2.43000000        0.801066903E-4      1.00815298       -0.151274431E-2      1.05561535   
    -2.42000000        0.802644554E-4      1.00816100       -0.150588197E-2      1.05546507   
    -2.41000000        0.804226874E-4      1.00816903       -0.149921569E-2      1.05531547   
    -2.40000000        0.805813883E-4      1.00817708       -0.149274616E-2      1.05516654   
    -2.39000000        0.807405599E-4      1.00818514       -0.148647421E-2      1.05501824   
    -2.38000000        0.809002040E-4      1.00819322       -0.148040078E-2      1.05487057   
    -2.37000000        0.810603225E-4      1.00820132       -0.147452693E-2      1.05472349   
    -2.36000000        0.812209174E-4      1.00820943       -0.146885385E-2      1.05457700   
    -2.35000000        0.813819905E-4      1.00821756       -0.146338285E-2      1.05443107   
    -2.34000000        0.815435437E-4      1.00822570       -0.145811536E-2      1.05428568   
    -2.33000000        0.817055789E-4      1.00823387       -0.145305297E-2      1.05414081   
    -2.32000000        0.818680980E-4      1.00824204       -0.144819737E-2      1.05399644   
    -2.31000000        0.820311030E-4      1.00825024       -0.144355044E-2      1.05385256   
    -2.30000000        0.821945958E-4      1.00825845       -0.143911415E-2      1.05370914   
    -2.29000000        0.823585784E-4      1.00826667       -0.143489068E-2      1.05356616   
    -2.28000000        0.825230528E-4      1.00827491       -0.143088233E-2      1.05342360   
    -2.27000000        0.826880208E-4      1.00828317       -0.142709156E-2      1.05328143   
    -2.26000000        0.828534845E-4      1.00829145       -0.142352101E-2      1.05313965   
    -2.25000000        0.830194458E-4      1.00829974       -0.142017350E-2      1.05299822   
    -2.24000000        0.831859069E-4      1.00830805       -0.141705202E-2      1.05285712   
    -2.23000000        0.833528696E-4      1.00831637       -0.141415974E-2      1.05271633   
    -2.22000000        0.835203360E-4      1.00832472       -0.141150004E-2      1.05257584   
    -2.21000000        0.836883082E-4      1.00833307       -0.140907650E-2      1.05243561   
    -2.20000000        0.838567881E-4      1.00834145       -0.140689289E-2      1.05229563   
    -2.19000000        0.840257778E-4      1.00834984       -0.140495321E-2      1.05215586   
    -2.18000000        0.841952794E-4      1.00835825       -0.140326171E-2      1.05201629   
    -2.17000000        0.843652950E-4      1.00836668       -0.140182284E-2      1.05187690   
    -2.16000000        0.845358266E-4      1.00837512       -0.140064132E-2      1.05173765   
    -2.15000000        0.847068764E-4      1.00838358       -0.139972213E-2      1.05159852   
    -2.14000000        0.848784464E-4      1.00839206       -0.139907050E-2      1.05145949   
    -2.13000000        0.850505387E-4      1.00840055       -0.139869197E-2      1.05132053   
    -2.12000000        0.852231555E-4      1.00840907       -0.139859236E-2      1.05118162   
    -2.11000000        0.853962989E-4      1.00841760       -0.139877779E-2      1.05104272   
    -2.10000000        0.855699711E-4      1.00842614       -0.139925472E-2      1.05090381   
    -2.09000000        0.857441742E-4      1.00843471       -0.140002994E-2      1.05076486   
    -2.08000000        0.859189104E-4      1.00844329       -0.140111061E-2      1.05062585   
    -2.07000000        0.860941819E-4      1.00845189       -0.140250424E-2      1.05048673   
    -2.06000000        0.862699908E-4      1.00846050       -0.140421874E-2      1.05034749   
    -2.05000000        0.864463394E-4      1.00846914       -0.140626245E-2      1.05020809   
    -2.04000000        0.866232299E-4      1.00847779       -0.140864413E-2      1.05006850   
    -2.03000000        0.868006644E-4      1.00848646       -0.141137298E-2      1.04992869   
    -2.02000000        0.869786453E-4      1.00849514       -0.141445871E-2      1.04978862   
    -2.01000000        0.871571748E-4      1.00850385       -0.141791152E-2      1.04964826   
    -2.00000000        0.873362552E-4      1.00851257       -0.142174212E-2      1.04950757   
    -1.99000000        0.875158886E-4      1.00852131       -0.142596184E-2      1.04936652   
    -1.98000000        0.876960775E-4      1.00853007       -0.143058253E-2      1.04922507   
    -1.97000000        0.878768240E-4      1.00853885       -0.143561673E-2      1.04908318   
    -1.96000000        0.880581306E-4      1.00854764       -0.144107760E-2      1.04894081   
    -1.95000000        0.882399994E-4      1.00855646       -0.144697902E-2      1.04879792   
    -1.94000000        0.884224330E-4      1.00856529       -0.145333559E-2      1.04865447   
    -1.93000000        0.886054335E-4      1.00857414       -0.146016271E-2      1.04851041   
    -1.92000000        0.887890034E-4      1.00858301       -0.146747661E-2      1.04836570   
    -1.91000000        0.889731450E-4      1.00859189       -0.147529438E-2      1.04822030   
    -1.90000000        0.891578607E-4      1.00860080       -0.148363406E-2      1.04807415   
    -1.89000000        0.893431529E-4      1.00860972       -0.149251468E-2      1.04792721   
    -1.88000000        0.895290240E-4      1.00861866       -0.150195630E-2      1.04777942   
    -1.87000000        0.897154764E-4      1.00862762       -0.151198011E-2      1.04763074   
    -1.86000000        0.899025125E-4      1.00863660       -0.152260849E-2      1.04748110   
    -1.85000000        0.900901349E-4      1.00864560       -0.153386507E-2      1.04733045   
    -1.84000000        0.902783459E-4      1.00865461       -0.154577485E-2      1.04717873   
    -1.83000000        0.904671480E-4      1.00866365       -0.155836422E-2      1.04702587   
    -1.82000000        0.906565437E-4      1.00867270       -0.157166115E-2      1.04687182   
    -1.81000000        0.908465354E-4      1.00868178       -0.158569520E-2      1.04671651   
    -1.80000000        0.910371258E-4      1.00869087       -0.160049768E-2      1.04655987   
    -1.79000000        0.912283173E-4      1.00869998       -0.161610178E-2      1.04640182   
    -1.78000000        0.914201125E-4      1.00870911       -0.163254266E-2      1.04624230   
    -1.77000000        0.916125138E-4      1.00871826       -0.164985761E-2      1.04608122   
    -1.76000000        0.918055239E-4      1.00872743       -0.166808622E-2      1.04591851   
    -1.75000000        0.919991454E-4      1.00873662       -0.168727050E-2      1.04575407   
    -1.74000000        0.921933808E-4      1.00874582       -0.170745511E-2      1.04558782   
    -1.73000000        0.923882327E-4      1.00875505       -0.172868751E-2      1.04541967   
    -1.72000000        0.925837037E-4      1.00876430       -0.175101820E-2      1.04524953   
    -1.71000000        0.927797965E-4      1.00877356       -0.177450093E-2      1.04507728   
    -1.70000000        0.929765138E-4      1.00878285       -0.179919295E-2      1.04490283   
    -1.69000000        0.931738581E-4      1.00879216       -0.182515532E-2      1.04472607   
    -1.68000000        0.933718321E-4      1.00880148       -0.185245314E-2      1.04454687   
    -1.67000000        0.935704386E-4      1.00881083       -0.188115593E-2      1.04436513   
    -1.66000000        0.937696802E-4      1.00882019       -0.191133796E-2      1.04418070   
    -1.65000000        0.939695597E-4      1.00882958       -0.194307863E-2      1.04399347   
    -1.64000000        0.941700798E-4      1.00883898       -0.197646294E-2      1.04380328   
    -1.63000000        0.943712431E-4      1.00884841       -0.201158189E-2      1.04361000   
    -1.62000000        0.945730526E-4      1.00885785       -0.204853305E-2      1.04341347   
    -1.61000000        0.947755109E-4      1.00886732       -0.208742109E-2      1.04321352   
    -1.60000000        0.949786209E-4      1.00887680       -0.212835842E-2      1.04300999   
    -1.59000000        0.951823853E-4      1.00888631       -0.217146586E-2      1.04280270   
    -1.58000000        0.953868070E-4      1.00889583       -0.221687341E-2      1.04259145   
    -1.57000000        0.955918887E-4      1.00890538       -0.226472107E-2      1.04237605   
    -1.56000000        0.957976335E-4      1.00891495       -0.231515979E-2      1.04215629   
    -1.55000000        0.960040440E-4      1.00892454       -0.236835246E-2      1.04193194   
    -1.54000000        0.962111233E-4      1.00893414       -0.242447506E-2      1.04170278   
    -1.53000000        0.964188741E-4      1.00894377       -0.248371795E-2      1.04146854   
    -1.52000000        0.966272995E-4      1.00895342       -0.254628725E-2      1.04122897   
    -1.51000000        0.968364023E-4      1.00896309       -0.261240640E-2      1.04098380   
    -1.50000000        0.970461855E-4      1.00897279       -0.268231796E-2      1.04073272   
    -1.49000000        0.972566520E-4      1.00898250       -0.275628550E-2      1.04047543   
    -1.48000000        0.974678048E-4      1.00899223       -0.283459586E-2      1.04021159   
    -1.47000000        0.976796470E-4      1.00900199       -0.291756157E-2      1.03994086   
    -1.46000000        0.978921814E-4      1.00901176       -0.300552362E-2      1.03966287   
    -1.45000000        0.981054112E-4      1.00902156       -0.309885461E-2      1.03937721   
    -1.44000000        0.983193394E-4      1.00903138       -0.319796220E-2      1.03908347   
    -1.43000000        0.985339690E-4      1.00904122       -0.330329315E-2      1.03878120   
    -1.42000000        0.987493032E-4      1.00905108       -0.341533775E-2      1.03846994   
    -1.41000000        0.989653449E-4      1.00906097       -0.353463496E-2      1.03814917   
    -1.40000000        0.991820974E-4      1.00907087       -0.366177815E-2      1.03781836   
    -1.39000000        0.993995637E-4      1.00908080       -0.379742174E-2      1.03747694   
    -1.38000000        0.996177470E-4      1.00909075       -0.394228867E-2      1.03712431   
    -1.37000000        0.998366504E-4      1.00910072       -0.409717901E-2      1.03675981   
    -1.36000000        0.100056277E-3      1.00911071       -0.426297977E-2      1.03638276   
    -1.35000000        0.100276630E-3      1.00912072       -0.444067621E-2      1.03599244   
    -1.34000000        0.100497714E-3      1.00913076       -0.463136482E-2      1.03558806   
    -1.33000000        0.100719530E-3      1.00914082       -0.483626821E-2      1.03516881   
    -1.32000000        0.100942082E-3      1.00915090       -0.505675245E-2      1.03473381   
    -1.31000000        0.101165373E-3      1.00916100       -0.529434700E-2      1.03428214   
    -1.30000000        0.101389408E-3      1.00917113       -0.555076784E-2      1.03381282   
    -1.29000000        0.101614188E-3      1.00918127       -0.582794440E-2      1.03332484   
    -1.28000000        0.101839718E-3      1.00919144       -0.612805082E-2      1.03281712   
    -1.27000000        0.102066001E-3      1.00920164       -0.645354239E-2      1.03228853   
    -1.26000000        0.102293040E-3      1.00921185       -0.680719817E-2      1.03173793   
    -1.25000000        0.102520838E-3      1.00922209       -0.719217067E-2      1.03116412   
    -1.24000000        0.102749399E-3      1.00923235       -0.761204410E-2      1.03056591   
    -1.23000000        0.102978727E-3      1.00924264       -0.807090247E-2      1.02994209   
    -1.22000000        0.103208824E-3      1.00925294       -0.857340934E-2      1.02929152   
    -1.21000000        0.103439694E-3      1.00926327       -0.912490110E-2      1.02861311   
    -1.20000000        0.103671341E-3      1.00927362       -0.973149590E-2      1.02790592   
    -1.19000000        0.103903768E-3      1.00928400       -0.104002204E-1      1.02716922   
    -1.18000000        0.104136979E-3      1.00929440       -0.111391567E-1      1.02640263   
    -1.17000000        0.104370977E-3      1.00930482       -0.119576112E-1      1.02560620   
    -1.16000000        0.104605766E-3      1.00931527       -0.128663061E-1      1.02478069   
    -1.15000000        0.104841349E-3      1.00932574       -0.138775945E-1      1.02392777   
    -1.14000000        0.105077730E-3      1.00933623       -0.150056931E-1      1.02305043   
    -1.13000000        0.105314912E-3      1.00934675       -0.162669254E-1      1.02215342   
    -1.12000000        0.105552900E-3      1.00935729       -0.176799576E-1      1.02124391   
    -1.11000000        0.105791696E-3      1.00936785       -0.192659927E-1      1.02033236   
    -1.10000000        0.106031305E-3      1.00937844       -0.210488709E-1      1.01943357   
    -1.09000000        0.106271730E-3      1.00938906       -0.230549818E-1      1.01856819   
    -1.08000000        0.106512976E-3      1.00939969       -0.253128472E-1      1.01776455   
    -1.07000000        0.106755044E-3      1.00941035       -0.278521521E-1      1.01706090   
    -1.06000000        0.106997940E-3      1.00942104       -0.307019022E-1      1.01650816   
    -1.05000000        0.107241668E-3      1.00943175       -0.338872598E-1      1.01617293   
    -1.04000000        0.107486230E-3      1.00944248       -0.374244907E-1      1.01614033   
    -1.03000000        0.107731631E-3      1.00945324       -0.413134065E-1      1.01651611   
    -1.02000000        0.107977875E-3      1.00946402       -0.455268554E-1      1.01742626   
    -1.01000000        0.108224966E-3      1.00947483       -0.499974443E-1      1.01901234   
    -1.00000000        0.108472906E-3      1.00948566       -0.546030713E-1      1.02141928   
   -0.990000000        0.108721702E-3      1.00949652       -0.591551899E-1      1.02477347   
   -0.980000000        0.108971355E-3      1.00950740       -0.633965788E-1      1.02915024   
   -0.970000000        0.109221871E-3      1.00951831       -0.670170567E-1      1.03453560   
   -0.960000000        0.109473253E-3      1.00952924       -0.696930954E-1      1.04079354   
   -0.950000000        0.109725505E-3      1.00954019       -0.711482650E-1      1.04765602   
   -0.940000000        0.109978631E-3      1.00955118       -0.712180615E-1      1.05474944   
   -0.930000000        0.110232636E-3      1.00956218       -0.698936822E-1      1.06165693   
   -0.920000000        0.110487523E-3      1.00957322       -0.673244715E-1      1.06799678   
   -0.910000000        0.110743297E-3      1.00958428       -0.637778428E-1      1.07348772   
   -0.900000000        0.110999961E-3      1.00959536       -0.595754360E-1      1.07797954   
   -0.890000000        0.111257520E-3      1.00960647       -0.550311834E-1      1.08144652   
   -0.880000000        0.111515978E-3      1.00961761       -0.504091049E-1      1.08395629   
   -0.870000000        0.111775340E-3      1.00962877       -0.459052221E-1      1.08563151   
   -0.860000000        0.112035608E-3      1.00963995       -0.416482766E-1      1.08661638   
   -0.850000000        0.112296788E-3      1.00965117       -0.377108212E-1      1.08705352   
   -0.840000000        0.112558884E-3      1.00966241       -0.341236315E-1      1.08707095   
   -0.830000000        0.112821900E-3      1.00967367       -0.308892203E-1      1.08677664   
   -0.820000000        0.113085841E-3      1.00968497       -0.279926682E-1      1.08625786   
   -0.810000000        0.113350711E-3      1.00969628       -0.254094814E-1      1.08558305   
   -0.800000000        0.113616513E-3      1.00970763       -0.231108838E-1      1.08480466   
   -0.790000000        0.113883254E-3      1.00971900       -0.210671540E-1      1.08396218   
   -0.780000000        0.114150936E-3      1.00973040       -0.192495855E-1      1.08308485   
   -0.770000000        0.114419565E-3      1.00974183       -0.176315313E-1      1.08219407   
   -0.760000000        0.114689145E-3      1.00975328       -0.161888683E-1      1.08130520   
   -0.750000000        0.114959681E-3      1.00976476       -0.149001118E-1      1.08042910   
   -0.740000000        0.115231176E-3      1.00977626       -0.137463308E-1      1.07957325   
   -0.730000000        0.115503636E-3      1.00978780       -0.127109602E-1      1.07874263   
   -0.720000000        0.115777065E-3      1.00979936       -0.117795676E-1      1.07794039   
   -0.710000000        0.116051468E-3      1.00981095       -0.109396102E-1      1.07716835   
   -0.700000000        0.116326849E-3      1.00982256       -0.101801997E-1      1.07642732   
   -0.690000000        0.116603213E-3      1.00983420       -0.949188594E-2      1.07571745   
   -0.680000000        0.116880565E-3      1.00984588       -0.886646210E-2      1.07503839   
   -0.670000000        0.117158910E-3      1.00985757       -0.829679385E-2      1.07438944   
   -0.660000000        0.117438252E-3      1.00986930       -0.777667004E-2      1.07376970   
   -0.650000000        0.117718596E-3      1.00988106       -0.730067383E-2      1.07317809   
   -0.640000000        0.117999946E-3      1.00989284       -0.686407208E-2      1.07261348   
   -0.630000000        0.118282309E-3      1.00990465       -0.646272042E-2      1.07207467   
   -0.620000000        0.118565687E-3      1.00991649       -0.609298216E-2      1.07156048   
   -0.610000000        0.118850088E-3      1.00992836       -0.575165905E-2      1.07106971   
   -0.600000000        0.119135514E-3      1.00994025       -0.543593203E-2      1.07060122   
   -0.590000000        0.119421972E-3      1.00995218       -0.514331070E-2      1.07015388   
   -0.580000000        0.119709467E-3      1.00996413       -0.487159001E-2      1.06972662   
   -0.570000000        0.119998002E-3      1.00997611       -0.461881317E-2      1.06931844   
   -0.560000000        0.120287584E-3      1.00998812       -0.438323991E-2      1.06892834   
   -0.550000000        0.120578217E-3      1.01000016       -0.416331911E-2      1.06855541   
   -0.540000000        0.120869907E-3      1.01001223       -0.395766527E-2      1.06819879   
   -0.530000000        0.121162659E-3      1.01002433       -0.376503827E-2      1.06785765   
   -0.520000000        0.121456477E-3      1.01003646       -0.358432579E-2      1.06753122   
   -0.510000000        0.121751368E-3      1.01004861       -0.341452813E-2      1.06721878   
   -0.500000000        0.122047336E-3      1.01006080       -0.325474508E-2      1.06691964   
   -0.490000000        0.122344386E-3      1.01007301       -0.310416440E-2      1.06663318   
   -0.480000000        0.122642524E-3      1.01008526       -0.296205190E-2      1.06635877   
   -0.470000000        0.122941756E-3      1.01009754       -0.282774266E-2      1.06609587   
   -0.460000000        0.123242086E-3      1.01010984       -0.270063348E-2      1.06584394   
   -0.450000000        0.123543520E-3      1.01012218       -0.258017614E-2      1.06560249   
   -0.440000000        0.123846063E-3      1.01013454       -0.246587153E-2      1.06537105   
   -0.430000000        0.124149721E-3      1.01014694       -0.235726454E-2      1.06514918   
   -0.420000000        0.124454500E-3      1.01015936       -0.225393941E-2      1.06493648   
   -0.410000000        0.124760404E-3      1.01017182       -0.215551579E-2      1.06473257   
   -0.400000000        0.125067440E-3      1.01018431       -0.206164515E-2      1.06453707   
   -0.390000000        0.125375613E-3      1.01019683       -0.197200757E-2      1.06434965   
   -0.380000000        0.125684929E-3      1.01020938       -0.188630901E-2      1.06416999   
   -0.370000000        0.125995393E-3      1.01022196       -0.180427876E-2      1.06399780   
   -0.360000000        0.126307011E-3      1.01023457       -0.172566722E-2      1.06383278   
   -0.350000000        0.126619789E-3      1.01024721       -0.165024394E-2      1.06367469   
   -0.340000000        0.126933732E-3      1.01025988       -0.157779580E-2      1.06352326   
   -0.330000000        0.127248847E-3      1.01027259       -0.150812542E-2      1.06337828   
   -0.320000000        0.127565139E-3      1.01028533       -0.144104975E-2      1.06323950   
   -0.310000000        0.127882614E-3      1.01029810       -0.137639879E-2      1.06310674   
   -0.300000000        0.128201278E-3      1.01031090       -0.131401437E-2      1.06297980   
   -0.290000000        0.128521138E-3      1.01032373       -0.125374919E-2      1.06285849   
   -0.280000000        0.128842198E-3      1.01033659       -0.119546580E-2      1.06274264   
   -0.270000000        0.129164465E-3      1.01034949       -0.113903578E-2      1.06263209   
   -0.260000000        0.129487946E-3      1.01036242       -0.108433896E-2      1.06252670   
   -0.250000000        0.129812645E-3      1.01037538       -0.103126273E-2      1.06242632   
   -0.240000000        0.130138571E-3      1.01038837       -0.979701371E-3      1.06233081   
   -0.230000000        0.130465727E-3      1.01040140       -0.929555483E-3      1.06224005   
   -0.220000000        0.130794122E-3      1.01041446       -0.880731462E-3      1.06215392   
   -0.210000000        0.131123760E-3      1.01042755       -0.833141006E-3      1.06207232   
   -0.200000000        0.131454649E-3      1.01044067       -0.786700667E-3      1.06199514   
   -0.190000000        0.131786795E-3      1.01045383       -0.741331447E-3      1.06192228   
   -0.180000000        0.132120204E-3      1.01046702       -0.696958418E-3      1.06185366   
   -0.170000000        0.132454882E-3      1.01048025       -0.653510377E-3      1.06178919   
   -0.160000000        0.132790837E-3      1.01049350       -0.610919524E-3      1.06172880   
   -0.150000000        0.133128074E-3      1.01050680       -0.569121169E-3      1.06167240   
   -0.140000000        0.133466600E-3      1.01052012       -0.528053454E-3      1.06161994   
   -0.130000000        0.133806422E-3      1.01053348       -0.487657099E-3      1.06157136   
   -0.120000000        0.134147546E-3      1.01054687       -0.447875162E-3      1.06152659   
   -0.110000000        0.134489979E-3      1.01056030       -0.408652817E-3      1.06148558   
   -0.100000000        0.134833728E-3      1.01057376       -0.369937144E-3      1.06144830   
   -0.900000000E-1     0.135178799E-3      1.01058726       -0.331676929E-3      1.06141469   
   -0.800000000E-1     0.135525200E-3      1.01060079       -0.293822482E-3      1.06138472   
   -0.700000000E-1     0.135872937E-3      1.01061435       -0.256325455E-3      1.06135835   
   -0.600000000E-1     0.136222017E-3      1.01062796       -0.219138676E-3      1.06133556   
   -0.500000000E-1     0.136572447E-3      1.01064159       -0.182215986E-3      1.06131632   
   -0.400000000E-1     0.136924234E-3      1.01065526       -0.145512083E-3      1.06130060   
   -0.300000000E-1     0.137277386E-3      1.01066897       -0.108982373E-3      1.06128840   
   -0.200000000E-1     0.137631908E-3      1.01068271       -0.725828203E-4      1.06127969   
   -0.100000000E-1     0.137987809E-3      1.01069648       -0.362698093E-4      1.06127447   
     0.00000000        0.138345095E-3      1.01071030         0.00000000         1.06127273   
    0.100000000E-1     0.138703773E-3      1.01072414        0.362698093E-4      1.06127447   
    0.200000000E-1     0.139063852E-3      1.01073803        0.725828203E-4      1.06127969   
    0.300000000E-1     0.139425338E-3      1.01075195        0.108982373E-3      1.06128840   
    0.400000000E-1     0.139788239E-3      1.01076590        0.145512083E-3      1.06130060   
    0.500000000E-1     0.140152561E-3      1.01077989        0.182215986E-3      1.06131632   
    0.600000000E-1     0.140518313E-3      1.01079392        0.219138676E-3      1.06133556   
    0.700000000E-1     0.140885502E-3      1.01080799        0.256325455E-3      1.06135835   
    0.800000000E-1     0.141254136E-3      1.01082209        0.293822482E-3      1.06138472   
    0.900000000E-1     0.141624222E-3      1.01083623        0.331676929E-3      1.06141469   
    0.100000000        0.141995768E-3      1.01085041        0.369937144E-3      1.06144830   
    0.110000000        0.142368781E-3      1.01086462        0.408652817E-3      1.06148558   
    0.120000000        0.142743270E-3      1.01087887        0.447875162E-3      1.06152659   
    0.130000000        0.143119242E-3      1.01089316        0.487657099E-3      1.06157136   
    0.140000000        0.143496704E-3      1.01090748        0.528053454E-3      1.06161994   
    0.150000000        0.143875666E-3      1.01092185        0.569121169E-3      1.06167240   
    0.160000000        0.144256135E-3      1.01093625        0.610919524E-3      1.06172880   
    0.170000000        0.144638118E-3      1.01095069        0.653510377E-3      1.06178919   
    0.180000000        0.145021625E-3      1.01096517        0.696958418E-3      1.06185366   
    0.190000000        0.145406663E-3      1.01097968        0.741331447E-3      1.06192228   
    0.200000000        0.145793240E-3      1.01099424        0.786700667E-3      1.06199514   
    0.210000000        0.146181364E-3      1.01100883        0.833141006E-3      1.06207232   
    0.220000000        0.146571045E-3      1.01102346        0.880731462E-3      1.06215392   
    0.230000000        0.146962290E-3      1.01103814        0.929555483E-3      1.06224005   
    0.240000000        0.147355107E-3      1.01105285        0.979701371E-3      1.06233081   
    0.250000000        0.147749506E-3      1.01106760        0.103126273E-2      1.06242632   
    0.260000000        0.148145494E-3      1.01108239        0.108433896E-2      1.06252670   
    0.270000000        0.148543080E-3      1.01109721        0.113903578E-2      1.06263209   
    0.280000000        0.148942274E-3      1.01111208        0.119546580E-2      1.06274264   
    0.290000000        0.149343082E-3      1.01112699        0.125374919E-2      1.06285849   
    0.300000000        0.149745516E-3      1.01114194        0.131401437E-2      1.06297980   
    0.310000000        0.150149582E-3      1.01115693        0.137639879E-2      1.06310674   
    0.320000000        0.150555290E-3      1.01117196        0.144104975E-2      1.06323950   
    0.330000000        0.150962650E-3      1.01118703        0.150812542E-2      1.06337828   
    0.340000000        0.151371669E-3      1.01120214        0.157779580E-2      1.06352326   
    0.350000000        0.151782357E-3      1.01121729        0.165024394E-2      1.06367469   
    0.360000000        0.152194724E-3      1.01123249        0.172566722E-2      1.06383278   
    0.370000000        0.152608777E-3      1.01124772        0.180427876E-2      1.06399780   
    0.380000000        0.153024528E-3      1.01126300        0.188630901E-2      1.06416999   
    0.390000000        0.153441984E-3      1.01127832        0.197200757E-2      1.06434965   
    0.400000000        0.153861156E-3      1.01129367        0.206164515E-2      1.06453707   
    0.410000000        0.154282052E-3      1.01130908        0.215551579E-2      1.06473257   
    0.420000000        0.154704683E-3      1.01132452        0.225393941E-2      1.06493648   
    0.430000000        0.155129057E-3      1.01134001        0.235726454E-2      1.06514918   
    0.440000000        0.155555185E-3      1.01135553        0.246587153E-2      1.06537105   
    0.450000000        0.155983077E-3      1.01137110        0.258017614E-2      1.06560249   
    0.460000000        0.156412741E-3      1.01138672        0.270063348E-2      1.06584394   
    0.470000000        0.156844188E-3      1.01140238        0.282774266E-2      1.06609587   
    0.480000000        0.157277427E-3      1.01141808        0.296205190E-2      1.06635877   
    0.490000000        0.157712470E-3      1.01143382        0.310416440E-2      1.06663318   
    0.500000000        0.158149325E-3      1.01144961        0.325474508E-2      1.06691964   
    0.510000000        0.158588003E-3      1.01146544        0.341452813E-2      1.06721878   
    0.520000000        0.159028514E-3      1.01148131        0.358432579E-2      1.06753122   
    0.530000000        0.159470868E-3      1.01149723        0.376503827E-2      1.06785765   
    0.540000000        0.159915077E-3      1.01151319        0.395766527E-2      1.06819879   
    0.550000000        0.160361149E-3      1.01152920        0.416331911E-2      1.06855541   
    0.560000000        0.160809096E-3      1.01154525        0.438323991E-2      1.06892834   
    0.570000000        0.161258928E-3      1.01156135        0.461881317E-2      1.06931844   
    0.580000000        0.161710655E-3      1.01157749        0.487159001E-2      1.06972662   
    0.590000000        0.162164290E-3      1.01159368        0.514331070E-2      1.07015388   
    0.600000000        0.162619841E-3      1.01160991        0.543593203E-2      1.07060122   
    0.610000000        0.163077321E-3      1.01162619        0.575165905E-2      1.07106971   
    0.620000000        0.163536740E-3      1.01164251        0.609298216E-2      1.07156048   
    0.630000000        0.163998109E-3      1.01165889        0.646272042E-2      1.07207467   
    0.640000000        0.164461439E-3      1.01167530        0.686407208E-2      1.07261348   
    0.650000000        0.164926742E-3      1.01169176        0.730067383E-2      1.07317809   
    0.660000000        0.165394028E-3      1.01170827        0.777667004E-2      1.07376970   
    0.670000000        0.165863309E-3      1.01172483        0.829679385E-2      1.07438944   
    0.680000000        0.166334596E-3      1.01174143        0.886646210E-2      1.07503839   
    0.690000000        0.166807902E-3      1.01175808        0.949188594E-2      1.07571745   
    0.700000000        0.167283237E-3      1.01177478        0.101801997E-1      1.07642732   
    0.710000000        0.167760613E-3      1.01179153        0.109396102E-1      1.07716835   
    0.720000000        0.168240042E-3      1.01180832        0.117795676E-1      1.07794039   
    0.730000000        0.168721536E-3      1.01182516        0.127109602E-1      1.07874263   
    0.740000000        0.169205107E-3      1.01184205        0.137463308E-1      1.07957325   
    0.750000000        0.169690766E-3      1.01185899        0.149001118E-1      1.08042910   
    0.760000000        0.170178526E-3      1.01187597        0.161888683E-1      1.08130520   
    0.770000000        0.170668399E-3      1.01189301        0.176315313E-1      1.08219407   
    0.780000000        0.171160398E-3      1.01191009        0.192495855E-1      1.08308485   
    0.790000000        0.171654534E-3      1.01192723        0.210671540E-1      1.08396218   
    0.800000000        0.172150820E-3      1.01194441        0.231108838E-1      1.08480466   
    0.810000000        0.172649268E-3      1.01196164        0.254094814E-1      1.08558305   
    0.820000000        0.173149892E-3      1.01197893        0.279926682E-1      1.08625786   
    0.830000000        0.173652704E-3      1.01199626        0.308892203E-1      1.08677664   
    0.840000000        0.174157717E-3      1.01201364        0.341236315E-1      1.08707095   
    0.850000000        0.174664944E-3      1.01203108        0.377108212E-1      1.08705352   
    0.860000000        0.175174397E-3      1.01204856        0.416482766E-1      1.08661638   
    0.870000000        0.175686091E-3      1.01206610        0.459052221E-1      1.08563151   
    0.880000000        0.176200037E-3      1.01208368        0.504091049E-1      1.08395629   
    0.890000000        0.176716250E-3      1.01210132        0.550311834E-1      1.08144652   
    0.900000000        0.177234743E-3      1.01211901        0.595754360E-1      1.07797954   
    0.910000000        0.177755529E-3      1.01213675        0.637778428E-1      1.07348772   
    0.920000000        0.178278622E-3      1.01215455        0.673244715E-1      1.06799678   
    0.930000000        0.178804036E-3      1.01217239        0.698936822E-1      1.06165693   
    0.940000000        0.179331784E-3      1.01219029        0.712180615E-1      1.05474944   
    0.950000000        0.179861881E-3      1.01220824        0.711482650E-1      1.04765602   
    0.960000000        0.180394340E-3      1.01222625        0.696930954E-1      1.04079354   
    0.970000000        0.180929176E-3      1.01224431        0.670170567E-1      1.03453560   
    0.980000000        0.181466402E-3      1.01226242        0.633965788E-1      1.02915024   
    0.990000000        0.182006034E-3      1.01228058        0.591551899E-1      1.02477347   
     1.00000000        0.182548085E-3      1.01229880        0.546030713E-1      1.02141928   
     1.01000000        0.183092571E-3      1.01231708        0.499974443E-1      1.01901234   
     1.02000000        0.183639505E-3      1.01233541        0.455268554E-1      1.01742626   
     1.03000000        0.184188903E-3      1.01235379        0.413134065E-1      1.01651611   
     1.04000000        0.184740779E-3      1.01237223        0.374244907E-1      1.01614033   
     1.05000000        0.185295149E-3      1.01239072        0.338872598E-1      1.01617293   
     1.06000000        0.185852028E-3      1.01240927        0.307019022E-1      1.01650816   
     1.07000000        0.186411430E-3      1.01242787        0.278521521E-1      1.01706090   
     1.08000000        0.186973372E-3      1.01244653        0.253128472E-1      1.01776455   
     1.09000000        0.187537868E-3      1.01246525        0.230549818E-1      1.01856819   
     1.10000000        0.188104935E-3      1.01248403        0.210488709E-1      1.01943357   
     1.11000000        0.188674588E-3      1.01250286        0.192659927E-1      1.02033236   
     1.12000000        0.189246842E-3      1.01252174        0.176799576E-1      1.02124391   
     1.13000000        0.189821715E-3      1.01254069        0.162669254E-1      1.02215342   
     1.14000000        0.190399221E-3      1.01255969        0.150056931E-1      1.02305043   
     1.15000000        0.190979378E-3      1.01257875        0.138775945E-1      1.02392777   
     1.16000000        0.191562200E-3      1.01259787        0.128663061E-1      1.02478069   
     1.17000000        0.192147706E-3      1.01261704        0.119576112E-1      1.02560620   
     1.18000000        0.192735911E-3      1.01263628        0.111391567E-1      1.02640263   
     1.19000000        0.193326833E-3      1.01265557        0.104002204E-1      1.02716922   
     1.20000000        0.193920487E-3      1.01267493        0.973149590E-2      1.02790592   
     1.21000000        0.194516892E-3      1.01269434        0.912490110E-2      1.02861311   
     1.22000000        0.195116063E-3      1.01271381        0.857340934E-2      1.02929152   
     1.23000000        0.195718019E-3      1.01273334        0.807090247E-2      1.02994209   
     1.24000000        0.196322777E-3      1.01275294        0.761204410E-2      1.03056591   
     1.25000000        0.196930354E-3      1.01277259        0.719217067E-2      1.03116412   
     1.26000000        0.197540768E-3      1.01279230        0.680719817E-2      1.03173793   
     1.27000000        0.198154036E-3      1.01281208        0.645354239E-2      1.03228853   
     1.28000000        0.198770178E-3      1.01283192        0.612805082E-2      1.03281712   
     1.29000000        0.199389210E-3      1.01285181        0.582794440E-2      1.03332484   
     1.30000000        0.200011151E-3      1.01287177        0.555076784E-2      1.03381282   
     1.31000000        0.200636019E-3      1.01289180        0.529434700E-2      1.03428214   
     1.32000000        0.201263833E-3      1.01291188        0.505675245E-2      1.03473381   
     1.33000000        0.201894612E-3      1.01293203        0.483626821E-2      1.03516881   
     1.34000000        0.202528374E-3      1.01295224        0.463136482E-2      1.03558806   
     1.35000000        0.203165138E-3      1.01297252        0.444067621E-2      1.03599244   
     1.36000000        0.203804924E-3      1.01299285        0.426297977E-2      1.03638276   
     1.37000000        0.204447750E-3      1.01301326        0.409717901E-2      1.03675981   
     1.38000000        0.205093636E-3      1.01303372        0.394228867E-2      1.03712431   
     1.39000000        0.205742602E-3      1.01305426        0.379742174E-2      1.03747694   
     1.40000000        0.206394668E-3      1.01307485        0.366177815E-2      1.03781836   
     1.41000000        0.207049853E-3      1.01309551        0.353463496E-2      1.03814917   
     1.42000000        0.207708177E-3      1.01311624        0.341533775E-2      1.03846994   
     1.43000000        0.208369660E-3      1.01313703        0.330329315E-2      1.03878120   
     1.44000000        0.209034324E-3      1.01315789        0.319796220E-2      1.03908347   
     1.45000000        0.209702188E-3      1.01317882        0.309885461E-2      1.03937721   
     1.46000000        0.210373274E-3      1.01319981        0.300552362E-2      1.03966287   
     1.47000000        0.211047601E-3      1.01322087        0.291756157E-2      1.03994086   
     1.48000000        0.211725192E-3      1.01324200        0.283459586E-2      1.04021159   
     1.49000000        0.212406067E-3      1.01326320        0.275628550E-2      1.04047543   
     1.50000000        0.213090248E-3      1.01328446        0.268231796E-2      1.04073272   
     1.51000000        0.213777756E-3      1.01330579        0.261240640E-2      1.04098380   
     1.52000000        0.214468614E-3      1.01332719        0.254628725E-2      1.04122897   
     1.53000000        0.215162843E-3      1.01334866        0.248371795E-2      1.04146854   
     1.54000000        0.215860465E-3      1.01337020        0.242447506E-2      1.04170278   
     1.55000000        0.216561502E-3      1.01339181        0.236835246E-2      1.04193194   
     1.56000000        0.217265978E-3      1.01341349        0.231515979E-2      1.04215629   
     1.57000000        0.217973914E-3      1.01343524        0.226472107E-2      1.04237605   
     1.58000000        0.218685334E-3      1.01345706        0.221687341E-2      1.04259145   
     1.59000000        0.219400261E-3      1.01347896        0.217146586E-2      1.04280270   
     1.60000000        0.220118717E-3      1.01350092        0.212835842E-2      1.04300999   
     1.61000000        0.220840727E-3      1.01352296        0.208742109E-2      1.04321352   
     1.62000000        0.221566314E-3      1.01354507        0.204853305E-2      1.04341347   
     1.63000000        0.222295502E-3      1.01356725        0.201158189E-2      1.04361000   
     1.64000000        0.223028315E-3      1.01358950        0.197646294E-2      1.04380328   
     1.65000000        0.223764777E-3      1.01361183        0.194307863E-2      1.04399347   
     1.66000000        0.224504913E-3      1.01363423        0.191133796E-2      1.04418070   
     1.67000000        0.225248747E-3      1.01365670        0.188115593E-2      1.04436513   
     1.68000000        0.225996304E-3      1.01367925        0.185245314E-2      1.04454687   
     1.69000000        0.226747609E-3      1.01370188        0.182515532E-2      1.04472607   
     1.70000000        0.227502688E-3      1.01372458        0.179919295E-2      1.04490283   
     1.71000000        0.228261566E-3      1.01374735        0.177450093E-2      1.04507728   
     1.72000000        0.229024269E-3      1.01377021        0.175101820E-2      1.04524953   
     1.73000000        0.229790823E-3      1.01379313        0.172868751E-2      1.04541967   
     1.74000000        0.230561253E-3      1.01381614        0.170745511E-2      1.04558782   
     1.75000000        0.231335587E-3      1.01383922        0.168727050E-2      1.04575407   
     1.76000000        0.232113851E-3      1.01386238        0.166808622E-2      1.04591851   
     1.77000000        0.232896072E-3      1.01388562        0.164985761E-2      1.04608122   
     1.78000000        0.233682277E-3      1.01390893        0.163254266E-2      1.04624230   
     1.79000000        0.234472493E-3      1.01393233        0.161610178E-2      1.04640182   
     1.80000000        0.235266748E-3      1.01395580        0.160049768E-2      1.04655987   
     1.81000000        0.236065069E-3      1.01397935        0.158569520E-2      1.04671651   
     1.82000000        0.236867486E-3      1.01400299        0.157166115E-2      1.04687182   
     1.83000000        0.237674025E-3      1.01402670        0.155836422E-2      1.04702587   
     1.84000000        0.238484716E-3      1.01405049        0.154577485E-2      1.04717873   
     1.85000000        0.239299587E-3      1.01407437        0.153386507E-2      1.04733045   
     1.86000000        0.240118667E-3      1.01409832        0.152260849E-2      1.04748110   
     1.87000000        0.240941987E-3      1.01412236        0.151198011E-2      1.04763074   
     1.88000000        0.241769574E-3      1.01414648        0.150195630E-2      1.04777942   
     1.89000000        0.242601460E-3      1.01417069        0.149251468E-2      1.04792721   
     1.90000000        0.243437673E-3      1.01419498        0.148363406E-2      1.04807415   
     1.91000000        0.244278246E-3      1.01421935        0.147529438E-2      1.04822030   
     1.92000000        0.245123207E-3      1.01424380        0.146747661E-2      1.04836570   
     1.93000000        0.245972589E-3      1.01426834        0.146016271E-2      1.04851041   
     1.94000000        0.246826421E-3      1.01429297        0.145333559E-2      1.04865447   
     1.95000000        0.247684737E-3      1.01431768        0.144697902E-2      1.04879792   
     1.96000000        0.248547567E-3      1.01434247        0.144107760E-2      1.04894081   
     1.97000000        0.249414943E-3      1.01436736        0.143561673E-2      1.04908318   
     1.98000000        0.250286898E-3      1.01439233        0.143058253E-2      1.04922507   
     1.99000000        0.251163464E-3      1.01441738        0.142596184E-2      1.04936652   
     2.00000000        0.252044675E-3      1.01444253        0.142174212E-2      1.04950757   
     2.01000000        0.252930563E-3      1.01446776        0.141791152E-2      1.04964826   
     2.02000000        0.253821162E-3      1.01449308        0.141445871E-2      1.04978862   
     2.03000000        0.254716505E-3      1.01451849        0.141137298E-2      1.04992869   
     2.04000000        0.255616628E-3      1.01454400        0.140864413E-2      1.05006850   
     2.05000000        0.256521564E-3      1.01456959        0.140626245E-2      1.05020809   
     2.06000000        0.257431348E-3      1.01459527        0.140421874E-2      1.05034749   
     2.07000000        0.258346014E-3      1.01462104        0.140250424E-2      1.05048673   
     2.08000000        0.259265600E-3      1.01464690        0.140111061E-2      1.05062585   
     2.09000000        0.260190139E-3      1.01467286        0.140002994E-2      1.05076486   
     2.10000000        0.261119669E-3      1.01469891        0.139925472E-2      1.05090381   
     2.11000000        0.262054225E-3      1.01472505        0.139877779E-2      1.05104272   
     2.12000000        0.262993844E-3      1.01475129        0.139859236E-2      1.05118162   
     2.13000000        0.263938564E-3      1.01477762        0.139869197E-2      1.05132053   
     2.14000000        0.264888421E-3      1.01480404        0.139907050E-2      1.05145949   
     2.15000000        0.265843454E-3      1.01483056        0.139972213E-2      1.05159852   
     2.16000000        0.266803700E-3      1.01485717        0.140064132E-2      1.05173765   
     2.17000000        0.267769198E-3      1.01488389        0.140182284E-2      1.05187690   
     2.18000000        0.268739987E-3      1.01491069        0.140326171E-2      1.05201629   
     2.19000000        0.269716106E-3      1.01493760        0.140495321E-2      1.05215586   
     2.20000000        0.270697594E-3      1.01496460        0.140689289E-2      1.05229563   
     2.21000000        0.271684491E-3      1.01499170        0.140907650E-2      1.05243561   
     2.22000000        0.272676839E-3      1.01501890        0.141150004E-2      1.05257584   
     2.23000000        0.273674676E-3      1.01504620        0.141415974E-2      1.05271633   
     2.24000000        0.274678045E-3      1.01507360        0.141705202E-2      1.05285712   
     2.25000000        0.275686987E-3      1.01510110        0.142017350E-2      1.05299822   
     2.26000000        0.276701543E-3      1.01512870        0.142352101E-2      1.05313965   
     2.27000000        0.277721757E-3      1.01515640        0.142709156E-2      1.05328143   
     2.28000000        0.278747670E-3      1.01518421        0.143088233E-2      1.05342360   
     2.29000000        0.279779326E-3      1.01521211        0.143489068E-2      1.05356616   
     2.30000000        0.280816767E-3      1.01524012        0.143911415E-2      1.05370914   
     2.31000000        0.281860039E-3      1.01526824        0.144355044E-2      1.05385256   
     2.32000000        0.282909186E-3      1.01529646        0.144819737E-2      1.05399644   
     2.33000000        0.283964251E-3      1.01532478        0.145305297E-2      1.05414081   
     2.34000000        0.285025281E-3      1.01535321        0.145811536E-2      1.05428568   
     2.35000000        0.286092320E-3      1.01538175        0.146338285E-2      1.05443107   
     2.36000000        0.287165416E-3      1.01541039        0.146885385E-2      1.05457700   
     2.37000000        0.288244614E-3      1.01543914        0.147452693E-2      1.05472349   
     2.38000000        0.289329962E-3      1.01546800        0.148040078E-2      1.05487057   
     2.39000000        0.290421506E-3      1.01549696        0.148647421E-2      1.05501824   
     2.40000000        0.291519296E-3      1.01552604        0.149274616E-2      1.05516654   
     2.41000000        0.292623379E-3      1.01555522        0.149921569E-2      1.05531547   
     2.42000000        0.293733804E-3      1.01558452        0.150588197E-2      1.05546507   
     2.43000000        0.294850620E-3      1.01561393        0.151274431E-2      1.05561535   
     2.44000000        0.295973878E-3      1.01564345        0.151980209E-2      1.05576632   
     2.45000000        0.297103627E-3      1.01567308        0.152705484E-2      1.05591801   
     2.46000000        0.298239919E-3      1.01570283        0.153450217E-2      1.05607043   
     2.47000000        0.299382805E-3      1.01573269        0.154214381E-2      1.05622361   
     2.48000000        0.300532337E-3      1.01576266        0.154997958E-2      1.05637757   
     2.49000000        0.301688566E-3      1.01579275        0.155800941E-2      1.05653232   
     2.50000000        0.302851547E-3      1.01582295        0.156623334E-2      1.05668788   
     2.51000000        0.304021332E-3      1.01585327        0.157465148E-2      1.05684427   
     2.52000000        0.305197975E-3      1.01588371        0.158326407E-2      1.05700152   
     2.53000000        0.306381532E-3      1.01591427        0.159207143E-2      1.05715963   
     2.54000000        0.307572057E-3      1.01594494        0.160107396E-2      1.05731863   
     2.55000000        0.308769605E-3      1.01597573        0.161027218E-2      1.05747854   
     2.56000000        0.309974234E-3      1.01600665        0.161966669E-2      1.05763938   
     2.57000000        0.311185999E-3      1.01603768        0.162925819E-2      1.05780116   
     2.58000000        0.312404958E-3      1.01606884        0.163904745E-2      1.05796392   
     2.59000000        0.313631170E-3      1.01610011        0.164903536E-2      1.05812765   
     2.60000000        0.314864692E-3      1.01613151        0.165922287E-2      1.05829239   
     2.61000000        0.316105585E-3      1.01616304        0.166961105E-2      1.05845816   
     2.62000000        0.317353907E-3      1.01619469        0.168020104E-2      1.05862497   
     2.63000000        0.318609719E-3      1.01622646        0.169099408E-2      1.05879285   
     2.64000000        0.319873083E-3      1.01625836        0.170199150E-2      1.05896181   
     2.65000000        0.321144059E-3      1.01629038        0.171319470E-2      1.05913188   
     2.66000000        0.322422711E-3      1.01632254        0.172460519E-2      1.05930307   
     2.67000000        0.323709101E-3      1.01635482        0.173622457E-2      1.05947541   
     2.68000000        0.325003293E-3      1.01638723        0.174805453E-2      1.05964892   
     2.69000000        0.326305351E-3      1.01641977        0.176009683E-2      1.05982361   
     2.70000000        0.327615341E-3      1.01645243        0.177235335E-2      1.05999951   
     2.71000000        0.328933327E-3      1.01648523        0.178482605E-2      1.06017664   
     2.72000000        0.330259377E-3      1.01651817        0.179751697E-2      1.06035502   
     2.73000000        0.331593558E-3      1.01655123        0.181042827E-2      1.06053468   
     2.74000000        0.332935937E-3      1.01658443        0.182356218E-2      1.06071563   
     2.75000000        0.334286583E-3      1.01661777        0.183692104E-2      1.06089789   
     2.76000000        0.335645566E-3      1.01665123        0.185050728E-2      1.06108150   
     2.77000000        0.337012954E-3      1.01668484        0.186432342E-2      1.06126647   
     2.78000000        0.338388820E-3      1.01671858        0.187837210E-2      1.06145282   
     2.79000000        0.339773235E-3      1.01675246        0.189265604E-2      1.06164058   
     2.80000000        0.341166270E-3      1.01678648        0.190717807E-2      1.06182976   
     2.81000000        0.342568001E-3      1.01682064        0.192194113E-2      1.06202041   
     2.82000000        0.343978499E-3      1.01685493        0.193694824E-2      1.06221253   
     2.83000000        0.345397840E-3      1.01688937        0.195220255E-2      1.06240615   
     2.84000000        0.346826100E-3      1.01692395        0.196770732E-2      1.06260130   
     2.85000000        0.348263355E-3      1.01695868        0.198346590E-2      1.06279801   
     2.86000000        0.349709682E-3      1.01699355        0.199948177E-2      1.06299628   
     2.87000000        0.351165160E-3      1.01702856        0.201575851E-2      1.06319617   
     2.88000000        0.352629867E-3      1.01706372        0.203229983E-2      1.06339768   
     2.89000000        0.354103883E-3      1.01709902        0.204910955E-2      1.06360084   
     2.90000000        0.355587290E-3      1.01713448        0.206619162E-2      1.06380569   
     2.91000000        0.357080168E-3      1.01717008        0.208355011E-2      1.06401224   
     2.92000000        0.358582601E-3      1.01720583        0.210118921E-2      1.06422053   
     2.93000000        0.360094671E-3      1.01724173        0.211911324E-2      1.06443058   
     2.94000000        0.361616464E-3      1.01727778        0.213732667E-2      1.06464243   
     2.95000000        0.363148065E-3      1.01731399        0.215583409E-2      1.06485609   
     2.96000000        0.364689560E-3      1.01735035        0.217464023E-2      1.06507160   
     2.97000000        0.366241037E-3      1.01738686        0.219374998E-2      1.06528900   
     2.98000000        0.367802584E-3      1.01742353        0.221316834E-2      1.06550830   
     2.99000000        0.369374290E-3      1.01746035        0.223290050E-2      1.06572954   
     3.00000000        0.370956247E-3      1.01749734        0.225295178E-2      1.06595276   
     3.01000000        0.372548544E-3      1.01753448        0.227332767E-2      1.06617797   
     3.02000000        0.374151276E-3      1.01757178        0.229403381E-2      1.06640522   
     3.03000000        0.375764536E-3      1.01760924        0.231507601E-2      1.06663454   
     3.04000000        0.377388417E-3      1.01764686        0.233646025E-2      1.06686596   
     3.05000000        0.379023018E-3      1.01768464        0.235819271E-2      1.06709952   
     3.06000000        0.380668433E-3      1.01772259        0.238027972E-2      1.06733524   
     3.07000000        0.382324761E-3      1.01776070        0.240272780E-2      1.06757317   
     3.08000000        0.383992102E-3      1.01779898        0.242554368E-2      1.06781334   
     3.09000000        0.385670556E-3      1.01783743        0.244873427E-2      1.06805578   
     3.10000000        0.387360225E-3      1.01787604        0.247230669E-2      1.06830054   
     3.11000000        0.389061211E-3      1.01791483        0.249626826E-2      1.06854765   
     3.12000000        0.390773619E-3      1.01795378        0.252062655E-2      1.06879715   
     3.13000000        0.392497554E-3      1.01799290        0.254538930E-2      1.06904908   
     3.14000000        0.394233122E-3      1.01803220        0.257056452E-2      1.06930348   
     3.15000000        0.395980431E-3      1.01807167        0.259616043E-2      1.06956040   
     3.16000000        0.397739591E-3      1.01811132        0.262218552E-2      1.06981986   
     3.17000000        0.399510712E-3      1.01815114        0.264864851E-2      1.07008192   
     3.18000000        0.401293906E-3      1.01819114        0.267555839E-2      1.07034661   
     3.19000000        0.403089287E-3      1.01823132        0.270292441E-2      1.07061399   
     3.20000000        0.404896968E-3      1.01827168        0.273075611E-2      1.07088409   
     3.21000000        0.406717066E-3      1.01831222        0.275906331E-2      1.07115697   
     3.22000000        0.408549698E-3      1.01835294        0.278785613E-2      1.07143267   
     3.23000000        0.410394984E-3      1.01839384        0.281714498E-2      1.07171124   
     3.24000000        0.412253043E-3      1.01843493        0.284694061E-2      1.07199272   
     3.25000000        0.414123998E-3      1.01847621        0.287725407E-2      1.07227718   
     3.26000000        0.416007973E-3      1.01851767        0.290809679E-2      1.07256465   
     3.27000000        0.417905091E-3      1.01855932        0.293948051E-2      1.07285519   
     3.28000000        0.419815480E-3      1.01860116        0.297141735E-2      1.07314886   
     3.29000000        0.421739268E-3      1.01864320        0.300391981E-2      1.07344570   
     3.30000000        0.423676584E-3      1.01868542        0.303700077E-2      1.07374579   
     3.31000000        0.425627561E-3      1.01872784        0.307067352E-2      1.07404916   
     3.32000000        0.427592331E-3      1.01877045        0.310495178E-2      1.07435588   
     3.33000000        0.429571030E-3      1.01881327        0.313984967E-2      1.07466602   
     3.34000000        0.431563793E-3      1.01885628        0.317538180E-2      1.07497963   
     3.35000000        0.433570760E-3      1.01889948        0.321156322E-2      1.07529677   
     3.36000000        0.435592070E-3      1.01894289        0.324840947E-2      1.07561751   
     3.37000000        0.437627865E-3      1.01898651        0.328593660E-2      1.07594191   
     3.38000000        0.439678290E-3      1.01903032        0.332416118E-2      1.07627004   
     3.39000000        0.441743490E-3      1.01907434        0.336310031E-2      1.07660197   
     3.40000000        0.443823613E-3      1.01911857        0.340277168E-2      1.07693778   
     3.41000000        0.445918809E-3      1.01916301        0.344319353E-2      1.07727752   
     3.42000000        0.448029228E-3      1.01920765        0.348438474E-2      1.07762128   
     3.43000000        0.450155026E-3      1.01925251        0.352636480E-2      1.07796914   
     3.44000000        0.452296357E-3      1.01929758        0.356915387E-2      1.07832116   
     3.45000000        0.454453380E-3      1.01934287        0.361277280E-2      1.07867743   
     3.46000000        0.456626254E-3      1.01938837        0.365724313E-2      1.07903803   
     3.47000000        0.458815141E-3      1.01943409        0.370258717E-2      1.07940305   
     3.48000000        0.461020207E-3      1.01948002        0.374882797E-2      1.07977256   
     3.49000000        0.463241617E-3      1.01952618        0.379598942E-2      1.08014667   
     3.50000000        0.465479540E-3      1.01957256        0.384409622E-2      1.08052545   
     3.51000000        0.467734148E-3      1.01961917        0.389317396E-2      1.08090901   
     3.52000000        0.470005615E-3      1.01966600        0.394324912E-2      1.08129743   
     3.53000000        0.472294116E-3      1.01971306        0.399434916E-2      1.08169081   
     3.54000000        0.474599829E-3      1.01976034        0.404650251E-2      1.08208926   
     3.55000000        0.476922937E-3      1.01980786        0.409973864E-2      1.08249288   
     3.56000000        0.479263621E-3      1.01985561        0.415408810E-2      1.08290177   
     3.57000000        0.481622070E-3      1.01990359        0.420958257E-2      1.08331605   
     3.58000000        0.483998470E-3      1.01995181        0.426625489E-2      1.08373582   
     3.59000000        0.486393015E-3      1.02000027        0.432413916E-2      1.08416120   
     3.60000000        0.488805897E-3      1.02004897        0.438327075E-2      1.08459231   
     3.61000000        0.491237315E-3      1.02009791        0.444368638E-2      1.08502927   
     3.62000000        0.493687467E-3      1.02014709        0.450542418E-2      1.08547221   
     3.63000000        0.496156558E-3      1.02019652        0.456852374E-2      1.08592125   
     3.64000000        0.498644792E-3      1.02024620        0.463302621E-2      1.08637653   
     3.65000000        0.501152378E-3      1.02029612        0.469897435E-2      1.08683819   
     3.66000000        0.503679529E-3      1.02034630        0.476641262E-2      1.08730636   
     3.67000000        0.506226459E-3      1.02039673        0.483538723E-2      1.08778120   
     3.68000000        0.508793387E-3      1.02044741        0.490594628E-2      1.08826284   
     3.69000000        0.511380534E-3      1.02049835        0.497813980E-2      1.08875145   
     3.70000000        0.513988125E-3      1.02054955        0.505201989E-2      1.08924718   
     3.71000000        0.516616389E-3      1.02060101        0.512764077E-2      1.08975020   
     3.72000000        0.519265556E-3      1.02065274        0.520505894E-2      1.09026068   
     3.73000000        0.521935863E-3      1.02070473        0.528433327E-2      1.09077878   
     3.74000000        0.524627548E-3      1.02075698        0.536552511E-2      1.09130470   
     3.75000000        0.527340853E-3      1.02080951        0.544869845E-2      1.09183862   
     3.76000000        0.530076026E-3      1.02086230        0.553392004E-2      1.09238072   
     3.77000000        0.532833315E-3      1.02091538        0.562125950E-2      1.09293121   
     3.78000000        0.535612977E-3      1.02096872        0.571078954E-2      1.09349029   
     3.79000000        0.538415268E-3      1.02102235        0.580258609E-2      1.09405818   
     3.80000000        0.541240450E-3      1.02107625        0.589672845E-2      1.09463508   
     3.81000000        0.544088791E-3      1.02113044        0.599329952E-2      1.09522124   
     3.82000000        0.546960560E-3      1.02118492        0.609238597E-2      1.09581687   
     3.83000000        0.549856033E-3      1.02123968        0.619407845E-2      1.09642223   
     3.84000000        0.552775490E-3      1.02129473        0.629847183E-2      1.09703756   
     3.85000000        0.555719214E-3      1.02135007        0.640566541E-2      1.09766313   
     3.86000000        0.558687494E-3      1.02140571        0.651576320E-2      1.09829920   
     3.87000000        0.561680624E-3      1.02146164        0.662887418E-2      1.09894605   
     3.88000000        0.564698901E-3      1.02151788        0.674511260E-2      1.09960397   
     3.89000000        0.567742630E-3      1.02157441        0.686459826E-2      1.10027326   
     3.90000000        0.570812119E-3      1.02163126        0.698745688E-2      1.10095422   
     3.91000000        0.573907680E-3      1.02168840        0.711382041E-2      1.10164719   
     3.92000000        0.577029634E-3      1.02174586        0.724382746E-2      1.10235249   
     3.93000000        0.580178305E-3      1.02180363        0.737762366E-2      1.10307047   
     3.94000000        0.583354023E-3      1.02186172        0.751536214E-2      1.10380149   
     3.95000000        0.586557122E-3      1.02192012        0.765720394E-2      1.10454592   
     3.96000000        0.589787946E-3      1.02197884        0.780331856E-2      1.10530416   
     3.97000000        0.593046841E-3      1.02203789        0.795388448E-2      1.10607661   
     3.98000000        0.596334162E-3      1.02209727        0.810908976E-2      1.10686369   
     3.99000000        0.599650267E-3      1.02215697        0.826913261E-2      1.10766583   
     4.00000000        0.602995524E-3      1.02221700        0.843422213E-2      1.10848349   
     4.01000000        0.606370306E-3      1.02227737        0.860457899E-2      1.10931715   
     4.02000000        0.609774992E-3      1.02233808        0.878043622E-2      1.11016729   
     4.03000000        0.613209969E-3      1.02239912        0.896204005E-2      1.11103444   
     4.04000000        0.616675631E-3      1.02246052        0.914965083E-2      1.11191914   
     4.05000000        0.620172379E-3      1.02252225        0.934354402E-2      1.11282193   
     4.06000000        0.623700621E-3      1.02258434        0.954401124E-2      1.11374341   
     4.07000000        0.627260774E-3      1.02264678        0.975136140E-2      1.11468419   
     4.08000000        0.630853261E-3      1.02270958        0.996592203E-2      1.11564490   
     4.09000000        0.634478516E-3      1.02277273        0.101880405E-1      1.11662622   
     4.10000000        0.638136978E-3      1.02283625        0.104180858E-1      1.11762883   
     4.11000000        0.641829097E-3      1.02290014        0.106564496E-1      1.11865347   
     4.12000000        0.645555329E-3      1.02296439        0.109035485E-1      1.11970090   
     4.13000000        0.649316143E-3      1.02302902        0.111598258E-1      1.12077191   
     4.14000000        0.653112013E-3      1.02309402        0.114257534E-1      1.12186735   
     4.15000000        0.656943425E-3      1.02315941        0.117018342E-1      1.12298810   
     4.16000000        0.660810875E-3      1.02322517        0.119886045E-1      1.12413506   
     4.17000000        0.664714867E-3      1.02329132        0.122866370E-1      1.12530921   
     4.18000000        0.668655917E-3      1.02335787        0.125965432E-1      1.12651157   
     4.19000000        0.672634551E-3      1.02342481        0.129189771E-1      1.12774318   
     4.20000000        0.676651306E-3      1.02349214        0.132546385E-1      1.12900518   
     4.21000000        0.680706730E-3      1.02355988        0.136042771E-1      1.13029874   
     4.22000000        0.684801382E-3      1.02362802        0.139686968E-1      1.13162510   
     4.23000000        0.688935836E-3      1.02369657        0.143487602E-1      1.13298556   
     4.24000000        0.693110674E-3      1.02376554        0.147453940E-1      1.13438148   
     4.25000000        0.697326492E-3      1.02383492        0.151595948E-1      1.13581433   
     4.26000000        0.701583902E-3      1.02390473        0.155924355E-1      1.13728562   
     4.27000000        0.705883525E-3      1.02397496        0.160450722E-1      1.13879696   
     4.28000000        0.710225998E-3      1.02404562        0.165187522E-1      1.14035005   
     4.29000000        0.714611972E-3      1.02411672        0.170148225E-1      1.14194669   
     4.30000000        0.719042114E-3      1.02418825        0.175347397E-1      1.14358877   
     4.31000000        0.723517104E-3      1.02426023        0.180800808E-1      1.14527830   
     4.32000000        0.728037639E-3      1.02433265        0.186525549E-1      1.14701740   
     4.33000000        0.732604431E-3      1.02440553        0.192540169E-1      1.14880832   
     4.34000000        0.737218210E-3      1.02447886        0.198864825E-1      1.15065344   
     4.35000000        0.741879724E-3      1.02455265        0.205521448E-1      1.15255528   
     4.36000000        0.746589737E-3      1.02462691        0.212533934E-1      1.15451653   
     4.37000000        0.751349031E-3      1.02470164        0.219928359E-1      1.15654002   
     4.38000000        0.756158410E-3      1.02477685        0.227733210E-1      1.15862877   
     4.39000000        0.761018696E-3      1.02485254        0.235979666E-1      1.16078598   
     4.40000000        0.765930731E-3      1.02492871        0.244701893E-1      1.16301505   
     4.41000000        0.770895379E-3      1.02500537        0.253937397E-1      1.16531960   
     4.42000000        0.775913525E-3      1.02508253        0.263727412E-1      1.16770348   
     4.43000000        0.780986079E-3      1.02516019        0.274117351E-1      1.17017077   
     4.44000000        0.786113971E-3      1.02523836        0.285157306E-1      1.17272583   
     4.45000000        0.791298160E-3      1.02531704        0.296902636E-1      1.17537327   
     4.46000000        0.796539626E-3      1.02539624        0.309414627E-1      1.17811801   
     4.47000000        0.801839377E-3      1.02547596        0.322761250E-1      1.18096528   
     4.48000000        0.807198450E-3      1.02555621        0.337018038E-1      1.18392064   
     4.49000000        0.812617908E-3      1.02563700        0.352269087E-1      1.18698997   
     4.50000000        0.818098845E-3      1.02571833        0.368608215E-1      1.19017954   
     4.51000000        0.823642383E-3      1.02580020        0.386140303E-1      1.19349595   
     4.52000000        0.829249680E-3      1.02588263        0.404982839E-1      1.19694622   
     4.53000000        0.834921925E-3      1.02596562        0.425267720E-1      1.20053771   
     4.54000000        0.840660340E-3      1.02604917        0.447143340E-1      1.20427817   
     4.55000000        0.846466184E-3      1.02613330        0.470777018E-1      1.20817571   
     4.56000000        0.852340756E-3      1.02621801        0.496357839E-1      1.21223874   
     4.57000000        0.858285390E-3      1.02630330        0.524099965E-1      1.21647596   
     4.58000000        0.864301463E-3      1.02638919        0.554246506E-1      1.22089624   
     4.59000000        0.870390393E-3      1.02647568        0.587074055E-1      1.22550851   
     4.60000000        0.876553644E-3      1.02656277        0.622897992E-1      1.23032158   
     4.61000000        0.882792724E-3      1.02665048        0.662078692E-1      1.23534388   
     4.62000000        0.889109191E-3      1.02673882        0.705028787E-1      1.24058312   
     4.63000000        0.895504653E-3      1.02682778        0.752221633E-1      1.24604582   
     4.64000000        0.901980769E-3      1.02691738        0.804201149E-1      1.25173664   
     4.65000000        0.908539255E-3      1.02700763        0.861593193E-1      1.25765748   
     4.66000000        0.915181885E-3      1.02709853        0.925118577E-1      1.26380628   
     4.67000000        0.921910492E-3      1.02719009        0.995607795E-1      1.27017541   
     4.68000000        0.928726973E-3      1.02728232        0.107401732         1.27674944   
     4.69000000        0.935633291E-3      1.02737524        0.116144710         1.28350223   
     4.70000000        0.942631478E-3      1.02746884        0.125915839         1.29039297   
     4.71000000        0.949723640E-3      1.02756314        0.136859029         1.29736099   
     4.72000000        0.956911960E-3      1.02765814        0.149137198         1.30431882   
     4.73000000        0.964198701E-3      1.02775386        0.162932581         1.31114315   
     4.74000000        0.971586209E-3      1.02785031        0.178445338         1.31766324   
     4.75000000        0.979076923E-3      1.02794749        0.195889181         1.32364614   
     4.76000000        0.986673371E-3      1.02804542        0.215482188         1.32877880   
     4.77000000        0.994378183E-3      1.02814410        0.237430064         1.33264709   
     4.78000000        0.100219409E-2      1.02824355        0.261898232         1.33471368   
     4.79000000        0.101012394E-2      1.02834378        0.288968352         1.33429821   
     4.80000000        0.101817069E-2      1.02844479        0.318574937         1.33056734   
     4.81000000        0.102633742E-2      1.02854661        0.350420027         1.32254717   
     4.82000000        0.103462733E-2      1.02864924        0.383870320         1.30917580   
     4.83000000        0.104304379E-2      1.02875269        0.417854042         1.28941775   
     4.84000000        0.105159026E-2      1.02885698        0.450794187         1.26245519   
     4.85000000        0.106027041E-2      1.02896211        0.480634476         1.22794888   
     4.86000000        0.106908803E-2      1.02906811        0.505018001         1.18631670   
     4.87000000        0.107804710E-2      1.02917498        0.521643137         1.13892582   
     4.88000000        0.108715179E-2      1.02928275        0.528738541         1.08807354   
     4.89000000        0.109640644E-2      1.02939141        0.525503405         1.03668589   
     4.90000000        0.110581561E-2      1.02950099        0.512326108        0.987792522   
     4.91000000        0.111538408E-2      1.02961151        0.490676750        0.943962466   
     4.92000000        0.112511686E-2      1.02972297        0.462725801        0.906909045   
     4.93000000        0.113501920E-2      1.02983539        0.430859969        0.877373175   
     4.94000000        0.114509664E-2      1.02994880        0.397272078        0.855254058   
     4.95000000        0.115535496E-2      1.03006320        0.363719026        0.839871265   
     4.96000000        0.116580028E-2      1.03017861        0.331447767        0.830240609   
     4.97000000        0.117643901E-2      1.03029506        0.301236398        0.825292869   
     4.98000000        0.118727793E-2      1.03041255        0.273489716        0.824014361   
     4.99000000        0.119832418E-2      1.03053112        0.248345040        0.825519069   
     5.00000000        0.120958527E-2      1.03065077        0.225764777        0.829072950   
     5.01000000        0.122106918E-2      1.03077154        0.205607566        0.834090169   
     5.02000000        0.123278430E-2      1.03089343        0.187678380        0.840115740   
     5.03000000        0.124473954E-2      1.03101648        0.171761430        0.846803594   
     5.04000000        0.125694430E-2      1.03114070        0.157640396        0.853894953   
     5.05000000        0.126940857E-2      1.03126611        0.145109941        0.861199238   
     5.06000000        0.128214296E-2      1.03139275        0.133981535        0.868578210   
     5.07000000        0.129515869E-2      1.03152064        0.124085734        0.875933287   
     5.08000000        0.130846774E-2      1.03164980        0.115272368        0.883195640   
     5.09000000        0.132208282E-2      1.03178027        0.107409567        0.890318589   
     5.10000000        0.133601749E-2      1.03191206        0.100382227        0.897271833   
     5.11000000        0.135028620E-2      1.03204521        0.940902424E-1     0.904037095   
     5.12000000        0.136490437E-2      1.03217974        0.884467407E-1     0.910604865   
     5.13000000        0.137988849E-2      1.03231570        0.833763997E-1     0.916971962   
     5.14000000        0.139525620E-2      1.03245311        0.788139218E-1     0.923139728   
     5.15000000        0.141102638E-2      1.03259202        0.747026733E-1     0.929112684   
     5.16000000        0.142721928E-2      1.03273244        0.709934916E-1     0.934897542   
     5.17000000        0.144385664E-2      1.03287443        0.676436519E-1     0.940502469   
     5.18000000        0.146096184E-2      1.03301802        0.646159759E-1     0.945936559   
     5.19000000        0.147856003E-2      1.03316325        0.618780682E-1     0.951209440   
     5.20000000        0.149667831E-2      1.03331018        0.594016635E-1     0.956331000   
     5.21000000        0.151534593E-2      1.03345883        0.571620688E-1     0.961311180   
     5.22000000        0.153459449E-2      1.03360926        0.551376888E-1     0.966159843   
     5.23000000        0.155445817E-2      1.03376152        0.533096206E-1     0.970886677   
     5.24000000        0.157497403E-2      1.03391566        0.516613087E-1     0.975501132   
     5.25000000        0.159618226E-2      1.03407174        0.501782506E-1     0.980012391   
     5.26000000        0.161812653E-2      1.03422982        0.488477466E-1     0.984429343   
     5.27000000        0.164085438E-2      1.03438995        0.476586854E-1     0.988760586   
     5.28000000        0.166441763E-2      1.03455220        0.466013627E-1     0.993014426   
     5.29000000        0.168887282E-2      1.03471664        0.456673253E-1     0.997198894   
     5.30000000        0.171428183E-2      1.03488333        0.448492402E-1      1.00132176   
     5.31000000        0.174071239E-2      1.03505237        0.441407821E-1      1.00539054   
     5.32000000        0.176823884E-2      1.03522381        0.435365398E-1      1.00941255   
     5.33000000        0.179694288E-2      1.03539775        0.430319366E-1      1.01339490   
     5.34000000        0.182691448E-2      1.03557428        0.426231651E-1      1.01734453   
     5.35000000        0.185825286E-2      1.03575349        0.423071333E-1      1.02126824   
     5.36000000        0.189106773E-2      1.03593548        0.420814217E-1      1.02517271   
     5.37000000        0.192548053E-2      1.03612036        0.419442501E-1      1.02906452   
     5.38000000        0.196162602E-2      1.03630823        0.418944538E-1      1.03295019   
     5.39000000        0.199965405E-2      1.03649921        0.419314678E-1      1.03683620   
     5.40000000        0.203973154E-2      1.03669343        0.420553201E-1      1.04072900   
     5.41000000        0.208204487E-2      1.03689101        0.422666322E-1      1.04463508   
     5.42000000        0.212680258E-2      1.03709210        0.425666285E-1      1.04856093   
     5.43000000        0.217423851E-2      1.03729683        0.429571539E-1      1.05251313   
     5.44000000        0.222461547E-2      1.03750537        0.434407000E-1      1.05649833   
     5.45000000        0.227822951E-2      1.03771786        0.440204407E-1      1.06052329   
     5.46000000        0.233541487E-2      1.03793446        0.447002787E-1      1.06459493   
     5.47000000        0.239654978E-2      1.03815536        0.454849023E-1      1.06872028   
     5.48000000        0.246206326E-2      1.03838071        0.463798554E-1      1.07290660   
     5.49000000        0.253244304E-2      1.03861070        0.473916221E-1      1.07716132   
     5.50000000        0.260824485E-2      1.03884549        0.485277269E-1      1.08149208   
     5.51000000        0.269010330E-2      1.03908526        0.497968540E-1      1.08590677   
     5.52000000        0.277874460E-2      1.03933014        0.512089884E-1      1.09041350   
     5.53000000        0.287500136E-2      1.03958029        0.527755821E-1      1.09502061   
     5.54000000        0.297982987E-2      1.03983580        0.545097497E-1      1.09973667   
     5.55000000        0.309433000E-2      1.04009672        0.564264982E-1      1.10457046   
     5.56000000        0.321976808E-2      1.04036305        0.585429978E-1      1.10953090   
     5.57000000        0.335760276E-2      1.04063467        0.608788986E-1      1.11462697   
     5.58000000        0.350951365E-2      1.04091134        0.634567036E-1      1.11986765   
     5.59000000        0.367743229E-2      1.04119263        0.663022055E-1      1.12526173   
     5.60000000        0.386357373E-2      1.04147786        0.694449986E-1      1.13081758   
     5.61000000        0.407046617E-2      1.04176601        0.729190766E-1      1.13654287   
     5.62000000        0.430097353E-2      1.04205558        0.767635292E-1      1.14244411   
     5.63000000        0.455830268E-2      1.04234447        0.810233487E-1      1.14852611   
     5.64000000        0.484598165E-2      1.04262974        0.857503572E-1      1.15479114   
     5.65000000        0.516778743E-2      1.04290738        0.910042599E-1      1.16123789   
     5.66000000        0.552759127E-2      1.04317199        0.968538210E-1      1.16785999   
     5.67000000        0.592907456E-2      1.04341640        0.103378141         1.17464407   
     5.68000000        0.637525242E-2      1.04363129        0.110667988         1.18156715   
     5.69000000        0.686772738E-2      1.04380483        0.118827076         1.18859313   
     5.70000000        0.740559586E-2      1.04392248        0.127973125         1.19566818   
     5.71000000        0.798396541E-2      1.04396718        0.138238375         1.20271466   
     5.72000000        0.859214843E-2      1.04392019        0.149769076         1.20962327   
     5.73000000        0.921181615E-2      1.04376303        0.162723131         1.21624300   
     5.74000000        0.981573259E-2      1.04348079        0.177264703         1.22236875   
     5.75000000        0.103680454E-1      1.04306663        0.193553998         1.22772666   
     5.76000000        0.108272112E-1      1.04252675        0.211729775         1.23195803   
     5.77000000        0.111520718E-1      1.04188407        0.231881521         1.23460381   
     5.78000000        0.113101884E-1      1.04117816        0.254007984         1.23509445   
     5.79000000        0.112858165E-1      1.04046034        0.277959822         1.23275262   
     5.80000000        0.110841871E-1      1.03978456        0.303367702         1.22682105   
     5.81000000        0.107300581E-1      1.03919734        0.329565024         1.21653061   
     5.82000000        0.102612415E-1      1.03873039        0.355527337         1.20122229   
     5.83000000        0.972003993E-2      1.03839819        0.379865731         1.18052443   
     5.84000000        0.914579100E-2      1.03819999        0.400919490         1.15455874   
     5.85000000        0.857032563E-2      1.03812439        0.416977793         1.12410994   
     5.86000000        0.801645049E-2      1.03815422        0.426609507         1.09066783   
     5.87000000        0.749855744E-2      1.03827058        0.429008106         1.05627079   
     5.88000000        0.702427486E-2      1.03845538        0.424214368         1.02316114   
     5.89000000        0.659634856E-2      1.03869276        0.413113238        0.993363824   
     5.90000000        0.621430872E-2      1.03896951        0.397206660        0.968346047   
     5.91000000        0.587576179E-2      1.03927510        0.378268345        0.948866763   
     5.92000000        0.557730554E-2      1.03960131        0.358017454        0.935023214   
     5.93000000        0.531513322E-2      1.03994191        0.337902112        0.926422020   
     5.94000000        0.508540704E-2      1.04029223        0.319011714        0.922383709   
     5.95000000        0.488447213E-2      1.04064885        0.302087234        0.922116667   
     5.96000000        0.470896611E-2      1.04100928        0.287584230        0.924834904   
     5.97000000        0.455586333E-2      1.04137177        0.275751564        0.929821361   
     5.98000000        0.442248036E-2      1.04173508        0.266704070        0.936450342   
     5.99000000        0.430645998E-2      1.04209840        0.260480013        0.944183957   
     6.00000000        0.420574433E-2      1.04246120        0.257081697        0.952554107   
     6.01000000        0.411854389E-2      1.04282319        0.256500764        0.961137431   
     6.02000000        0.404330598E-2      1.04318423        0.258730358        0.969527362   
     6.03000000        0.397868478E-2      1.04354427        0.263765498        0.977305498   
     6.04000000        0.392351405E-2      1.04390338        0.271591786        0.984013838   
     6.05000000        0.387678274E-2      1.04426168        0.282161248        0.989130004   
     6.06000000        0.383761358E-2      1.04461931        0.295353366        0.992049433   
     6.07000000        0.380524455E-2      1.04497645        0.310919883        0.992081631   
     6.08000000        0.377901284E-2      1.04533332        0.328415044        0.988471562   
     6.09000000        0.375834111E-2      1.04569011        0.347120157        0.980460379   
     6.10000000        0.374272574E-2      1.04604704        0.365983453        0.967398458   
     6.11000000        0.373172679E-2      1.04640432        0.383610766        0.948912182   
     6.12000000        0.372495940E-2      1.04676218        0.398350435        0.925099647   
     6.13000000        0.372208645E-2      1.04712082        0.408501592        0.896693683   
     6.14000000        0.372281233E-2      1.04748045        0.412627124        0.865104833   
     6.15000000        0.372687759E-2      1.04784129        0.409883670        0.832275400   
     6.16000000        0.373405431E-2      1.04820352        0.400237408        0.800352241   
     6.17000000        0.374414222E-2      1.04856735        0.384464858        0.771283449   
     6.18000000        0.375696529E-2      1.04893296        0.363938017        0.746489667   
     6.19000000        0.377236884E-2      1.04930054        0.340293694        0.726716161   
     6.20000000        0.379021706E-2      1.04967027        0.315118428        0.712074552   
     6.21000000        0.381039083E-2      1.05004232        0.289737371        0.702205932   
     6.22000000        0.383278584E-2      1.05041688        0.265126617        0.696478012   
     6.23000000        0.385731104E-2      1.05079410        0.241920179        0.694154373   
     6.24000000        0.388388716E-2      1.05117416        0.220468256        0.694510730   
     6.25000000        0.391244558E-2      1.05155721        0.200911218        0.696899684   
     6.26000000        0.394292721E-2      1.05194343        0.183248316        0.700777057   
     6.27000000        0.397528162E-2      1.05233296        0.167392436        0.705704397   
     6.28000000        0.400946623E-2      1.05272597        0.153209645        0.711339098   
     6.29000000        0.404544560E-2      1.05312261        0.140545721        0.717419622   
     6.30000000        0.408319086E-2      1.05352303        0.129242804        0.723750060   
     6.31000000        0.412267918E-2      1.05392740        0.119149123        0.730186119   
     6.32000000        0.416389329E-2      1.05433586        0.110124119        0.736623274   
     6.33000000        0.420682112E-2      1.05474857        0.102040667        0.742987205   
     6.34000000        0.425145544E-2      1.05516568        0.947855588E-1     0.749226270   
     6.35000000        0.429779361E-2      1.05558734        0.882589898E-1     0.755305713   
     6.36000000        0.434583726E-2      1.05601372        0.823735426E-1     0.761203245   
     6.37000000        0.439559215E-2      1.05644496        0.770529545E-1     0.766905712   
     6.38000000        0.444706797E-2      1.05688124        0.722308407E-1     0.772406591   
     6.39000000        0.450027817E-2      1.05732269        0.678494674E-1     0.777704131   
     6.40000000        0.455523990E-2      1.05776950        0.638586238E-1     0.782799956   
     6.41000000        0.461197389E-2      1.05822182        0.602146102E-1     0.787698043   
     6.42000000        0.467050438E-2      1.05867981        0.568793481E-1     0.792403961   
     6.43000000        0.473085910E-2      1.05914365        0.538196043E-1     0.796924309   
     6.44000000        0.479306926E-2      1.05961351        0.510063211E-1     0.801266308   
     6.45000000        0.485716953E-2      1.06008956        0.484140400E-1     0.805437506   
     6.46000000        0.492319809E-2      1.06057198        0.460204080E-1     0.809445563   
     6.47000000        0.499119668E-2      1.06106095        0.438057546E-1     0.813298097   
     6.48000000        0.506121066E-2      1.06155667        0.417527305E-1     0.817002579   
     6.49000000        0.513328910E-2      1.06205932        0.398459981E-1     0.820566259   
     6.50000000        0.520748490E-2      1.06256909        0.380719674E-1     0.823996122   
     6.51000000        0.528385494E-2      1.06308619        0.364185688E-1     0.827298856   
     6.52000000        0.536246023E-2      1.06361083        0.348750590E-1     0.830480838   
     6.53000000        0.544336611E-2      1.06414320        0.334318540E-1     0.833548127   
     6.54000000        0.552664247E-2      1.06468354        0.320803850E-1     0.836506467   
     6.55000000        0.561236398E-2      1.06523206        0.308129748E-1     0.839361292   
     6.56000000        0.570061041E-2      1.06578900        0.296227304E-1     0.842117735   
     6.57000000        0.579146695E-2      1.06635458        0.285034509E-1     0.844780641   
     6.58000000        0.588502455E-2      1.06692906        0.274495461E-1     0.847354579   
     6.59000000        0.598138036E-2      1.06751269        0.264559678E-1     0.849843857   
     6.60000000        0.608063822E-2      1.06810572        0.255181480E-1     0.852252534   
     6.61000000        0.618290916E-2      1.06870843        0.246319463E-1     0.854584434   
     6.62000000        0.628831200E-2      1.06932109        0.237936032E-1     0.856843163   
     6.63000000        0.639697408E-2      1.06994399        0.229996998E-1     0.859032117   
     6.64000000        0.650903201E-2      1.07057742        0.222471215E-1     0.861154501   
     6.65000000        0.662463253E-2      1.07122169        0.215330272E-1     0.863213334   
     6.66000000        0.674393358E-2      1.07187712        0.208548213E-1     0.865211468   
     6.67000000        0.686710539E-2      1.07254405        0.202101295E-1     0.867151591   
     6.68000000        0.699433187E-2      1.07322279        0.195967772E-1     0.869036245   
     6.69000000        0.712581204E-2      1.07391372        0.190127707E-1     0.870867829   
     6.70000000        0.726176184E-2      1.07461720        0.184562799E-1     0.872648612   
     6.71000000        0.740241611E-2      1.07533359        0.179256241E-1     0.874380738   
     6.72000000        0.754803090E-2      1.07606330        0.174192581E-1     0.876066239   
     6.73000000        0.769888617E-2      1.07680673        0.169357612E-1     0.877707036   
     6.74000000        0.785528889E-2      1.07756428        0.164738268E-1     0.879304948   
     6.75000000        0.801757661E-2      1.07833639        0.160322531E-1     0.880861700   
     6.76000000        0.818612168E-2      1.07912349        0.156099356E-1     0.882378927   
     6.77000000        0.836133607E-2      1.07992604        0.152058598E-1     0.883858176   
     6.78000000        0.854367694E-2      1.08074449        0.148190958E-1     0.885300914   
     6.79000000        0.873365314E-2      1.08157930        0.144487928E-1     0.886708532   
     6.80000000        0.893183257E-2      1.08243092        0.140941751E-1     0.888082343   
     6.81000000        0.913885063E-2      1.08329980        0.137545384E-1     0.889423589   
     6.82000000        0.935541957E-2      1.08418639        0.134292469E-1     0.890733440   
     6.83000000        0.958233890E-2      1.08509108        0.131177308E-1     0.892012992   
     6.84000000        0.982050633E-2      1.08601423        0.128194840E-1     0.893263267   
     6.85000000        0.100709287E-1      1.08695613        0.125340619E-1     0.894485210   
     6.86000000        0.103347322E-1      1.08791697        0.122610783E-1     0.895679678   
     6.87000000        0.106131690E-1      1.08889679        0.120002009E-1     0.896847439   
     6.88000000        0.109076187E-1      1.08989545        0.117511442E-1     0.897989149   
     6.89000000        0.112195781E-1      1.09091253        0.115136569E-1     0.899105349   
     6.90000000        0.115506339E-1      1.09194727        0.112875032E-1     0.900196434   
     6.91000000        0.119024060E-1      1.09299849        0.110724315E-1     0.901262643   
     6.92000000        0.122764488E-1      1.09406439        0.108681291E-1     0.902304039   
     6.93000000        0.126740901E-1      1.09514255        0.106741576E-1     0.903320502   
     6.94000000        0.130961884E-1      1.09622972        0.104898687E-1     0.904311750   
     6.95000000        0.135427842E-1      1.09732182        0.103143057E-1     0.905277390   
     6.96000000        0.140126338E-1      1.09841402        0.101461100E-1     0.906217037   
     6.97000000        0.145026384E-1      1.09950094        0.998346609E-2     0.907130497   
     6.98000000        0.150072438E-1      1.10057731        0.982413482E-2     0.908017998   
     6.99000000        0.155179895E-1      1.10163896        0.966561882E-2     0.908880436   
     7.00000000        0.160235164E-1      1.10268431        0.950547004E-2     0.909719534   
     7.01000000        0.165104101E-1      1.10371604        0.934168518E-2     0.910537829   
     7.02000000        0.169651146E-1      1.10474243        0.917307397E-2     0.911338448   
     7.03000000        0.173767057E-1      1.10577760        0.899947178E-2     0.912124699   
     7.04000000        0.177397062E-1      1.10684006        0.882171993E-2     0.912899620   
     7.05000000        0.180557908E-1      1.10794973        0.864142611E-2     0.913665594   
     7.06000000        0.183335699E-1      1.10912445        0.846059499E-2     0.914424164   
     7.07000000        0.185865572E-1      1.11037728        0.828125033E-2     0.915176031   
     7.08000000        0.188302539E-1      1.11171544        0.810514702E-2     0.915921220   
     7.09000000        0.190794853E-1      1.11314079        0.793361682E-2     0.916659310   
     7.10000000        0.193466918E-1      1.11465139        0.776753723E-2     0.917389661   
     7.11000000        0.196412868E-1      1.11624318        0.760738254E-2     0.918111589   
     7.12000000        0.199697984E-1      1.11791143        0.745331247E-2     0.918824470   
     7.13000000        0.203364198E-1      1.11965171        0.730526549E-2     0.919527804   
     7.14000000        0.207436678E-1      1.12146044        0.716303923E-2     0.920221223   
     7.15000000        0.211929837E-1      1.12333504        0.702635181E-2     0.920904489   
     7.16000000        0.216852078E-1      1.12527399        0.689488477E-2     0.921577475   
     7.17000000        0.222209228E-1      1.12727673        0.676831106E-2     0.922240144   
     7.18000000        0.228006875E-1      1.12934354        0.664631193E-2     0.922892532   
     7.19000000        0.234251879E-1      1.13147538        0.652858632E-2     0.923534728   
     7.20000000        0.240953317E-1      1.13367382        0.641485527E-2     0.924166859   
     7.21000000        0.248123066E-1      1.13594096        0.630486325E-2     0.924789081   
     7.22000000        0.255776157E-1      1.13827931        0.619837780E-2     0.925401569   
     7.23000000        0.263931006E-1      1.14069175        0.609518814E-2     0.926004511   
     7.24000000        0.272609594E-1      1.14318153        0.599510333E-2     0.926598103   
     7.25000000        0.281837628E-1      1.14575222        0.589795033E-2     0.927182542   
     7.26000000        0.291644716E-1      1.14840770        0.580357208E-2     0.927758030   
     7.27000000        0.302064575E-1      1.15115214        0.571182565E-2     0.928324765   
     7.28000000        0.313135284E-1      1.15399003        0.562258066E-2     0.928882946   
     7.29000000        0.324899595E-1      1.15692617        0.553571775E-2     0.929432764   
     7.30000000        0.337405297E-1      1.15996568        0.545112735E-2     0.929974412   
     7.31000000        0.350705663E-1      1.16311402        0.536870849E-2     0.930508073   
     7.32000000        0.364859964E-1      1.16637700        0.528836789E-2     0.931033930   
     7.33000000        0.379934084E-1      1.16976083        0.521001906E-2     0.931552158   
     7.34000000        0.396001222E-1      1.17327209        0.513358156E-2     0.932062928   
     7.35000000        0.413142721E-1      1.17691778        0.505898041E-2     0.932566407   
     7.36000000        0.431449013E-1      1.18070537        0.498614546E-2     0.933062757   
     7.37000000        0.451020727E-1      1.18464278        0.491501098E-2     0.933552134   
     7.38000000        0.471969953E-1      1.18873843        0.484551519E-2     0.934034692   
     7.39000000        0.494421719E-1      1.19300127        0.477759989E-2     0.934510577   
     7.40000000        0.518515687E-1      1.19744080        0.471121017E-2     0.934979933   
     7.41000000        0.544408124E-1      1.20206705        0.464629412E-2     0.935442900   
     7.42000000        0.572274183E-1      1.20689067        0.458280254E-2     0.935899613   
     7.43000000        0.602310557E-1      1.21192287        0.452068876E-2     0.936350203   
     7.44000000        0.634738562E-1      1.21717545        0.445990842E-2     0.936794798   
     7.45000000        0.669807721E-1      1.22266077        0.440041932E-2     0.937233520   
     7.46000000        0.707799959E-1      1.22839172        0.434218122E-2     0.937666492   
     7.47000000        0.749034485E-1      1.23438160        0.428515576E-2     0.938093828   
     7.48000000        0.793873516E-1      1.24064409        0.422930627E-2     0.938515644   
     7.49000000        0.842728964E-1      1.24719300        0.417459769E-2     0.938932048   
     7.50000000        0.896070268E-1      1.25404207        0.412099646E-2     0.939343150   
     7.51000000        0.954433569E-1      1.26120459        0.406847044E-2     0.939749052   
     7.52000000        0.101843244         1.26869296        0.401698879E-2     0.940149857   
     7.53000000        0.108877039         1.27651798        0.396652194E-2     0.940545663   
     7.54000000        0.116625550         1.28468794        0.391704146E-2     0.940936566   
     7.55000000        0.125181724         1.29320739        0.386852003E-2     0.941322660   
     7.56000000        0.134652596         1.30207542        0.382093141E-2     0.941704036   
     7.57000000        0.145161488         1.31128340        0.377425030E-2     0.942080782   
     7.58000000        0.156850482         1.32081188        0.372845236E-2     0.942452985   
     7.59000000        0.169883090         1.33062644        0.368351414E-2     0.942820730   
     7.60000000        0.184447056         1.34067218        0.363941304E-2     0.943184098   
     7.61000000        0.200757049         1.35086632        0.359612724E-2     0.943543169   
     7.62000000        0.219056893         1.36108842        0.355363571E-2     0.943898021   
     7.63000000        0.239620691         1.37116758        0.351191813E-2     0.944248730   
     7.64000000        0.262751782         1.38086574        0.347095487E-2     0.944595370   
     7.65000000        0.288777889         1.38985653        0.343072698E-2     0.944938014   
     7.66000000        0.318039883         1.39769896        0.339121614E-2     0.945276731   
     7.67000000        0.350870474         1.40380629        0.335240463E-2     0.945611591   
     7.68000000        0.387557638         1.40741151        0.331427530E-2     0.945942661   
     7.69000000        0.428286267         1.40753410        0.327681157E-2     0.946270007   
     7.70000000        0.473050985         1.40295708        0.323999738E-2     0.946593692   
     7.71000000        0.521535031         1.39223081        0.320381718E-2     0.946913778   
     7.72000000        0.572957474         1.37372879        0.316825591E-2     0.947230328   
     7.73000000        0.625907160         1.34578772        0.313329898E-2     0.947543400   
     7.74000000        0.678208845         1.30696185        0.309893225E-2     0.947853053   
     7.75000000        0.726899656         1.25639667        0.306514200E-2     0.948159343   
     7.76000000        0.768412834         1.19426943        0.303191493E-2     0.948462327   
     7.77000000        0.799036211         1.12216169        0.299923815E-2     0.948762059   
     7.78000000        0.815608412         1.04316960        0.296709915E-2     0.949058591   
     7.79000000        0.816261929        0.961594415        0.293548577E-2     0.949351975   
     7.80000000        0.800920617        0.882222869        0.290438622E-2     0.949642264   
     7.81000000        0.771320857        0.809426331        0.287378906E-2     0.949929505   
     7.82000000        0.730546039        0.746415581        0.284368317E-2     0.950213748   
     7.83000000        0.682292008        0.694894906        0.281405774E-2     0.950495041   
     7.84000000        0.630157986        0.655143004        0.278490228E-2     0.950773429   
     7.85000000        0.577165665        0.626371955        0.275620660E-2     0.951048958   
     7.86000000        0.525554964        0.607168344        0.272796077E-2     0.951321674   
     7.87000000        0.476794481        0.595875303        0.270015515E-2     0.951591618   
     7.88000000        0.431709788        0.590856814        0.267278038E-2     0.951858835   
     7.89000000        0.390648999        0.590646032        0.264582734E-2     0.952123365   
     7.90000000        0.353637608        0.594006587        0.261928715E-2     0.952385251   
     7.91000000        0.320502373        0.599939525        0.259315118E-2     0.952644531   
     7.92000000        0.290961110        0.607661824        0.256741104E-2     0.952901245   
     7.93000000        0.264683105        0.616573509        0.254205855E-2     0.953155432   
     7.94000000        0.241327176        0.626223071        0.251708575E-2     0.953407129   
     7.95000000        0.220564012        0.636275935        0.249248489E-2     0.953656373   
     7.96000000        0.202088052        0.646487783        0.246824842E-2     0.953903200   
     7.97000000        0.185622752        0.656682955        0.244436899E-2     0.954147645   
     7.98000000        0.170921859        0.666737466        0.242083945E-2     0.954389744   
     7.99000000        0.157768415        0.676565890        0.239765280E-2     0.954629531   
     8.00000000        0.145972593        0.686111365        0.237480225E-2     0.954867038   
     8.01000000        0.135369017        0.695338045        0.235228117E-2     0.955102298   
     8.02000000        0.125813966        0.704225426        0.233008310E-2     0.955335344   
     8.03000000        0.117182684        0.712764110        0.230820174E-2     0.955566207   
     8.04000000        0.109366890        0.720952649        0.228663094E-2     0.955794917   
     8.05000000        0.102272557        0.728795200        0.226536472E-2     0.956021506   
     8.06000000        0.958179447E-1     0.736299788        0.224439723E-2     0.956246002   
     8.07000000        0.899318900E-1     0.743477028        0.222372276E-2     0.956468435   
     8.08000000        0.845523337E-1     0.750339184        0.220333577E-2     0.956688834   
     8.09000000        0.796250502E-1     0.756899482        0.218323081E-2     0.956907225   
     8.10000000        0.751025612E-1     0.763171611        0.216340259E-2     0.957123638   
     8.11000000        0.709432066E-1     0.769169364        0.214384594E-2     0.957338099   
     8.12000000        0.671103504E-1     0.774906389        0.212455581E-2     0.957550634   
     8.13000000        0.635717030E-1     0.780396010        0.210552727E-2     0.957761270   
     8.14000000        0.602987413E-1     0.785651111        0.208675551E-2     0.957970031   
     8.15000000        0.572662131E-1     0.790684060        0.206823583E-2     0.958176944   
     8.16000000        0.544517123E-1     0.795506662        0.204996365E-2     0.958382032   
     8.17000000        0.518353144E-1     0.800130142        0.203193446E-2     0.958585320   
     8.18000000        0.493992639E-1     0.804565136        0.201414390E-2     0.958786831   
     8.19000000        0.471277044E-1     0.808821697        0.199658768E-2     0.958986590   
     8.20000000        0.450064461E-1     0.812909313        0.197926162E-2     0.959184618   
     8.21000000        0.430227653E-1     0.816836920        0.196216163E-2     0.959380938   
     8.22000000        0.411652301E-1     0.820612931        0.194528371E-2     0.959575573   
     8.23000000        0.394235497E-1     0.824245259        0.192862397E-2     0.959768544   
     8.24000000        0.377884428E-1     0.827741341        0.191217857E-2     0.959959872   
     8.25000000        0.362515238E-1     0.831108169        0.189594378E-2     0.960149579   
     8.26000000        0.348052025E-1     0.834352311        0.187991596E-2     0.960337684   
     8.27000000        0.334425968E-1     0.837479940        0.186409152E-2     0.960524209   
     8.28000000        0.321574566E-1     0.840496859        0.184846699E-2     0.960709173   
     8.29000000        0.309440958E-1     0.843408520        0.183303893E-2     0.960892596   
     8.30000000        0.297973340E-1     0.846220051        0.181780401E-2     0.961074497   
     8.31000000        0.287124434E-1     0.848936277        0.180275896E-2     0.961254894   
     8.32000000        0.276851034E-1     0.851561735        0.178790058E-2     0.961433807   
     8.33000000        0.267113597E-1     0.854100698        0.177322572E-2     0.961611254   
     8.34000000        0.257875879E-1     0.856557191        0.175873134E-2     0.961787252   
     8.35000000        0.249104615E-1     0.858935003        0.174441442E-2     0.961961820   
     8.36000000        0.240769233E-1     0.861237711        0.173027203E-2     0.962134975   
     8.37000000        0.232841600E-1     0.863468686        0.171630129E-2     0.962306733   
     8.38000000        0.225295795E-1     0.865631110        0.170249939E-2     0.962477112   
     8.39000000        0.218107904E-1     0.867727988        0.168886357E-2     0.962646129   
     8.40000000        0.211255840E-1     0.869762159        0.167539113E-2     0.962813799   
     8.41000000        0.204719179E-1     0.871736307        0.166207943E-2     0.962980138   
     8.42000000        0.198479013E-1     0.873652970        0.164892587E-2     0.963145163   
     8.43000000        0.192517816E-1     0.875514550        0.163592792E-2     0.963308889   
     8.44000000        0.186819331E-1     0.877323324        0.162308309E-2     0.963471331   
     8.45000000        0.181368458E-1     0.879081447        0.161038895E-2     0.963632504   
     8.46000000        0.176151158E-1     0.880790962        0.159784310E-2     0.963792423   
     8.47000000        0.171154365E-1     0.882453808        0.158544322E-2     0.963951102   
     8.48000000        0.166365910E-1     0.884071823        0.157318700E-2     0.964108556   
     8.49000000        0.161774443E-1     0.885646756        0.156107220E-2     0.964264799   
     8.50000000        0.157369375E-1     0.887180267        0.154909663E-2     0.964419845   
     8.51000000        0.153140812E-1     0.888673931        0.153725812E-2     0.964573707   
     8.52000000        0.149079504E-1     0.890129252        0.152555455E-2     0.964726400   
     8.53000000        0.145176797E-1     0.891547655        0.151398385E-2     0.964877935   
     8.54000000        0.141424584E-1     0.892930502        0.150254398E-2     0.965028327   
     8.55000000        0.137815269E-1     0.894279087        0.149123296E-2     0.965177588   
     8.56000000        0.134341724E-1     0.895594645        0.148004882E-2     0.965325730   
     8.57000000        0.130997260E-1     0.896878352        0.146898964E-2     0.965472767   
     8.58000000        0.127775590E-1     0.898131331        0.145805355E-2     0.965618710   
     8.59000000        0.124670807E-1     0.899354655        0.144723869E-2     0.965763572   
     8.60000000        0.121677349E-1     0.900549346        0.143654325E-2     0.965907364   
     8.61000000        0.118789982E-1     0.901716382        0.142596546E-2     0.966050098   
     8.62000000        0.116003774E-1     0.902856698        0.141550358E-2     0.966191787   
     8.63000000        0.113314074E-1     0.903971188        0.140515588E-2     0.966332440   
     8.64000000        0.110716496E-1     0.905060705        0.139492070E-2     0.966472070   
     8.65000000        0.108206898E-1     0.906126069        0.138479639E-2     0.966610688   
     8.66000000        0.105781366E-1     0.907168062        0.137478132E-2     0.966748303   
     8.67000000        0.103436203E-1     0.908187435        0.136487391E-2     0.966884928   
     8.68000000        0.101167911E-1     0.909184908        0.135507260E-2     0.967020573   
     8.69000000        0.989731784E-2     0.910161169        0.134537586E-2     0.967155248   
     8.70000000        0.968488708E-2     0.911116879        0.133578219E-2     0.967288963   
     8.71000000        0.947920178E-2     0.912052673        0.132629012E-2     0.967421729   
     8.72000000        0.927998033E-2     0.912969159        0.131689819E-2     0.967553556   
     8.73000000        0.908695563E-2     0.913866923        0.130760499E-2     0.967684453   
     8.74000000        0.889987418E-2     0.914746525        0.129840911E-2     0.967814430   
     8.75000000        0.871849526E-2     0.915608506        0.128930919E-2     0.967943497   
     8.76000000        0.854259019E-2     0.916453383        0.128030388E-2     0.968071663   
     8.77000000        0.837194158E-2     0.917281656        0.127139186E-2     0.968198938   
     8.78000000        0.820634270E-2     0.918093805        0.126257182E-2     0.968325331   
     8.79000000        0.804559685E-2     0.918890290        0.125384249E-2     0.968450850   
     8.80000000        0.788951679E-2     0.919671557        0.124520262E-2     0.968575505   
     8.81000000        0.773792420E-2     0.920438033        0.123665096E-2     0.968699304   
     8.82000000        0.759064915E-2     0.921190131        0.122818632E-2     0.968822257   
     8.83000000        0.744752968E-2     0.921928247        0.121980750E-2     0.968944371   
     8.84000000        0.730841131E-2     0.922652765        0.121151332E-2     0.969065656   
     8.85000000        0.717314668E-2     0.923364054        0.120330265E-2     0.969186119   
     8.86000000        0.704159511E-2     0.924062469        0.119517435E-2     0.969305769   
     8.87000000        0.691362228E-2     0.924748354        0.118712731E-2     0.969424614   
     8.88000000        0.678909984E-2     0.925422041        0.117916044E-2     0.969542662   
     8.89000000        0.666790518E-2     0.926083850        0.117127266E-2     0.969659921   
     8.90000000        0.654992102E-2     0.926734088        0.116346293E-2     0.969776398   
     8.91000000        0.643503524E-2     0.927373056        0.115573020E-2     0.969892102   
     8.92000000        0.632314052E-2     0.928001042        0.114807345E-2     0.970007039   
     8.93000000        0.621413416E-2     0.928618323        0.114049168E-2     0.970121218   
     8.94000000        0.610791780E-2     0.929225169        0.113298391E-2     0.970234646   
     8.95000000        0.600439724E-2     0.929821842        0.112554917E-2     0.970347330   
     8.96000000        0.590348221E-2     0.930408592        0.111818649E-2     0.970459277   
     8.97000000        0.580508616E-2     0.930985664        0.111089495E-2     0.970570495   
     8.98000000        0.570912612E-2     0.931553294        0.110367362E-2     0.970680990   
     8.99000000        0.561552250E-2     0.932111710        0.109652160E-2     0.970790769   
     9.00000000        0.552419890E-2     0.932661133        0.108943798E-2     0.970899839   
     9.01000000        0.543508202E-2     0.933201777        0.108242190E-2     0.971008208   
     9.02000000        0.534810145E-2     0.933733850        0.107547248E-2     0.971115881   
     9.03000000        0.526318958E-2     0.934257552        0.106858889E-2     0.971222865   
     9.04000000        0.518028143E-2     0.934773080        0.106177028E-2     0.971329167   
     9.05000000        0.509931456E-2     0.935280620        0.105501582E-2     0.971434793   
     9.06000000        0.502022894E-2     0.935780358        0.104832472E-2     0.971539749   
     9.07000000        0.494296682E-2     0.936272469        0.104169617E-2     0.971644042   
     9.08000000        0.486747267E-2     0.936757127        0.103512939E-2     0.971747678   
     9.09000000        0.479369303E-2     0.937234498        0.102862360E-2     0.971850663   
     9.10000000        0.472157647E-2     0.937704746        0.102217806E-2     0.971953003   
     9.11000000        0.465107343E-2     0.938168026        0.101579200E-2     0.972054704   
     9.12000000        0.458213623E-2     0.938624493        0.100946470E-2     0.972155771   
     9.13000000        0.451471889E-2     0.939074295        0.100319542E-2     0.972256211   
     9.14000000        0.444877714E-2     0.939517576        0.996983460E-3     0.972356030   
     9.15000000        0.438426827E-2     0.939954475        0.990828113E-3     0.972455232   
     9.16000000        0.432115113E-2     0.940385130        0.984728688E-3     0.972553824   
     9.17000000        0.425938603E-2     0.940809672        0.978684505E-3     0.972651811   
     9.18000000        0.419893467E-2     0.941228231        0.972694892E-3     0.972749198   
     9.19000000        0.413976011E-2     0.941640931        0.966759190E-3     0.972845992   
     9.20000000        0.408182668E-2     0.942047893        0.960876748E-3     0.972942196   
     9.21000000        0.402509997E-2     0.942449237        0.955046927E-3     0.973037817   
     9.22000000        0.396954673E-2     0.942845077        0.949269097E-3     0.973132860   
     9.23000000        0.391513485E-2     0.943235526        0.943542636E-3     0.973227330   
     9.24000000        0.386183332E-2     0.943620691        0.937866932E-3     0.973321232   
     9.25000000        0.380961216E-2     0.944000680        0.932241384E-3     0.973414570   
     9.26000000        0.375844241E-2     0.944375595        0.926665398E-3     0.973507351   
     9.27000000        0.370829606E-2     0.944745537        0.921138389E-3     0.973599578   
     9.28000000        0.365914603E-2     0.945110605        0.915659782E-3     0.973691257   
     9.29000000        0.361096613E-2     0.945470892        0.910229009E-3     0.973782392   
     9.30000000        0.356373102E-2     0.945826493        0.904845512E-3     0.973872989   
     9.31000000        0.351741617E-2     0.946177498        0.899508739E-3     0.973963051   
     9.32000000        0.347199788E-2     0.946523995        0.894218149E-3     0.974052584   
     9.33000000        0.342745316E-2     0.946866069        0.888973205E-3     0.974141592   
     9.34000000        0.338375978E-2     0.947203806        0.883773382E-3     0.974230079   
     9.35000000        0.334089620E-2     0.947537286        0.878618160E-3     0.974318050   
     9.36000000        0.329884155E-2     0.947866589        0.873507028E-3     0.974405510   
     9.37000000        0.325757564E-2     0.948191794        0.868439481E-3     0.974492462   
     9.38000000        0.321707888E-2     0.948512975        0.863415022E-3     0.974578912   
     9.39000000        0.317733228E-2     0.948830207        0.858433161E-3     0.974664862   
     9.40000000        0.313831745E-2     0.949143562        0.853493416E-3     0.974750319   
     9.41000000        0.310001654E-2     0.949453110        0.848595309E-3     0.974835284   
     9.42000000        0.306241227E-2     0.949758920        0.843738373E-3     0.974919764   
     9.43000000        0.302548785E-2     0.950061060        0.838922145E-3     0.975003762   
     9.44000000        0.298922701E-2     0.950359594        0.834146167E-3     0.975087281   
     9.45000000        0.295361394E-2     0.950654587        0.829409992E-3     0.975170327   
     9.46000000        0.291863333E-2     0.950946101        0.824713175E-3     0.975252902   
     9.47000000        0.288427030E-2     0.951234197        0.820055280E-3     0.975335011   
     9.48000000        0.285051040E-2     0.951518935        0.815435875E-3     0.975416657   
     9.49000000        0.281733962E-2     0.951800373        0.810854536E-3     0.975497845   
     9.50000000        0.278474433E-2     0.952078568        0.806310843E-3     0.975578578   
     9.51000000        0.275271131E-2     0.952353575        0.801804384E-3     0.975658860   
     9.52000000        0.272122771E-2     0.952625449        0.797334750E-3     0.975738695   
     9.53000000        0.269028104E-2     0.952894243        0.792901540E-3     0.975818085   
     9.54000000        0.265985918E-2     0.953160008        0.788504358E-3     0.975897036   
     9.55000000        0.262995032E-2     0.953422797        0.784142812E-3     0.975975550   
     9.56000000        0.260054301E-2     0.953682657        0.779816518E-3     0.976053630   
     9.57000000        0.257162610E-2     0.953939638        0.775525093E-3     0.976131281   
     9.58000000        0.254318875E-2     0.954193788        0.771268164E-3     0.976208506   
     9.59000000        0.251522043E-2     0.954445152        0.767045360E-3     0.976285308   
     9.60000000        0.248771088E-2     0.954693776        0.762856316E-3     0.976361691   
     9.61000000        0.246065013E-2     0.954939705        0.758700672E-3     0.976437658   
     9.62000000        0.243402847E-2     0.955182981        0.754578072E-3     0.976513212   
     9.63000000        0.240783646E-2     0.955423649        0.750488166E-3     0.976588356   
     9.64000000        0.238206491E-2     0.955661748        0.746430608E-3     0.976663095   
     9.65000000        0.235670487E-2     0.955897321        0.742405056E-3     0.976737430   
     9.66000000        0.233174764E-2     0.956130407        0.738411174E-3     0.976811365   
     9.67000000        0.230718472E-2     0.956361045        0.734448629E-3     0.976884904   
     9.68000000        0.228300787E-2     0.956589273        0.730517094E-3     0.976958049   
     9.69000000        0.225920903E-2     0.956815130        0.726616244E-3     0.977030804   
     9.70000000        0.223578037E-2     0.957038651        0.722745760E-3     0.977103171   
     9.71000000        0.221271426E-2     0.957259872        0.718905327E-3     0.977175154   
     9.72000000        0.219000325E-2     0.957478829        0.715094635E-3     0.977246755   
     9.73000000        0.216764011E-2     0.957695557        0.711313375E-3     0.977317977   
     9.74000000        0.214561776E-2     0.957910089        0.707561244E-3     0.977388824   
     9.75000000        0.212392931E-2     0.958122458        0.703837945E-3     0.977459298   
     9.76000000        0.210256806E-2     0.958332696        0.700143181E-3     0.977529402   
     9.77000000        0.208152745E-2     0.958540837        0.696476660E-3     0.977599139   
     9.78000000        0.206080111E-2     0.958746910        0.692838096E-3     0.977668512   
     9.79000000        0.204038281E-2     0.958950947        0.689227203E-3     0.977737523   
     9.80000000        0.202026647E-2     0.959152977        0.685643703E-3     0.977806175   
     9.81000000        0.200044618E-2     0.959353030        0.682087317E-3     0.977874472   
     9.82000000        0.198091615E-2     0.959551134        0.678557772E-3     0.977942415   
     9.83000000        0.196167075E-2     0.959747319        0.675054799E-3     0.978010007   
     9.84000000        0.194270448E-2     0.959941611        0.671578131E-3     0.978077251   
     9.85000000        0.192401195E-2     0.960134038        0.668127504E-3     0.978144149   
     9.86000000        0.190558795E-2     0.960324626        0.664702660E-3     0.978210705   
     9.87000000        0.188742734E-2     0.960513403        0.661303342E-3     0.978276921   
     9.88000000        0.186952513E-2     0.960700392        0.657929295E-3     0.978342798   
     9.89000000        0.185187644E-2     0.960885621        0.654580271E-3     0.978408340   
     9.90000000        0.183447651E-2     0.961069113        0.651256022E-3     0.978473550   
     9.91000000        0.181732069E-2     0.961250892        0.647956303E-3     0.978538429   
     9.92000000        0.180040444E-2     0.961430983        0.644680875E-3     0.978602980   
     9.93000000        0.178372331E-2     0.961609409        0.641429498E-3     0.978667205   
     9.94000000        0.176727297E-2     0.961786192        0.638201939E-3     0.978731107   
     9.95000000        0.175104918E-2     0.961961356        0.634997964E-3     0.978794689   
     9.96000000        0.173504781E-2     0.962134922        0.631817344E-3     0.978857952   
     9.97000000        0.171926480E-2     0.962306913        0.628659854E-3     0.978920899   
     9.98000000        0.170369621E-2     0.962477349        0.625525268E-3     0.978983532   
     9.99000000        0.168833816E-2     0.962646252        0.622413366E-3     0.979045853   
     10.0000000        0.167318688E-2     0.962813641        0.619323930E-3     0.979107865   
# 
# 12/09/2020 at 00:25 yambo @ VivoBook [start]
# 12/09/2020 at 00:25                  [end]
#
# .-Input file  yambo.in
# | optics                           # [R] Linear Response optical properties
# | bss                              # [R] BSE solver
# | bse                              # [R][BSE] Bethe Salpeter Equation.
# | tddft                            # [R][K] Use TDDFT kernel
# | ElecTemp= 0.025861         eV    # Electronic Temperature
# | BoseTemp= 0.025861         eV    # Bosonic Temperature
# | FFTGvecs=  9999            RL    # [FFT] Plane-waves
# | BS_nCPU_LinAlg_INV= 1            # [PARALLEL] CPUs for Linear Algebra (if -1 it is automatically set)
# | BS_nCPU_LinAlg_DIAGO= 1          # [PARALLEL] CPUs for Linear Algebra (if -1 it is automatically set)
# | X_Threads= 1                     # [OPENMP/X] Number of threads for response functions
# | DIP_Threads= 1                   # [OPENMP/X] Number of threads for dipoles
# | K_Threads= 1                     # [OPENMP/BSK] Number of threads for response functions
# | BSEmod= "coupling"               # [BSE] resonant/retarded/coupling
# | BSKmod= "ALDA"                   # [BSE] IP/Hartree/HF/ALDA/SEX/BSfxc
# | BSSmod= "s"                      # [BSS] (h)aydock/(d)iagonalization/(i)nversion/(t)ddft`
# | DipComputed= "R V P"             # [DIP] [default R P V; extra P2 Spin Orb]
# | BSENGexx= 2003             RL    # [BSK] Exchange components
# | BSEprop= "abs kerr dos esrt"     # [BSE] abs/kerr/magn/dichr trace
# | % BSEQptR
# |  1 | 1 |                             # [BSK] Transferred momenta range
# | %
# | % BSEBands
# |  12 | 18 |                           # [BSK] Bands range
# | %
# | % BEnRange
# | -10.00000 | 10.00000 |         eV    # [BSS] Energy range
# | %
# | % BDmRange
# |  0.100000 | 0.100000 |         eV    # [BSS] Damping range
# | %
# | BEnSteps= 2001                   # [BSS] Energy steps
# | % BLongDir
# |  0.100000E-4 |  0.00000    |  0.00000    # [BSS] [cc] Electric Field
# | %
# | #WRbsWF                        # [BSS] Write to disk excitonic the WFs
# | BSSNEig= 15                      # [SLEPC] Number of eigenvalues to compute
# | BSSEnTarget= 8.000000      eV    # [SLEPC] Target energy to find eigenvalues
# | BSSSlepcApproach= "Krylov-Schur" # [SLEPC] Approach ("Krylov-Schur","Generalized-Davidson","Jacob-Davidson")
# | BSSSlepcMaxIt= 1000              # [SLEPC] Maximum number of iterations
# | BSSSlepcMatrix                 # [SLEPC] Store slepc matrix, faster but more memory consuming
