                                                                          
     ____  ____     _       ____    ____  ______      ___                 
    |_  _||_  _|   / \     |_   \  /   _||_   _ \   ."   `.               
      \ \  / /    / _ \      |   \/   |    | |_) | /  .-.  \              
       \ \/ /    / ___ \     | |\  /| |    |  __". | |   | |              
       _|  |_  _/ /   \ \_  _| |_\/_| |_  _| |__) |\  `-"  /              
      |______||____| |____||_____||_____||_______/  `.___."               
                                                                          
                                                                          
                                                                          
          Version 4.5.0 Revision 18068 Hash 2b0c3aab2                     
                       Branch is develop                                  
                           MPI Build                                      
                   http://www.yambo-code.org                              
 
 03/30/2020 at 12:22 yambo @ marini-Galago-UltraPro
 ==================================================

 Cores               :  1
 Threads per core    :  1
 Threads total       :  1
 Nodes Computing     :  1
 Nodes IO            :  1

 Fragmented WFs      : yes
 CORE databases      : .
 Additional I/O      : .
 Communications      : .
 Input file          : yambo.in
 Report file         : ./r-04_ip_qp_abs_optics_dipoles_chi
 Fat (verbose) log   : no
 Log files           : ./LOG

 Job   string        : 04_ip_qp_abs
 Alt#1 string        : R3

 Precision           : SINGLE
  
 [RD./SAVE//ns.db1]--------------------------------------------------------------
  Bands                                            :  19
  K-points                                         :  1
  G-vectors                                        :  113637 [RL space]
  Components                                       :  14229 [wavefunctions]
  Symmetries                                       :   8 [spatial+T-rev]
  Spinor components                                :  1
  Spin polarizations                               :  2
  Temperature                                      :  0.025852 [ev]
  Electrons                                        :  31.00000
  WF G-vectors                                     :  14229
  Max atoms/species                                :   6
  No. of atom species                              :  3
  Exact exchange fraction in XC                    :  0.000000
  Exact exchange screening in XC                   :  0.000000
  Magnetic symmetries                              : no
 - S/N 009310 ---------------------------------------------- v.04.05.00 r.17938 -

 [02] CORE Variables Setup
 =========================


  [02.01] Unit cells
  ==================

  Cell kind             :  Unknown
  Atoms in the cell     :  C  H  **
  number of C  atoms    :   5
  number of H  atoms    :   6
  number of ** atoms    :  1
  Alat factors          :  27.04825  28.30919  18.89726 [a.u.]

  Direct lattice volume :   14469.9    [a.u.]
  Direct lattice vectors:  A[ 1 ]  A[ 2 ]  A[ 3 ]
   A[ 1 ]:  1.000000  0.000000  0.000000  [iru]
   27.04825   0.00000   0.00000  [cc]
   A[ 2 ]:  0.000000  1.000000  0.000000  [iru]
    0.00000  28.30919   0.00000  [cc]
   A[ 3 ]:  0.000000  0.000000  1.000000  [iru]
    0.00000   0.00000  18.89726  [cc]

  Recip. lattice volume :  0.017142 [a.u.]
  Recip. lattice vectors:  B[ 1 ]  B[ 2 ]  B[ 3 ]
   B[ 1 ]:  1.000000  0.000000  0.000000  [iku]
   0.232295  0.000000  0.000000  [cc]
   B[ 2 ]:  0.000000  1.000000  0.000000  [iku]
   0.000000  0.221949  0.000000  [cc]
   B[ 3 ]:  0.000000  0.000000  1.000000  [iku]
   0.000000  0.000000  0.332492  [cc]

  [02.02] Symmetries
  ==================

  Inversion symmetry    : yes
  Spatial inversion     : no
  Inversion index       :   5
  K-space Time-reversal : yes
  Magnetic symmetries   : no
  Time-reversal derived K-space symmetries:   5   8
  Group table correct   : yes
  Symmetries units      :  [cc]

   [S 1]:  1.000000  0.000000  0.000000  0.000000  1.000000  0.000000  0.000000  0.000000  1.000000
   [S 2]: -1.000000  0.000000  0.000000  0.000000  1.000000  0.000000  0.000000  0.000000 -1.000000
   [S 3]:  1.000000  0.000000  0.000000  0.000000  1.000000  0.000000  0.000000  0.000000 -1.000000
   [S 4]: -1.000000  0.000000  0.000000  0.000000  1.000000  0.000000  0.000000  0.000000  1.000000
   [S*5]: -1.000000 -0.000000 -0.000000 -0.000000 -1.000000 -0.000000 -0.000000 -0.000000 -1.000000
   [S*6]:  1.000000 -0.000000 -0.000000 -0.000000 -1.000000 -0.000000 -0.000000 -0.000000  1.000000
   [S*7]: -1.000000 -0.000000 -0.000000 -0.000000 -1.000000 -0.000000 -0.000000 -0.000000  1.000000
   [S*8]:  1.000000 -0.000000 -0.000000 -0.000000 -1.000000 -0.000000 -0.000000 -0.000000 -1.000000

  [02.03] Reciprocal space
  ========================

  nG charge         :   9999
  nG WFs            :  14229
  nC WFs            :  14229
  G-vecs. in shell  :  [ Number ]
    1   3   5   9  11  15  19  21  29
    31   35   39   43   47   55   63   67   69
    71   73   77   81   85   93   97  105  109
   113  121  125  133  137  141  145  153  161
   169  171  179  183  191  193  197  201  205
   209  213  221  229  233  241  243  247  255
   263  267  271  275  283  291  299  307  315
    319   323   327   329   337   345   349   357   361
    365   369   373   375   383   391   399   407   411
    419   427   431   439   443   447   451   459   467
    475   483   487   495   499   507   515   519   527
    535   539   547   555   563   565   567   571   575
    579   583   587   591   599   607   615   619   627
    631   639   647   655   663   671   673   677   681
    689   693   697   705   713   721   725   733   741
    745   753   761   765   769   777   785   793   797
    801   805   813   821   829   833   837   845   853
    861   869   877   885   889   897   901   905   913
    915   923   931   939   947   955   959   967   971
    979   987   991   999  1007  1011  1019  1027  1031
   1035  1039  1041  1049  1057  1065  1069  1077  1085
   1093  1097  1105  1113  1117  1119  1123  1131  1139
   1147  1151  1155  1163  1171  1179  1183  1191  1195
   1203  1207  1215  1219  1227  1231  1235  1243  1251
   1255  1263  1271  1279  1287  1295  1303  1311  1319
   1327  1331  1335  1343  1347  1351  1359  1367  1375
   1377  1385  1393  1397  1405  1413  1417  1421  1429
   1437  1441  1449  1457  1461  1465  1473  1481  1489
   1497  1505  1513  1517  1525  1533  1537  1545  1553
   1557  1565  1567  1575  1583  1591  1595  1603  1607
   1615  1619  1627  1631  1639  1647  1651  1659  1667
   1675  1683  1691  1695  1703  1707  1711  1719  1723
   1731  1739  1747  1751  1755  1763  1771  1779  1787
   1795  1803  1807  1815  1823  1831  1839  1847  1855
   1863  1871  1875  1883  1887  1891  1899  1907  1915
   1917  1925  1927  1931  1939  1943  1951  1955  1959
   1967  1971  1979  1987  1995  2003  2011  2019  2023
   2027  2035  2043  2047  2055  2063  2071  2079  2087
   2091  2095  2099  2107  2115  2119  2127  2135  2143
   2147  2155  2163  2171  2179  2187  2195  2203  2211
   2215  2223  2225  2233  2241  2249  2253  2261  2265
   2269  2273  2281  2285  2289  2297  2305  2309  2317
   2321  2329  2337  2341  2349  2357  2365  2369  2377
   2385  2393  2397  2405  2409  2417  2425  2433  2441
   2449  2457  2465  2473  2481  2489  2497  2505  2509
   2513  2521  2529  2537  2545  2549  2557  2565  2569
   2573  2581  2585  2589  2597  2605  2613  2621  2629
   2637  2645  2653  2661  2669  2677  2685  2689  2697
   2699  2707  2715  2723  2731  2735  2743  2747  2755
   2763  2771  2775  2783  2791  2799  2803  2811  2815
   2823  2831  2835  2843  2847  2855  2859  2867  2875
   2883  2887  2891  2895  2903  2911  2919  2927  2935
   2943  2951  2959  2967  2975  2979  2987  2991  2999
   3007  3011  3015  3023  3031  3033  3041  3049  3053
   3057  3065  3073  3075  3083  3091  3099  3103  3111
    3119   3123   3131   3135   3143   3151   3159   3167   3171
    3179   3187   3195   3203   3211   3219   3227   3235   3239
    3247   3251   3259   3263   3271   3275   3283   3291   3299
    3307   3315   3323   3331   3339   3347   3355   3359   3363
    3371   3379   3387   3391   3395   3403   3411   3419   3427
    3431   3435   3443   3451   3459   3463   3467   3475   3483
    3491   3495   3503   3511   3515   3519   3523   3527   3535
    3543   3551   3553   3561   3569   3577   3585   3593   3601
    3609   3613   3621   3629   3637   3645   3653   3657   3665
    3673   3681   3689   3697   3705   3713   3721   3729   3737
    3741   3745   3753   3757   3761   3769   3777   3785   3789
    3793   3801   3809   3817   3825   3833   3841   3849   3857
    3865   3869   3873   3881   3889   3897   3905   3913   3921
    3929   3937   3945   3953   3961   3965   3969   3977   3981
    3989   3997   4005   4013   4017   4025   4033   4041   4049
    4057   4065   4067   4075   4083   4087   4095   4103   4111
    4119   4123   4131   4139   4147   4155   4159   4167   4171
    4175   4183   4187   4191   4199   4207   4215   4223   4227
    4235   4243   4251   4259   4267   4271   4279   4287   4295
    4299   4303   4311   4319   4323   4331   4339   4347   4355
    4359   4367   4375   4383   4391   4399   4407   4411   4419
    4427   4435   4443   4451   4459   4467   4471   4479   4487
    4491   4495   4503   4511   4519   4527   4535   4543   4551
    4559   4567   4569   4577   4585   4587   4595   4603   4611
    4615   4619   4623   4631   4635   4643   4647   4655   4659
    4667   4671   4679   4687   4695   4703   4711   4719   4727
    4731   4735   4743   4751   4759   4767   4775   4783   4791
    4799   4807   4815   4819   4827   4831   4835   4839   4847
    4851   4859   4867   4875   4883   4887   4895   4903   4911
    4919   4927   4935   4943   4951   4959   4963   4971   4975
    4983   4991   4999   5007   5011   5015   5019   5023   5039
    5047   5055   5059   5067   5071   5079   5087   5095   5099
    5107   5115   5123   5131   5139   5147   5155   5163   5171
    5179   5187   5195   5203   5211   5219   5223   5231   5239
    5247   5251   5259   5267   5275   5283   5291   5299   5307
    5311   5313   5321   5329   5337   5341   5349   5353   5361
    5365   5373   5381   5385   5393   5401   5409   5413   5421
    5429   5433   5441   5449   5457   5465   5473   5481   5485
    5493   5501   5505   5513   5517   5525   5529   5537   5545
    5553   5561   5569   5577   5585   5593   5601   5609   5617
    5625   5629   5637   5645   5653   5657   5665   5673   5681
    5689   5697   5701   5709   5717   5725   5733   5741   5745
    5749   5757   5765   5773   5781   5789   5793   5797   5805
    5813   5817   5825   5833   5841   5843   5851   5859   5867
    5875   5879   5887   5895   5899   5907   5915   5919   5923
    5931   5939   5947   5955   5963   5971   5979   5987   5991
    5995   6003   6007   6015   6023   6031   6039   6047   6055
    6063   6071   6079   6087   6095   6099   6107   6111   6119
    6127   6135   6139   6147   6155   6159   6167   6175   6183
    6191   6195   6203   6211   6219   6227   6235   6243   6251
    6259   6267   6275   6283   6291   6295   6303   6311   6319
    6327   6331   6335   6343   6351   6359   6367   6375   6383
    6387   6395   6403   6411   6419   6423   6431   6435   6443
    6447   6455   6463   6471   6475   6483   6491   6499   6507
    6515   6523   6527   6535   6543   6545   6553   6561   6569
    6577   6585   6589   6593   6597   6601   6605   6613   6621
    6629   6637   6645   6653   6661   6669   6677   6685   6693
    6701   6709   6717   6719   6727   6735   6743   6751   6755
    6759   6767   6771   6779   6783   6791   6799   6807   6815
    6831   6839   6847   6851   6859   6867   6875   6883   6887
    6891   6899   6907   6915   6919   6927   6931   6939   6947
    6955   6963   6971   6979   6987   6995   7003   7007   7015
    7019   7027   7035   7047   7051   7059   7063   7071   7079
    7087   7095   7099   7107   7115   7123   7131   7139   7143
    7151   7159   7167   7175   7183   7191   7195   7203   7215
    7223   7231   7235   7239   7247   7255   7263   7271   7279
    7287   7295   7303   7311   7319   7327   7335   7343   7345
    7353   7361   7369   7377   7381   7385   7393   7397   7405
    7409   7417   7425   7433   7437   7445   7449   7457   7461
    7469   7477   7485   7493   7501   7505   7513   7521   7529
    7537   7541   7549   7557   7565   7573   7581   7589   7597
    7605   7609   7617   7621   7629   7637   7641   7649   7657
    7665   7673   7681   7689   7693   7701   7709   7717   7725
    7733   7741   7749   7757   7765   7773   7781   7789   7797
    7805   7813   7821   7825   7829   7837   7841   7849   7857
    7865   7873   7877   7885   7893   7901   7909   7917   7925
    7933   7941   7949   7953   7957   7965   7973   7981   7985
    7993   8001   8009   8017   8025   8033   8041   8045   8053
    8061   8069   8077   8085   8089   8097   8105   8113   8121
    8125   8133   8137   8145   8153   8157   8165   8169   8177
    8185   8193   8201   8209   8217   8225   8233   8241   8249
    8257   8265   8273   8281   8289   8297   8301   8309   8313
    8317   8325   8329   8333   8341   8345   8353   8361   8369
    8377   8385   8387   8395   8403   8411   8419   8427   8435
    8443   8451   8455   8463   8471   8479   8487   8491   8499
    8507   8515   8523   8531   8535   8543   8551   8559   8567
    8575   8583   8591   8595   8603   8611   8619   8627   8635
    8651   8659   8663   8671   8679   8687   8695   8703   8711
    8715   8723   8731   8739   8747   8755   8763   8767   8771
    8775   8783   8787   8795   8803   8811   8819   8827   8835
    8843   8851   8855   8863   8871   8879   8887   8891   8899
    8903   8911   8915   8923   8931   8933   8937   8945   8953
    8961   8965   8973   8975   8983   8987   8995   9003   9011
    9015   9019   9027   9035   9043   9051   9059   9067   9071
    9079   9087   9095   9103   9111   9119   9127   9131   9139
    9147   9155   9163   9171   9179   9183   9191   9199   9203
    9211   9219   9227   9235   9243   9247   9255   9263   9279
    9287   9295   9303   9311   9319   9327   9335   9343   9351
    9359   9363   9367   9375   9387   9391   9399   9407   9415
    9423   9427   9435   9443   9451   9455   9463   9471   9475
    9483   9487   9495   9503   9511   9519   9527   9535   9539
    9547   9555   9563   9571   9575   9579   9587   9591   9599
    9607   9615   9623   9631   9639   9647   9651   9655   9663
    9671   9679   9687   9695   9703   9711   9719   9723   9727
    9735   9743   9751   9759   9767   9775   9783   9791   9799
    9807   9815   9823   9831   9839   9847   9855   9859   9867
    9871   9879   9887   9891   9899   9907   9915   9923   9931
    9939   9943   9947   9955   9963   9971   9979   9983   9991
    9999

  Shells energy     :  [ mHa ]
     0.0000   24.6306   26.9806   51.6112   55.2754   79.9060   82.2560   98.5224  106.8866
   107.9223  125.5029  132.5529  153.7978  163.1977  180.7783  187.8283  206.4447  221.1017
   221.6753  242.8252  245.7323  248.0822  248.6558  261.7201  267.4557  272.7129  276.9507
   298.1006  303.9313  319.6240  322.7312  329.0240  329.5976  341.3476  346.6046  353.6546
   384.8730  394.0894  396.6230  421.0700  427.5463  431.6892  442.7770  449.3648  456.3198
   463.9269  464.5005  469.7576  476.3454  486.9646  488.5575  497.4788  502.0118  511.5952
   519.7759  522.1093  524.4593  530.2115  549.0899  550.6993  557.2872  562.4493  585.4870
   596.0011  605.4011  615.1912  615.7647  622.9817  630.0317  636.9146  642.1717  642.7453
   652.7909  653.3645  671.0402  674.5145  677.4214  685.6022  692.1901  698.0208  699.1451
   703.9235  708.6399  719.1540  723.1133  723.6871  729.7899  740.3040  746.1347  751.3134
   754.4206  764.9346  773.0369  778.9625  825.7787  827.0763  828.3124  836.8664  838.8263
   858.0164  858.5899  863.8470  874.4662  881.0540  884.4067  886.7011  891.5682  895.6163
   896.1898  909.0374  911.3873  913.6818  913.8654  918.5487  920.2468  929.1679  936.0180
   941.9766  944.7887  951.4653  953.7985  961.9792  968.9571  971.3008  982.9291  992.3290
    994.139      994.623      995.931      999.491      1009.91      1016.96      1026.58      1027.69      1046.88   
    1047.45      1049.90      1051.21      1068.60      1069.82      1079.69      1090.85      1102.73      1106.08   
    1107.80      1113.24      1117.29      1123.88      1125.10      1127.23      1129.53      1133.06      1134.39   
    1134.78      1140.22      1150.84      1151.86      1171.99      1184.80      1192.40      1192.98      1196.62   
    1206.90      1214.00      1215.73      1217.03      1221.17      1225.75      1233.88      1248.25      1262.17   
    1268.56      1270.52      1278.50      1289.15      1289.71      1290.28      1290.92      1305.48      1314.82   
    1316.10      1318.39      1322.05      1323.26      1340.73      1345.55      1346.68      1348.91      1350.63   
    1356.07      1365.39      1370.10      1373.67      1377.32      1381.89      1384.18      1386.42      1393.67   
    1401.95      1406.52      1408.87      1411.16      1414.08      1414.62      1420.57      1420.67      1428.00   
    1433.50      1449.72      1454.98      1468.78      1475.85      1480.41      1489.81      1492.10      1493.41   
    1500.17      1505.00      1507.39      1511.38      1514.44      1521.32      1527.15      1535.92      1537.77   
    1539.49      1543.15      1543.72      1544.93      1558.92      1561.22      1566.08      1567.30      1567.78   
    1576.36      1583.55      1586.49      1587.07      1588.33      1599.00      1603.34      1603.56      1608.09   
    1616.49      1624.71      1627.01      1630.54      1631.63      1638.59      1641.67      1642.34      1649.34   
    1657.44      1658.61      1670.83      1684.28      1690.45      1693.86      1704.38      1710.19      1711.48   
    1716.14      1723.23      1726.76      1731.36      1739.56      1743.00      1751.39      1764.83      1771.11   
    1771.41      1775.97      1780.60      1782.03      1782.32      1787.76      1797.46      1798.09      1802.96   
    1806.66      1808.17      1812.30      1813.57      1815.87      1819.18      1819.53      1824.44      1825.28   
    1838.21      1844.16      1846.39      1855.71      1858.00      1859.69      1862.87      1874.46      1879.03   
    1880.34      1880.55      1881.41      1883.90      1905.38      1912.10      1913.28      1918.05      1931.86   
    1936.69      1937.24      1937.81      1947.20      1947.86      1948.43      1953.01      1954.23      1972.49   
    1989.92      1993.09      1995.08      1997.65      2003.71      2008.05      2013.93      2014.55      2016.90   
    2018.80      2022.06      2024.63      2035.25      2040.28      2041.20      2041.53      2046.38      2050.35   
    2056.40      2058.69      2063.32      2073.84      2077.33      2077.38      2079.10      2081.03      2084.54   
    2088.44      2091.31      2097.84      2100.82      2102.51      2103.00      2105.57      2115.42      2118.29   
    2120.85      2122.47      2136.07      2154.92      2158.28      2158.91      2169.53      2174.69      2176.12   
    2178.20      2181.76      2185.43      2196.36      2199.23      2202.80      2206.46      2207.66      2208.75   
    2210.06      2211.59      2213.62      2216.18      2224.24      2229.15      2231.09      2232.74      2233.48   
    2237.90      2238.57      2240.48      2240.70      2243.16      2248.87      2249.80      2250.87      2257.37   
    2264.03      2265.33      2268.59      2278.08      2283.95      2293.18      2295.57      2304.98      2306.15   
    2316.66      2319.51      2322.76      2324.10      2331.26      2334.13      2339.22      2341.95      2342.52   
    2353.19      2355.48      2376.51      2377.82      2378.89      2384.00      2397.80      2399.30      2406.53   
    2407.10      2410.99      2421.60      2426.77      2428.13      2429.34      2429.85      2431.16      2435.29   
    2445.62      2445.91      2446.23      2450.49      2451.71      2454.42      2459.00      2460.76      2462.38   
    2463.06      2471.47      2471.97      2482.04      2487.74      2490.04      2491.93      2492.56      2505.05   
    2505.53      2511.41      2518.33      2519.54      2520.13      2523.00      2528.95      2545.31      2547.66   
    2563.62      2568.69      2570.98      2574.86      2579.52      2584.22      2588.78      2600.48      2600.54   
    2602.93      2605.68      2611.16      2613.46      2615.76      2618.32      2626.26      2626.83      2628.20   
    2632.66      2634.79      2635.79      2643.28      2647.87      2664.43      2668.73      2669.59      2672.17   
    2675.68      2682.91      2684.16      2689.06      2696.71      2698.06      2700.28      2703.59      2703.93   
    2705.88      2706.23      2707.54      2708.50      2709.69      2711.14      2713.60      2722.69      2724.87   
    2728.56      2733.13      2735.38      2735.48      2742.41      2747.28      2748.35      2750.05      2753.33   
    2760.11      2761.16      2762.95      2765.82      2768.76      2777.96      2781.43      2792.08      2796.58   
    2800.62      2801.19      2802.46      2807.02      2815.69      2816.42      2822.22      2831.61      2832.84   
    2834.00      2834.56      2840.00      2841.05      2848.51      2851.86      2856.47      2876.62      2879.48   
    2886.10      2890.69      2892.45      2894.75      2898.41      2903.60      2904.58      2906.46      2914.94   
    2919.16      2919.73      2924.25      2925.61      2926.99      2930.17      2933.66      2943.10      2943.79   
    2950.02      2951.32      2953.68      2957.15      2958.24      2960.54      2961.22      2966.38      2968.95   
    2975.01      2975.95      2980.30      2984.54      2985.22      2985.85      2987.41      2987.52      2988.93   
    3005.25      3007.28      3017.68      3020.47      3021.65      3022.29      3026.43      3035.58      3037.37   
    3038.09      3045.14      3049.84      3058.52      3059.74      3062.56      3062.61      3066.17      3068.46   
    3069.83      3072.13      3076.99      3088.22      3092.15      3093.16      3094.46      3098.02      3102.59   
    3108.64      3110.94      3115.85      3119.44      3119.51      3122.31      3127.40      3129.57      3133.27   
    3135.28      3137.57      3140.19      3140.84      3143.50      3147.42      3154.76      3164.82      3167.07   
    3168.36      3173.00      3182.89      3187.48      3192.85      3195.54      3196.81      3201.07      3201.40   
    3203.36      3207.16      3210.51      3220.17      3223.13      3223.79      3226.93      3228.38      3238.71   
    3239.89      3263.30      3264.65      3278.40      3280.19      3289.28      3291.51      3293.23      3294.06   
    3298.67      3303.11      3304.74      3308.31      3309.33      3311.17      3311.96      3313.25      3313.82   
    3317.13      3319.70      3319.93      3324.26      3330.32      3336.59      3344.56      3345.41      3347.47   
    3351.24      3355.31      3358.39      3358.68      3361.86      3363.17      3369.10      3372.40      3374.45   
    3376.96      3383.01      3389.93      3392.23      3392.33      3395.89      3403.94      3407.64      3410.49   
    3411.99      3413.35      3417.21      3418.45      3431.13      3432.07      3432.18      3434.36      3439.64   
    3444.23      3447.60      3455.39      3463.86      3463.92      3467.27      3477.78      3481.53      3484.89   
    3485.75      3486.33      3489.64      3497.86      3502.73      3504.76      3510.38      3524.22      3533.64   
    3534.27      3534.92      3537.63      3538.23      3541.60      3546.80      3551.13      3554.00      3560.09   
    3562.26      3564.61      3566.27      3567.09      3567.31      3569.61      3573.79      3576.98      3582.47   
    3584.27      3584.76      3585.70      3589.24      3589.63      3590.29      3590.64      3591.94      3593.25   
    3595.20      3602.08      3604.69      3607.10      3613.43      3619.79      3622.18      3628.50      3629.06   
    3632.76      3633.09      3635.05      3636.15      3640.03      3645.55      3654.73      3654.82      3655.46   
    3658.74      3663.13      3665.83      3670.18      3674.19      3679.80      3680.99      3685.60      3703.12   
    3704.43      3706.05      3707.43      3710.00      3710.09      3714.01      3716.67      3720.61      3721.83   
    3724.41      3741.30      3744.07      3755.95      3759.30      3761.78      3762.13      3767.91      3777.10   
    3778.32      3779.15      3780.45      3782.81      3785.11      3786.28      3786.76      3788.99      3789.63   
    3794.89      3800.59      3804.14      3805.08      3805.86      3808.65      3809.10      3811.30      3814.60   
    3815.19      3817.06      3818.06      3838.02      3840.38      3844.91      3844.94      3847.92      3850.79   
    3860.65      3864.71      3867.22      3871.33      3871.93      3875.83      3875.92      3878.97      3879.84   
    3880.41      3885.20      3889.80      3891.69      3901.47      3904.96      3909.47      3909.83      3910.83   
    3915.39      3927.73      3929.54      3931.72      3931.84      3935.69      3938.35      3940.48      3942.38   
    3942.94      3951.60      3952.87      3956.53      3958.70      3960.23      3961.40      3965.11      3969.32   
    3972.63      3976.55      3978.49      3982.89      3983.73      3983.80      3984.99      3993.95      3995.34   
    3997.96      3998.78      4002.13      4006.21      4006.88      4010.73      4011.97      4021.98      4023.32   
    4026.89      4030.54      4033.77      4039.00      4039.64      4044.28      4051.48      4055.17      4067.84   
    4071.26      4073.89      4079.94      4082.24      4087.77      4092.91      4101.52      4104.57      4106.30   
    4106.88      4107.53      4110.76      4126.06      4129.07      4130.94      4149.06      4151.35      4152.21   
    4152.30      4153.39      4156.22      4158.22      4162.15      4162.57      4168.11      4172.70      4173.69   
    4174.54      4175.34      4178.47      4180.37      4180.50      4183.08      4187.52      4189.55      4189.82   
    4190.99      4198.23      4198.66      4199.60      4199.97      4201.53      4204.83      4206.63      4212.14   
    4217.84      4219.31      4221.32      4227.82      4235.78      4236.77      4240.79      4244.83      4245.09   
    4247.58      4252.22      4259.26      4261.31      4269.71      4270.49      4273.86      4274.42      4276.59   
    4276.63      4276.73      4279.29      4280.29      4282.59      4284.85      4287.11      4295.56      4296.40   
    4301.62      4302.35      4310.66      4311.83      4315.54      4318.77      4325.77      4327.98      4329.69   
    4332.44      4334.57      4347.08      4348.26      4357.63      4362.19      4363.41      4370.73      4372.45   
    4377.89      4382.68      4383.67      4389.17      4392.78      4396.22      4397.02      4401.61      4402.44   
    4405.39      4407.31      4410.65      4410.92      4416.68      4424.33      4424.63      4431.21      4433.82   
    4435.25      4442.42      4449.08      4451.31      4452.97      4454.01      4458.19      4459.88      4460.67   
    4469.17      4470.11      4471.55      4474.03      4475.97      4477.31      4479.95      4481.21      4491.59   
    4495.52      4500.39      4500.97      4501.94      4504.29      4508.93      4518.11      4518.86      4519.46   
    4523.45      4526.82      4527.68      4528.92      4532.25      4533.56      4533.77      4537.57      4539.13   
    4539.22      4543.15      4556.24      4559.72      4560.90      4566.50      4569.43      4573.38      4575.83   
    4584.35      4585.08      4585.23      4589.91      4594.26      4602.81      4603.37      4604.36      4605.01   
    4606.23      4607.45      4609.86      4614.99      4626.50      4639.62      4646.19      4646.31      4646.54   
    4648.49      4648.83      4649.53      4656.93      4658.24      4659.51      4660.05      4667.15      4669.51   
    4671.17      4674.04      4677.98      4683.75      4685.00      4687.03      4687.29      4687.97      4692.65   
    4693.14      4695.71      4695.80      4698.98      4703.57      4703.76      4707.06      4712.60      4713.52   
    4716.54      4718.80      4720.13      4722.07      4725.96      4730.55      4730.60      4739.21      4744.53   
    4744.76      4745.06      4748.41      4762.33      4764.82      4767.97      4769.61      4771.51      4771.90   
    4774.21      4776.77      4780.82      4781.39      4786.50      4789.36      4791.11      4793.88      4794.24   
    4799.83      4805.45      4806.91      4811.50      4815.36      4816.25      4818.66      4827.18      4827.59   
    4827.91      4829.34      4836.01      4836.67      4837.08      4841.01      4852.45      4854.58      4856.02   
    4859.68      4862.90      4868.13      4868.21      4868.85      4869.59      4871.40      4879.34      4882.87   
    4884.31      4884.66      4886.69      4888.32      4892.36      4893.92      4896.28      4898.38      4902.87   
    4903.02      4909.00      4909.65      4909.85      4914.24      4917.25      4918.55      4923.57      4924.13   
    4928.16      4928.69      4933.63      4935.52      4941.81      4946.40      4953.81      4955.67      4956.29   
    4958.20      4959.37      4966.64      4969.03      4970.22      4979.32      4987.35      4990.79      4991.29   
    4992.44      4993.01      4997.20      4998.45      5002.49      5007.52      5009.08      5015.58      5035.76   
    5036.61      5036.70      5040.62      5046.98      5048.70      5051.02      5057.20      5058.19      5062.04   
    5062.11      5064.91      5070.42      5073.96      5074.22      5075.68      5078.14      5081.35      5081.83   
    5082.06      5089.95      5091.74      5092.10      5093.07      5098.84      5103.72      5105.73      5113.98   
    5114.22      5115.60      5120.05      5124.69      5125.70      5127.49      5130.67      5133.87      5135.26   
    5140.97      5143.67      5145.96      5147.38      5151.82      5154.90      5155.72      5156.62      5158.82   
    5161.12      5163.70      5165.73      5166.99      5171.52      5171.55      5174.91      5175.48      5176.22   
    5176.45      5186.76      5189.15      5190.61      5198.54      5201.00      5204.54      5213.04      5216.39   
    5221.00      5221.91      5230.76      5237.44      5250.35      5253.77      5254.57      5256.15      5259.28   
    5259.73      5262.30      5264.38      5267.09      5269.38      5273.56      5278.87      5279.20      5279.48   
    5286.84      5288.01      5288.19      5289.01      5289.80      5291.52      5291.72      5293.03      5303.09   
    5303.74      5307.04      5312.82      5313.20      5314.56      5315.00      5321.95      5325.07      5328.84   
    5333.49      5334.56      5335.90      5338.49      5343.47      5352.05      5353.09      5354.97      5355.96   
    5356.81      5360.38      5362.91      5364.01      5365.61      5366.33      5368.10      5373.50      5378.09   
    5382.22      5385.38      5386.72      5386.83      5390.99      5395.63      5396.58      5401.91      5402.51   
    5406.55      5414.38      5419.04      5424.27      5431.18      5433.00      5441.99      5444.12      5446.42   
    5448.61      5451.29      5461.56      5468.76      5471.93      5473.24      5475.44      5476.24      5478.67   
    5480.39      5480.83      5484.62      5486.06      5488.76      5494.66      5501.69      5502.11      5505.08   
    5509.30      5509.69      5509.87      5516.84      5524.76      5527.54      5532.70      5532.89      5533.24   
    5533.93      5536.72      5539.89      5541.88      5542.65      5544.46      5545.67      5545.91      5547.13   
    5552.17      5554.52      5557.38      5559.68      5562.39      5563.70      5565.14      5567.90      5568.86   
    5571.44      5571.70      5574.67      5577.54      5579.15      5589.58      5591.46      5597.16      5603.20   
    5603.24      5606.84      5606.90      5607.82      5624.14      5626.06      5628.23      5631.35      5635.46   
    5640.63      5642.15      5644.64      5644.73      5648.65      5649.80      5652.38      5653.05      5656.30   
    5658.47      5658.60      5660.10      5661.18      5663.21      5665.80      5667.52      5670.28      5672.96   
    5674.87      5678.36      5682.28      5682.66      5684.21      5688.80      5705.08      5705.72      5711.19   
    5711.75      5712.00      5715.78      5715.83      5721.49      5723.05      5723.21      5725.41      5727.71   
    5730.97      5732.23      5733.64      5733.99      5737.56      5738.98      5746.38      5747.69      5749.22   
    5751.70      5753.26      5756.76      5757.21      5762.98      5766.62      5767.59      5770.37      5771.04   
    5775.02      5775.53      5776.20      5779.54      5780.62      5782.98      5784.71      5785.67      5787.28   
    5787.51      5788.50      5789.96      5792.13      5795.00      5795.70      5796.72      5798.90      5799.36   
    5800.64      5810.30      5819.92      5821.58      5821.89      5823.99      5838.21      5839.98      5842.70   
    5846.07      5853.43      5854.17      5857.14      5868.89      5870.33      5870.91      5875.12      5880.15   
    5880.28      5882.85      5884.19      5889.33      5894.87      5897.88      5899.46      5899.75      5899.99   
    5903.39      5903.96      5921.63      5927.03      5931.62      5935.56      5941.52      5941.60      5943.90   
    5944.60   

  [02.04] K-grid lattice
  ======================

  Compatible Grid is   : 0D
  K lattice UC volume  :  0.017142 [a.u.]

  IBZ K-points :  1
  BZ  K-points :  1

  K [1] : weight       :  1.000000
        : wf components:  14229
        : point-cc     :  0.000000  0.000000  0.000000  [cc]
        : point-alat   :  0.000000  0.000000  0.000000  [alat]
        : point-iku    :  0.000000  0.000000  0.000000  [iku]

  [02.05] Energies & Occupations
  ==============================

  [X] === Spin Independent ===
  [X] Electronic Temperature                        :  0.258606E-1   300.100    [eV K]
  [X] Bosonic    Temperature                        :  0.258606E-1   300.100    [eV K]
  [X] Finite Temperature mode                       : yes
  [X] El. density                                   :  0.14457E+23 [cm-3]
  [X] Fermi Level                                   : -1.193944 [eV]

  [X] === Spin up channel ===
  [X] Conduction Band Min                  [spin UP]:  0.462930 [eV]
  [X] Valence Band Max                     [spin UP]: -0.436843 [eV]
  [X] Filled Bands                         [spin UP]:  16
  [X] Empty Bands                          [spin UP]:  17  19
  [X] Direct Gap                           [spin UP]:  0.899773 [eV]
   
  [X] === Spin dn channel ===
  [X] Conduction Band Min                  [spin DN]:  0.311165 [eV]
  [X] Valence Band Max                     [spin DN]: -4.570607 [eV]
  [X] Filled Bands                         [spin DN]:  15
  [X] Empty Bands                          [spin DN]:  16  19
  [X] Direct Gap                           [spin DN]:  4.881773 [eV]
   
   
  E [up] @ K [1]:  [eV]
  -22.97174 -19.04926 -18.21161 -14.59983 -14.41266 -12.32927 -10.27052  -9.84195
  -9.225999 -8.649650 -8.557269 -6.542124 -6.376833 -5.637436 -4.907021 -0.436843
   0.462930  0.507623  1.183481
  E [dn] @  [eV]:  [eV]
  -22.78372 -18.87995 -18.06302 -14.37462 -14.32845 -12.25482 -10.13121  -9.74185
  -9.181980 -8.518200 -8.202491 -6.495329 -6.301179 -5.178079 -4.570607  0.311165
   0.533476  0.686771  1.240491

 [03] Transferred momenta grid
 =============================

 [RD./SAVE//ndb.kindx]-----------------------------------------------------------
  Fragmentation                                    : no
  Polarization last K                              :  1
  QP states                                        :  1  1
  X grid is uniform                                : yes
  BS scattering                                    : no
  COLL scattering                                  : no
 - S/N 009310 ---------------------------------------------- v.04.05.00 r.18068 -

 IBZ Q-points :  1
 BZ  Q-points :  1

 Q [1] : weight       :  1.000000
       : point-cc     :  0.000000  0.000000  0.000000  [cc]
       : point-alat   :  0.000000  0.000000  0.000000  [alat]
       : point-iku    :  0.000000  0.000000  0.000000  [iku]

 [04] External/Internal QP corrections
 =====================================

 [RD./02_ppa/ndb.QP]-------------------------------------------------------------
  Lattice constants                                :  27.04825  28.30919  18.89726
  Coulomb cutoff potential                         : none
  Electronic Temperature                           :  300.1000 [K]
  Bosonic    Temperature                           :  300.1000 [K]
  Green`s function   energies                      : Perdew, Burke & Ernzerhof(X)+Perdew, Burke & Ernzerhof(C)
  wavefunctions                                    : Perdew, Burke & Ernzerhof(X)+Perdew, Burke & Ernzerhof(C)
  PPA    diel. fun.  energies                      : Perdew, Burke & Ernzerhof(X)+Perdew, Burke & Ernzerhof(C)
  wavefunctions                                    : Perdew, Burke & Ernzerhof(X)+Perdew, Burke & Ernzerhof(C)
  QP tot states                                    :   38
  GWo SC iterations                                : 0
  GW  SC iterations                                : 0
  GW solver                                        : Newton
  GW approximation                                 : PPA
  PPA imaginary Energy                             :  27.21138 ev
  GW SC iterations                                 : 0
  dS/dw steps                                      :  2
  dS/dw step                                       :  0.100000 ev
  X G`s                                            :   55 used
  X G`s                                            :   55 disk
  X bands                                          :   1  19
  X poles                                          :  100.0000 o/o
  X e/h E range                                    : -1.000000 -1.000000 ev
  X xc-Kernel                                      : none
  X BZ energy Double Grid                          : no
  X BZ Double Grid points                          : 0
  Sc/G bands                                       :   1  19
  Sc/G damping                                     :  0.100000 ev
  Sc bands terminator                              : no
  Sx RL components                                 :   9999
                                                   
  QP @ state[ 1 ] K range                          :  1  1
  QP @ state[ 1 ] b range                          :   1  19
  GF energies kind                                 : Perdew, Burke & Ernzerhof(X)+Perdew, Burke & Ernzerhof(C)
  GF WF`s kind                                     : Perdew, Burke & Ernzerhof(X)+Perdew, Burke & Ernzerhof(C)
  Xs energies kind                                 : Perdew, Burke & Ernzerhof(X)+Perdew, Burke & Ernzerhof(C)
  Xs WF`s kind                                     : Perdew, Burke & Ernzerhof(X)+Perdew, Burke & Ernzerhof(C)
 - S/N 009310 ---------------------------------------------- v.04.05.00 r.18068 -

 E<02_ppa/ndb.QP[ PPA@E  27.21138 = XG 55 = Xb 1-19 = Scb 1-19]

 [dE_from_DB-Nearest K] Exact matches  [o/o]:  100.0000
  

 [QP_apply] Action to be applied: E<02_ppa/ndb.QP[ PPA@E  27.21138 = XG 55 = Xb 1-19 = Scb 1-19]

  [04.01]  QP corrections report
  ==============================

  [X+QP] === Spin Independent ===
  [X+QP] Electronic Temperature                     :  0.258693E-1   300.200    [eV K]
  [X+QP] Bosonic    Temperature                     :  0.258606E-1   300.100    [eV K]
  [X+QP] Finite Temperature mode                    : yes
  [X+QP] El. density                                :  0.14457E+23 [cm-3]
  [X+QP] Fermi Level                                :  0.308552 [eV]

  [X+QP] === Spin up channel ===
  [X+QP] Conduction Band Min               [spin UP]:  2.301829 [eV]
  [X+QP] Valence Band Max                  [spin UP]: -2.178874 [eV]
  [X+QP] Filled Bands                      [spin UP]:  16
  [X+QP] Empty Bands                       [spin UP]:  17  19
  [X+QP] Direct Gap                        [spin UP]:  4.480703 [eV]
   
  [X+QP] === Spin dn channel ===
  [X+QP] Conduction Band Min               [spin DN]:  4.881459 [eV]
  [X+QP] Valence Band Max                  [spin DN]: -6.599396 [eV]
  [X+QP] Filled Bands                      [spin DN]:  15
  [X+QP] Empty Bands                       [spin DN]:  16  19
  [X+QP] Direct Gap                        [spin DN]:  11.48085 [eV]
   
   
  Eqp [up] @ K [1]
  -31.65789 -24.05216 -22.07959 -19.03156 -19.12417 -17.72071 -14.57407 -14.41604
  -13.58227 -12.39147 -12.84774 -10.50165 -10.35130  -8.08285  -7.15427  -2.17887
   2.301829  4.988752  2.473610
  Eqp [dn] @
  -29.43428 -24.12158 -22.29529 -18.59153 -18.07501 -17.84082 -14.23755 -14.09481
  -13.50911 -12.75289 -11.23815 -10.40283 -10.19222  -7.47724  -6.59940   4.88146
   2.263300  5.217896  2.384758
   

 [05] Dipoles
 ============


 [WARNING] DIPOLES database not correct or missing
 [RD./SAVE//ns.kb_pp_pwscf]------------------------------------------------------
  Fragmentation                                    : yes
 - S/N 009310 ---------------------------------------------- v.04.05.00 r.17938 -
 [WF-Oscillators/G space/Transverse up] Performing Wave-Functions I/O from ./SAVE

 [WF-Oscillators/G space/Transverse up loader] Normalization (few states)  min/max  :  0.13601E-09  0.99952    

 [WF-Oscillators/G space/Transverse dn] Performing Wave-Functions I/O from ./SAVE

 [WR./04_ip_qp_abs//ndb.dipoles]-------------------------------------------------
  Brillouin Zone Q/K grids (IBZ/BZ)                :  1  1  1  1
  RL vectors                                       :   9999 [WF]
  Fragmentation                                    : yes
  Electronic Temperature                           :  300.2000 [K]
  Bosonic    Temperature                           :  300.1000 [K]
  DIP band range                                   :   1  19
  DIP band range limits                            :  16  16
  DIP e/h energy range                             : -1.000000 -1.000000 ev
  RL vectors in the sum                            :   9999
  [r,Vnl] included                                 : yes
  Bands ordered                                    : yes
  Direct v evaluation                              : no
  Approach used                                    : G-space v
  Dipoles computed                                 : R V P
  Wavefunctions                                    : Perdew, Burke & Ernzerhof(X)+Perdew, Burke & Ernzerhof(C)
 - S/N 009310 ---------------------------------------------- v.04.05.00 r.18068 -

 [06] Optics
 ===========

 [RD./04_ip_qp_abs//ndb.dipoles]-------------------------------------------------
  Brillouin Zone Q/K grids (IBZ/BZ)                :  1  1  1  1
  RL vectors                                       :   9999 [WF]
  Fragmentation                                    : yes
  Electronic Temperature                           :  300.2000 [K]
  Bosonic    Temperature                           :  300.1000 [K]
  DIP band range                                   :   1  19
  DIP band range limits                            :  16  16
  DIP e/h energy range                             : -1.000000 -1.000000 ev
  RL vectors in the sum                            :   9999
  [r,Vnl] included                                 : yes
  Bands ordered                                    : yes
  Direct v evaluation                              : no
  Approach used                                    : G-space v
  Dipoles computed                                 : R V P
  Wavefunctions                                    : Perdew, Burke & Ernzerhof(X)+Perdew, Burke & Ernzerhof(C)
 - S/N 009310 ---------------------------------------------- v.04.05.00 r.18068 -
 [X-CG] R(p) Tot o/o(of R):  108  108  100

 [07] Timing Overview
 ====================

 Routines: global (Only MASTER cpu here)
                        io_WF :    0.0050 s CPU (           7 calls,    0.0007 s avg)
                      io_GROT :    0.0010 s CPU (           2 calls,    0.0005 s avg)
                     io_QINDX :    0.0005 s CPU (           2 calls,    0.0003 s avg)
                   io_COL_CUT :    0.0000 s CPU
                        io_HF :    0.0000 s CPU
                   io_DIPOLES :    0.0022 s CPU (           8 calls,    0.0003 s avg)
                  io_KB_pwscf :    0.0017 s CPU (           4 calls,    0.0004 s avg)
                 io_KB_abinit :    0.0000 s CPU
             io_ATMPROJ_pwscf :    0.0000 s CPU
                         io_X :    0.0001 s CPU (           4 calls,    0.0000 s avg)
                        io_BS :    0.0000 s CPU
               io_Double_Grid :    0.0001 s CPU
                 io_QP_and_GF :    0.0008 s CPU
                      Dipoles :    0.4339 s CPU
      IO_and_Messaging_switch :    0.0001 s CPU (           5 calls,    0.0000 s avg)
            DIPOLE_transverse :    0.4285 s CPU
                  io_fragment :    0.0008 s CPU (           8 calls,    0.0001 s avg)
                 PP_uspp_init :    0.0000 s CPU (           2 calls,    0.0000 s avg)
                  WF_load_FFT :    0.0099 s CPU (           2 calls,    0.0049 s avg)
               Xo (procedure) :    0.0272 s CPU
                   Xo (REDUX) :    0.0000 s CPU

 [08] Memory Overview
 ====================

 Memory Usage: global (Only MASTER cpu here). [O] stands for group 'O'
 Memory treshold are: 10.00000Mb (basic treshold)  100.0000Mb (SAVEs treshold)

  
         TOTAL not deallocated :  1.874000Mb

         Max memory used   :  11.64000Mb

 [09] Game Over & Game summary
 =============================

 03/30/2020 at 12:22 yambo @ marini-Galago-UltraPro [start]
 03/30/2020 at 12:22                                [end]

  
 .-ACKNOWLEDGMENT
 |
 | The users of YAMBO have little formal obligations with respect to
 | the YAMBO group (those specified in the GNU General Public
 | License, http://www.gnu.org/copyleft/gpl.txt). However, it is
 | common practice in the scientific literature, to acknowledge the
 | efforts of people that have made the research possible. In this
 | spirit, please find below the reference we kindly ask you to use
 | in order to acknowledge YAMBO
 |
 | Many-body perturbation theory calculations using the yambo code
 | D. Sangalli, A. Ferretti, H. Miranda, C. Attaccalite, I. Marri, E. Cannuccia, P. Melo,
 | M Marsili, F Paleari, A Marrazzo, G Prandini, P Bonfà, M O Atambo, F Affinito,
 | M Palummo, A Molina-Sánchez, C Hogan, M Grüning, D Varsano and A Marini.
 | J. Phys.: Condens. Matter 31, 325902 (2019).
 |
 | Yambo: An ab initio tool for excited state calculations
 | A. Marini, C. Hogan, M. Grüning, D. Varsano
 | Computer Physics Communications 180, 1392 (2009).
 |
  
 .-Input file  yambo.in
 | optics                         # [R] Linear Response optical properties
 | dipoles                        # [R] Oscillator strenghts (or dipoles)
 | chi                            # [R][CHI] Dyson equation for Chi.
 | ElecTemp= 0.025869     eV      # Electronic Temperature
 | BoseTemp= 0.025861     eV      # Bosonic Temperature
 | FFTGvecs=  9999        RL      # [FFT] Plane-waves
 | Chimod= "IP"                   # [X] IP/Hartree/ALDA/LRC/PF/BSfxc
 | % QpntsRXd
 |  1 | 1 |                       # [Xd] Transferred momenta
 | %
 | % BndsRnXd
 |   1 | 19 |                     # [Xd] Polarization function bands
 | %
 | GrFnTpXd= "R"                  # [Xd] Green`s function (T)ordered,(R)etarded,(r)senant,(a)ntiresonant [T, R, r, Ta, Ra]
 | % EnRngeXd
 |   0.00000 | 20.00000 | eV      # [Xd] Energy range
 | %
 | % DmRngeXd
 |  0.100000 | 0.100000 | eV      # [Xd] Damping range
 | %
 | ETStpsXd= 1000                 # [Xd] Total Energy steps
 | % LongDrXd
 |  0.100000E-4 |  0.00000    |  0.00000    # [Xd] [cc] Electric Field
 | %
 | XfnQPdb= "E < 02_ppa/ndb.QP ubi" # [EXTQP Xd] Database action
