#                                                           
#                                                           
# Y88b    /   e           e    e      888~~\    ,88~-_      
#  Y88b  /   d8b         d8b  d8b     888   |  d888   \     
#   Y88b/   /Y88b       d888bdY88b    888 _/  88888    |    
#    Y8Y   /  Y88b     / Y88Y Y888b   888  \  88888    |    
#     Y   /____Y88b   /   YY   Y888b  888   |  Y888   /     
#    /   /      Y88b /          Y888b 888__/    `88_-~      
#                                                           
#                                                           
#       Version 4.1.0 Revision 13814 Hash e27d56e           
#                       MPI Build                           
#               http://www.yambo-code.org                   
#
# Absorption @ Q(1) [q->0 direction] :0.5774E-5 0.5774E-5 0.5774E-5
#
#
# - Energies      are Teter 93(XC)
# - Wavefunctions are Teter 93(XC)
#
# - The Green`s function is Resonant -
# - Using the Length Gauge -
# - [r,Vnl] *is* included -
#
#   BSK|Identifier              :5416
#      |Dimension               :110
#      |Bands                   :14 - 34
#      |Exchange           [res]: yes
#      |Correlation        [res]: no
#      |Kernel`s coupling       : no
#      |Exchange           [cpl]: no
#      |Correlation        [cpl]: no
#      |W interaction is bare   : no
#      |ALDA kernel in R-space  : yes
#      |RL vectors    [exchange]:367
#      |E/h energy range    [ev]:-1.000000 - -1.000000
#      |Coupling range     [o/o]: 100.0000 -  100.0000
#
#  E/ev[1]    EPS-Im[2]  EPS-Re[3]  EPSo-Im[4] EPSo-Re[5]
#
    3.0000     0.0037     1.1658     0.0205     1.3515
    3.0100     0.0037     1.1662     0.0208     1.3535
    3.0200     0.0037     1.1665     0.0211     1.3556
    3.0300     0.0037     1.1669     0.0214     1.3577
    3.0401     0.0038     1.1673     0.0217     1.3598
    3.0501     0.0038     1.1677     0.0220     1.3620
    3.0601     0.0038     1.1680     0.0223     1.3642
    3.0701     0.0038     1.1684     0.0226     1.3664
    3.0801     0.0038     1.1688     0.0229     1.3687
    3.0901     0.0039     1.1692     0.0232     1.3709
    3.1001     0.0039     1.1696     0.0236     1.3733
    3.1101     0.0039     1.1700     0.0239     1.3756
    3.1202     0.0039     1.1704     0.0242     1.3780
    3.1302     0.0039     1.1707     0.0246     1.3804
    3.1402     0.0040     1.1711     0.0250     1.3829
    3.1502     0.0040     1.1715     0.0253     1.3854
    3.1602     0.0040     1.1719     0.0257     1.3879
    3.1702     0.0040     1.1723     0.0261     1.3905
    3.1802     0.0040     1.1727     0.0265     1.3931
    3.1902     0.0041     1.1731     0.0269     1.3957
    3.2003     0.0041     1.1736     0.0274     1.3984
    3.2103     0.0041     1.1740     0.0278     1.4011
    3.2203     0.0041     1.1744     0.0282     1.4039
    3.2303     0.0042     1.1748     0.0287     1.4067
    3.2403     0.0042     1.1752     0.0292     1.4095
    3.2503     0.0042     1.1756     0.0296     1.4125
    3.2603     0.0042     1.1760     0.0301     1.4154
    3.2703     0.0042     1.1765     0.0306     1.4184
    3.2804     0.0043     1.1769     0.0312     1.4214
    3.2904     0.0043     1.1773     0.0317     1.4245
    3.3004     0.0043     1.1778     0.0322     1.4277
    3.3104     0.0043     1.1782     0.0328     1.4309
    3.3204     0.0044     1.1786     0.0334     1.4342
    3.3304     0.0044     1.1791     0.0339     1.4375
    3.3404     0.0044     1.1795     0.0346     1.4408
    3.3504     0.0044     1.1799     0.0352     1.4443
    3.3605     0.0045     1.1804     0.0358     1.4478
    3.3705     0.0045     1.1808     0.0365     1.4513
    3.3805     0.0045     1.1813     0.0372     1.4550
    3.3905     0.0045     1.1817     0.0379     1.4586
    3.4005     0.0046     1.1822     0.0386     1.4624
    3.4105     0.0046     1.1826     0.0393     1.4662
    3.4205     0.0046     1.1831     0.0401     1.4701
    3.4305     0.0046     1.1836     0.0409     1.4741
    3.4406     0.0047     1.1840     0.0417     1.4781
    3.4506     0.0047     1.1845     0.0425     1.4823
    3.4606     0.0047     1.1850     0.0434     1.4865
    3.4706     0.0048     1.1854     0.0442     1.4908
    3.4806     0.0048     1.1859     0.0452     1.4951
    3.4906     0.0048     1.1864     0.0461     1.4996
    3.5006     0.0048     1.1869     0.0471     1.5042
    3.5106     0.0049     1.1874     0.0481     1.5088
    3.5207     0.0049     1.1879     0.0491     1.5136
    3.5307     0.0049     1.1883     0.0502     1.5184
    3.5407     0.0050     1.1888     0.0513     1.5234
    3.5507     0.0050     1.1893     0.0525     1.5284
    3.5607     0.0050     1.1898     0.0537     1.5336
    3.5707     0.0050     1.1903     0.0549     1.5389
    3.5807     0.0051     1.1908     0.0562     1.5443
    3.5907     0.0051     1.1913     0.0575     1.5498
    3.6008     0.0051     1.1919     0.0589     1.5555
    3.6108     0.0052     1.1924     0.0603     1.5613
    3.6208     0.0052     1.1929     0.0618     1.5672
    3.6308     0.0052     1.1934     0.0633     1.5733
    3.6408     0.0053     1.1939     0.0649     1.5795
    3.6508     0.0053     1.1945     0.0666     1.5858
    3.6608     0.0053     1.1950     0.0683     1.5924
    3.6708     0.0054     1.1955     0.0701     1.5991
    3.6809     0.0054     1.1961     0.0719     1.6059
    3.6909     0.0054     1.1966     0.0739     1.6129
    3.7009     0.0055     1.1972     0.0759     1.6201
    3.7109     0.0055     1.1977     0.0780     1.6276
    3.7209     0.0055     1.1983     0.0802     1.6352
    3.7309     0.0056     1.1988     0.0825     1.6430
    3.7409     0.0056     1.1994     0.0849     1.6510
    3.7509     0.0057     1.1999     0.0874     1.6592
    3.7610     0.0057     1.2005     0.0900     1.6677
    3.7710     0.0057     1.2011     0.0928     1.6764
    3.7810     0.0058     1.2016     0.0956     1.6854
    3.7910     0.0058     1.2022     0.0986     1.6946
    3.8010     0.0058     1.2028     0.1018     1.7041
    3.8110     0.0059     1.2034     0.1051     1.7139
    3.8210     0.0059     1.2040     0.1086     1.7240
    3.8310     0.0060     1.2046     0.1122     1.7345
    3.8411     0.0060     1.2052     0.1161     1.7452
    3.8511     0.0060     1.2058     0.1201     1.7563
    3.8611     0.0061     1.2064     0.1244     1.7678
    3.8711     0.0061     1.2070     0.1289     1.7796
    3.8811     0.0062     1.2076     0.1336     1.7918
    3.8911     0.0062     1.2082     0.1386     1.8045
    3.9011     0.0063     1.2088     0.1439     1.8176
    3.9111     0.0063     1.2095     0.1495     1.8311
    3.9212     0.0063     1.2101     0.1555     1.8451
    3.9312     0.0064     1.2107     0.1618     1.8597
    3.9412     0.0064     1.2114     0.1685     1.8748
    3.9512     0.0065     1.2120     0.1757     1.8904
    3.9612     0.0065     1.2127     0.1833     1.9066
    3.9712     0.0066     1.2133     0.1914     1.9235
    3.9812     0.0066     1.2140     0.2000     1.9410
    3.9912     0.0067     1.2147     0.2093     1.9593
    4.0013     0.0067     1.2153     0.2192     1.9782
    4.0113     0.0068     1.2160     0.2298     1.9980
    4.0213     0.0068     1.2167     0.2412     2.0186
    4.0313     0.0069     1.2174     0.2535     2.0400
    4.0413     0.0069     1.2180     0.2667     2.0623
    4.0513     0.0070     1.2187     0.2810     2.0857
    4.0613     0.0070     1.2194     0.2964     2.1100
    4.0713     0.0071     1.2201     0.3132     2.1354
    4.0814     0.0071     1.2209     0.3313     2.1619
    4.0914     0.0072     1.2216     0.3511     2.1897
    4.1014     0.0073     1.2223     0.3726     2.2186
    4.1114     0.0073     1.2230     0.3961     2.2489
    4.1214     0.0074     1.2237     0.4218     2.2805
    4.1314     0.0074     1.2245     0.4500     2.3135
    4.1414     0.0075     1.2252     0.4810     2.3479
    4.1514     0.0075     1.2260     0.5152     2.3838
    4.1615     0.0076     1.2267     0.5530     2.4212
    4.1715     0.0077     1.2275     0.5949     2.4600
    4.1815     0.0077     1.2283     0.6413     2.5001
    4.1915     0.0078     1.2290     0.6930     2.5415
    4.2015     0.0079     1.2298     0.7507     2.5838
    4.2115     0.0079     1.2306     0.8151     2.6269
    4.2215     0.0080     1.2314     0.8873     2.6702
    4.2315     0.0081     1.2322     0.9681     2.7130
    4.2416     0.0081     1.2330     1.0589     2.7546
    4.2516     0.0082     1.2338     1.1606     2.7935
    4.2616     0.0083     1.2346     1.2746     2.8281
    4.2716     0.0083     1.2355     1.4019     2.8563
    4.2816     0.0084     1.2363     1.5433     2.8752
    4.2916     0.0085     1.2371     1.6994     2.8814
    4.3016     0.0086     1.2380     1.8697     2.8706
    4.3116     0.0086     1.2388     2.0525     2.8381
    4.3217     0.0087     1.2397     2.2449     2.7791
    4.3317     0.0088     1.2406     2.4418     2.6892
    4.3417     0.0089     1.2415     2.6364     2.5650
    4.3517     0.0089     1.2423     2.8206     2.4055
    4.3617     0.0090     1.2432     2.9856     2.2123
    4.3717     0.0091     1.2441     3.1238     1.9896
    4.3817     0.0092     1.2451     3.2291     1.7440
    4.3917     0.0093     1.2460     3.2980     1.4825
    4.4018     0.0094     1.2469     3.3285     1.2121
    4.4118     0.0094     1.2478     3.3200     0.9397
    4.4218     0.0095     1.2488     3.2724     0.6718
    4.4318     0.0096     1.2497     3.1865     0.4157
    4.4418     0.0097     1.2507     3.0649     0.1788
    4.4518     0.0098     1.2517     2.9125    -0.0315
    4.4618     0.0099     1.2526     2.7364    -0.2095
   4.47184    0.01000    1.25363    2.54531   -0.35229
   4.48185    0.01010    1.25463    2.34790   -0.45954
   4.49187    0.01020    1.25564    2.15190   -0.53366
   4.50188    0.01030    1.25665    1.96329   -0.57871
   4.51189    0.01040    1.25768    1.78609   -0.59954
   4.52190    0.01050    1.25872    1.62259   -0.60107
   4.53192    0.01061    1.25977    1.47368   -0.58778
   4.54193    0.01072    1.26083    1.33932   -0.56355
   4.55194    0.01082    1.26190    1.21881   -0.53153
   4.56195    0.01093    1.26298    1.11114   -0.49421
   4.57196    0.01105    1.26407    1.01512   -0.45351
   4.58198    0.01116    1.26517    0.92955   -0.41089
   4.59199    0.01128    1.26629    0.85327   -0.36741
   4.60200    0.01140    1.26742    0.78520   -0.32385
   4.61202    0.01152    1.26856    0.72437   -0.28077
   4.62203    0.01164    1.26971    0.66990   -0.23854
   4.63204    0.01177    1.27087    0.62102   -0.19744
   4.64205    0.01189    1.27205    0.57707   -0.15763
   4.65206    0.01203    1.27324    0.53746   -0.11919
   4.66208    0.01216    1.27444    0.50166   -0.08219
   4.67209    0.01230    1.27565    0.46924   -0.04664
   4.68210    0.01243    1.27688    0.43981   -0.01251
   4.69212    0.01258    1.27812    0.41304    0.02021
   4.70213    0.01272    1.27938    0.38862    0.05158
   4.71214    0.01287    1.28065    0.36631    0.08164
   4.72215    0.01302    1.28194    0.34588    0.11044
   4.73217    0.01317    1.28324    0.32712    0.13805
   4.74218    0.01333    1.28455    0.30989    0.16451
   4.75219    0.01349    1.28588    0.29401    0.18989
   4.76220    0.01365    1.28723    0.27935    0.21425
   4.77222    0.01382    1.28859    0.26581    0.23763
   4.78223    0.01399    1.28997    0.25327    0.26009
   4.79224    0.01416    1.29137    0.24164    0.28168
   4.80225    0.01434    1.29278    0.23085    0.30244
   4.81227    0.01453    1.29421    0.22081    0.32243
   4.82228    0.01471    1.29566    0.21146    0.34168
   4.83229    0.01491    1.29712    0.20274    0.36023
   4.84230    0.01510    1.29861    0.19460    0.37812
   4.85232    0.01530    1.30011    0.18700    0.39540
   4.86233    0.01551    1.30164    0.17989    0.41208
   4.87234    0.01572    1.30318    0.17323    0.42821
   4.88235    0.01594    1.30474    0.16699    0.44382
   4.89237    0.01617    1.30632    0.16114    0.45892
   4.90238    0.01640    1.30793    0.15565    0.47356
   4.91239    0.01664    1.30955    0.15049    0.48775
   4.92240    0.01688    1.31120    0.14564    0.50152
   4.93242    0.01714    1.31287    0.14108    0.51489
   4.94243    0.01740    1.31455    0.13680    0.52788
   4.95244    0.01766    1.31626    0.13277    0.54051
   4.96245    0.01794    1.31799    0.12897    0.55281
   4.97247    0.01823    1.31974    0.12540    0.56478
   4.98248    0.01852    1.32151    0.12204    0.57645
   4.99249    0.01882    1.32330    0.11888    0.58783
   5.00250    0.01912    1.32511    0.11590    0.59894
   5.01252    0.01943    1.32695    0.11310    0.60980
   5.02253    0.01974    1.32880    0.11047    0.62041
   5.03254    0.02006    1.33068    0.10800    0.63079
   5.04255    0.02037    1.33259    0.10568    0.64096
   5.05257    0.02068    1.33453    0.10352    0.65093
   5.06258    0.02100    1.33650    0.10149    0.66071
   5.07259    0.02132    1.33851    0.09960    0.67030
   5.08260    0.02165    1.34056    0.09784    0.67973
   5.09262    0.02198    1.34264    0.09621    0.68901
   5.10263    0.02233    1.34477    0.09470    0.69813
   5.11264    0.02269    1.34694    0.09332    0.70712
   5.12265    0.02307    1.34914    0.09205    0.71599
   5.13267    0.02346    1.35139    0.09091    0.72473
   5.14268    0.02387    1.35367    0.08988    0.73337
   5.15269    0.02430    1.35599    0.08898    0.74192
   5.16270    0.02475    1.35836    0.08819    0.75037
   5.17272    0.02523    1.36076    0.08751    0.75874
   5.18273    0.02572    1.36320    0.08696    0.76704
   5.19274    0.02623    1.36567    0.08653    0.77528
   5.20275    0.02677    1.36819    0.08623    0.78347
   5.21277    0.02733    1.37074    0.08605    0.79160
   5.22278    0.02792    1.37332    0.08601    0.79971
   5.23279    0.02853    1.37593    0.08611    0.80778
   5.24280    0.02916    1.37858    0.08635    0.81582
   5.25282    0.02980    1.38125    0.08674    0.82385
   5.26283    0.03045    1.38396    0.08729    0.83187
   5.27284    0.03111    1.38669    0.08799    0.83989
   5.28285    0.03177    1.38947    0.08887    0.84791
   5.29287    0.03242    1.39229    0.08993    0.85595
   5.30288    0.03306    1.39517    0.09116    0.86401
   5.31289    0.03369    1.39811    0.09259    0.87211
   5.32290    0.03433    1.40114    0.09423    0.88026
   5.33292    0.03497    1.40426    0.09609    0.88849
   5.34293    0.03563    1.40746    0.09820    0.89680
   5.35294    0.03632    1.41076    0.10059    0.90522
   5.36295    0.03703    1.41415    0.10331    0.91377
   5.37297    0.03779    1.41763    0.10638    0.92245
   5.38298    0.03858    1.42121    0.10987    0.93127
   5.39299    0.03943    1.42488    0.11383    0.94023
   5.40300    0.04032    1.42865    0.11832    0.94933
   5.41302    0.04126    1.43250    0.12341    0.95856
   5.42303    0.04226    1.43645    0.12918    0.96790
   5.43304    0.04332    1.44050    0.13571    0.97734
   5.44305    0.04443    1.44464    0.14311    0.98683
   5.45307    0.04561    1.44889    0.15149    0.99632
   5.46308    0.04686    1.45323    0.16096    1.00574
   5.47309    0.04818    1.45768    0.17167    1.01498
   5.48310    0.04957    1.46223    0.18375    1.02390
   5.49312    0.05104    1.46689    0.19735    1.03230
   5.50313    0.05260    1.47166    0.21259    1.03996
   5.51314    0.05424    1.47654    0.22959    1.04655
   5.52315    0.05597    1.48152    0.24840    1.05170
   5.53317    0.05778    1.48661    0.26900    1.05499
   5.54318    0.05969    1.49181    0.29129    1.05591
   5.55319    0.06167    1.49712    0.31503    1.05396
   5.56320    0.06374    1.50256    0.33985    1.04864
   5.57322    0.06588    1.50813    0.36526    1.03949
   5.58323    0.06810    1.51386    0.39061    1.02609
   5.59324    0.07039    1.51976    0.41515    1.00812
   5.60325    0.07278    1.52587    0.43791    0.98534
   5.61327    0.07528    1.53219    0.45775    0.95772
   5.62328    0.07792    1.53876    0.47331    0.92557
   5.63329    0.08072    1.54559    0.48320    0.88971
   5.64330    0.08371    1.55267    0.48623    0.85155
   5.65332    0.08693    1.56003    0.48171    0.81298
   5.66333    0.09041    1.56767    0.46973    0.77613
   5.67334    0.09417    1.57558    0.45115    0.74294
   5.68335    0.09824    1.58378    0.42744    0.71484
  5.693367   0.102664   1.592254   0.400377   0.692606
  5.703380   0.107476   1.601016   0.371680   0.676320
  5.713392   0.112716   1.610058   0.342816   0.665573
  5.723405   0.118432   1.619379   0.314870   0.659645
  5.733417   0.124675   1.628965   0.288561   0.657699
  5.743429   0.131502   1.638800   0.264286   0.658904
  5.753442   0.138973   1.648857   0.242207   0.662515
  5.763454   0.147153   1.659096   0.222326   0.667900
  5.773467   0.156106   1.669459   0.204543   0.674547
  5.783480   0.165892   1.679873   0.188704   0.682056
  5.793492   0.176560   1.690241   0.174633   0.690116
  5.803504   0.188136   1.700448   0.162148   0.698495
  5.813517   0.200619   1.710364   0.151068   0.707017
  5.823529   0.213965   1.719857   0.141232   0.715555
  5.833542   0.228088   1.728808   0.132485   0.724016
  5.843554   0.242859   1.737134   0.124691   0.732335
  5.853567   0.258136   1.744812   0.117726   0.740468
  5.863580   0.273785   1.751875   0.111479   0.748390
  5.873592   0.289716   1.758401   0.105854   0.756088
  5.883605   0.305897   1.764473   0.100767   0.763561
   5.89362    0.32234    1.77014    0.09615    0.77081
   5.90363    0.33904    1.77541    0.09193    0.77785
   5.91364    0.35595    1.78025    0.08807    0.78470
   5.92366    0.37294    1.78465    0.08451    0.79137
   5.93367    0.38981    1.78871    0.08123    0.79787
   5.94368    0.40636    1.79269    0.07820    0.80424
   5.95369    0.42250    1.79700    0.07540    0.81047
   5.96371    0.43833    1.80219    0.07282    0.81660
   5.97372    0.45423    1.80880    0.07044    0.82262
   5.98373    0.47083    1.81724    0.06826    0.82854
   5.99374    0.48895    1.82770    0.06627    0.83437
   6.00375    0.50948    1.84010    0.06445    0.84010
   6.01377    0.53328    1.85412    0.06280    0.84575
   6.02378    0.56115    1.86918    0.06130    0.85131
   6.03379    0.59379    1.88453    0.05995    0.85679
   6.04380    0.63174    1.89926    0.05875    0.86219
   6.05382    0.67542    1.91230    0.05767    0.86751
   6.06383    0.72503    1.92244    0.05672    0.87277
   6.07384    0.78058    1.92836    0.05588    0.87796
   6.08385    0.84179    1.92866    0.05516    0.88309
   6.09387    0.90812    1.92195    0.05455    0.88817
   6.10388    0.97877    1.90686    0.05405    0.89320
   6.11389    1.05270    1.88210    0.05365    0.89818
   6.12391    1.12868    1.84638    0.05336    0.90312
   6.13392    1.20515    1.79836    0.05316    0.90803
   6.14393    1.28004    1.73663    0.05307    0.91290
   6.15394    1.35047    1.65994    0.05309    0.91773
   6.16396    1.41253    1.56769    0.05320    0.92254
   6.17397    1.46148    1.46060    0.05342    0.92732
   6.18398    1.49237    1.34136    0.05375    0.93207
   6.19399    1.50110    1.21482    0.05417    0.93680
   6.20401    1.48553    1.08747    0.05470    0.94150
   6.21402    1.44625    0.96638    0.05534    0.94620
   6.22403    1.38641    0.85777    0.05608    0.95088
   6.23404    1.31107    0.76601    0.05695    0.95555
   6.24406    1.22595    0.69314    0.05793    0.96023
   6.25407    1.13649    0.63918    0.05906    0.96489
   6.26408    1.04717    0.60259    0.06034    0.96955
   6.27409    0.96125    0.58102    0.06177    0.97418
   6.28411    0.88084    0.57182    0.06338    0.97878
   6.29412    0.80708    0.57240    0.06514    0.98333
   6.30413    0.74041    0.58047    0.06704    0.98781
   6.31414    0.68081    0.59410    0.06908    0.99222
   6.32416    0.62794    0.61175    0.07123    0.99659
   6.33417    0.58132    0.63220    0.07347    1.00092
   6.34418    0.54043    0.65455    0.07581    1.00527
   6.35419    0.50474    0.67812    0.07826    1.00967
   6.36421    0.47374    0.70241    0.08089    1.01418
   6.37422    0.44702    0.72704    0.08375    1.01882
   6.38423    0.42420    0.75173    0.08694    1.02360
   6.39424    0.40496    0.77628    0.09056    1.02848
   6.40426    0.38903    0.80049    0.09470    1.03343
   6.41427    0.37621    0.82423    0.09945    1.03836
  6.424281   0.366308   0.847345   0.104916   1.043167
  6.434293   0.359183   0.869694   0.111159   1.047717
  6.444306   0.354709   0.891119   0.118242   1.051842
  6.454318   0.352769   0.911435   0.126198   1.055332
  6.464331   0.353234   0.930433   0.135016   1.057940
  6.474343   0.355940   0.947874   0.144617   1.059378
  6.484356   0.360667   0.963515   0.154832   1.059336
  6.494368   0.367120   0.977126   0.165366   1.057509
  6.504381   0.374926   0.988544   0.175786   1.053651
  6.514393   0.383657   0.997714   0.185522   1.047648
  6.524405   0.392897   1.004732   0.193919   1.039588
  6.534418   0.402324   1.009841   0.200326   1.029817
  6.544430   0.411789   1.013366   0.204224   1.018944
  6.554443   0.421366   1.015606   0.205345   1.007763
  6.564456   0.431316   1.016704   0.203745   0.997123
  6.574469   0.441979   1.016544   0.199788   0.987775
  6.584481   0.453623   1.014717   0.194063   0.980254
  6.594493   0.466289   1.010574   0.187255   0.974822
  6.604506   0.479662   1.003348   0.180028   0.971485
  6.614519   0.493017   0.992331   0.172934   0.970054
  6.624531   0.505239   0.977084   0.166379   0.970217
  6.634544   0.514963   0.957618   0.160610   0.971613
  6.644556   0.520799   0.934520   0.155742   0.973882
  6.654568   0.521602   0.908918   0.151770   0.976702
  6.664581   0.516710   0.882333   0.148604   0.979816
  6.674593   0.506055   0.856427   0.146103   0.983050
  6.684606   0.490140   0.832730   0.144102   0.986321
  6.694618   0.469906   0.812456   0.142459   0.989636
  6.704631   0.446544   0.796392   0.141084   0.993064
  6.714643   0.421329   0.784894   0.139966   0.996705
  6.724656   0.395457   0.777925   0.139168   1.000649
  6.734668   0.369958   0.775146   0.138813   1.004940
  6.744681   0.345619   0.776018   0.139054   1.009561
  6.754694   0.322995   0.779903   0.140047   1.014429
  6.764707   0.302409   0.786146   0.141927   1.019406
  6.774719   0.284013   0.794128   0.144801   1.024305
  6.784731   0.267819   0.803303   0.148733   1.028895
  6.794744   0.253749   0.813200   0.153742   1.032913
  6.804756   0.241666   0.823427   0.159778   1.036058
  6.814769   0.231391   0.833659   0.166712   1.038008
  6.824781   0.222723   0.843630   0.174306   1.038437
  6.834794   0.215439   0.853125   0.182192   1.037050
  6.844806   0.209298   0.861972   0.189863   1.033648
  6.854819   0.204037   0.870052   0.196699   1.028193
  6.864831   0.199373   0.877302   0.202027   1.020885
  6.874844   0.195021   0.883737   0.205240   1.012187
  6.884856   0.190714   0.889451   0.205920   1.002801
  6.894869   0.186238   0.894616   0.203945   0.993550
  6.904881   0.181466   0.899450   0.199518   0.985240
  6.914894   0.176357   0.904181   0.193103   0.978507
  6.924906   0.170953   0.909009   0.185317   0.973740
  6.934918   0.165343   0.914080   0.176796   0.971079
  6.944932   0.159641   0.919486   0.168106   0.970454
  6.954944   0.153957   0.925276   0.159690   0.971669
  6.964957   0.148395   0.931469   0.151862   0.974459
  6.974969   0.143048   0.938058   0.144823   0.978547
  6.984982   0.137998   0.945025   0.138682   0.983675
  6.994994   0.133318   0.952332   0.133486   0.989614
  7.005007   0.129072   0.959933   0.129242   0.996177
  7.015019   0.125306   0.967768   0.125932   1.003211
  7.025032   0.122055   0.975774   0.123528   1.010597
  7.035044   0.119338   0.983885   0.122001   1.018241
  7.045056   0.117160   0.992037   0.121324   1.026071
  7.055069   0.115518   1.000170   0.121480   1.034031
  7.065081   0.114400   1.008228   0.122459   1.042073
  7.075094   0.113789   1.016159   0.124265   1.050155
  7.085106   0.113659   1.023916   0.126915   1.058236
  7.095119   0.113983   1.031459   0.130440   1.066272
  7.105132   0.114728   1.038751   0.134882   1.074204
  7.115144   0.115862   1.045763   0.140300   1.081956
  7.125156   0.117350   1.052472   0.146754   1.089423
  7.135170   0.119163   1.058858   0.154306   1.096469
  7.145182   0.121278   1.064901   0.163005   1.102913
  7.155195   0.123676   1.070575   0.172870   1.108529
  7.165207   0.126335   1.075836   0.183869   1.113047
  7.175219   0.129220   1.080624   0.195893   1.116161
  7.185232   0.132262   1.084866   0.208728   1.117553
  7.195244   0.135341   1.088496   0.222036   1.116937
  7.205257   0.138290   1.091485   0.235352   1.114114
  7.215269   0.140907   1.093874   0.248114   1.109041
  7.225282   0.142993   1.095796   0.259735   1.101876
  7.235294   0.144400   1.097476   0.269698   1.092993
  7.245307   0.145078   1.099200   0.277651   1.082929
  7.255319   0.145101   1.101264   0.283464   1.072297
  7.265332   0.144649   1.103915   0.287219   1.061675
  7.275344   0.143979   1.107311   0.289159   1.051538
  7.285357   0.143376   1.111511   0.289611   1.042229
  7.295370   0.143111   1.116480   0.288942   1.033984
  7.305381   0.143416   1.122117   0.287543   1.026945
  7.315394   0.144484   1.128279   0.285832   1.021161
  7.325407   0.146461   1.134795   0.284251   1.016565
  7.335420   0.149463   1.141482   0.283227   1.012941
  7.345432   0.153581   1.148137   0.283116   1.009912
  7.355445   0.158883   1.154544   0.284128   1.006963
  7.365457   0.165414   1.160452   0.286270   1.003490
  7.375470   0.173184   1.165579   0.289299   0.998882
  7.385482   0.182149   1.169598   0.292713   0.992628
  7.395495   0.192186   1.172143   0.295789   0.984426
  7.405507   0.203054   1.172828   0.297673   0.974297
  7.415520   0.214368   1.171285   0.297543   0.962635
  7.425532   0.225574   1.167229   0.294786   0.950182
  7.435544   0.235972   1.160545   0.289155   0.937888
  7.445557   0.244779   1.151365   0.280823   0.926709
  7.455569   0.251246   1.140129   0.270323   0.917413
  7.465582   0.254806   1.127545   0.258393   0.910450
  7.475595   0.255193   1.114497   0.245805   0.905938
  7.485608   0.252480   1.101874   0.233220   0.903721
  7.495619   0.247029   1.090430   0.221121   0.903474
  7.505632   0.239367   1.080693   0.209794   0.904812
  7.515645   0.230080   1.072966   0.199361   0.907360
  7.525658   0.219722   1.067366   0.189822   0.910814
  7.535670   0.208788   1.063885   0.181114   0.914949
  7.545683   0.197700   1.062421   0.173152   0.919622
  7.555695   0.186816   1.062809   0.165861   0.924744
  7.565707   0.176416   1.064833   0.159180   0.930263
  7.575720   0.166709   1.068253   0.153068   0.936149
  7.585732   0.157827   1.072814   0.147498   0.942380
  7.595745   0.149837   1.078277   0.142453   0.948946
  7.605757   0.142753   1.084421   0.137934   0.955841
  7.615770   0.136547   1.091060   0.133950   0.963060
  7.625782   0.131165   1.098037   0.130525   0.970589
  7.635795   0.126534   1.105232   0.127687   0.978410
  7.645807   0.122570   1.112555   0.125464   0.986493
  7.655820   0.119188   1.119949   0.123881   0.994804
  7.665833   0.116305   1.127385   0.122958   1.003306
  7.675846   0.113853   1.134864   0.122714   1.011966
  7.685858   0.111784   1.142399   0.123166   1.020751
  7.695869   0.110072   1.150017   0.124337   1.029631
  7.705883   0.108709   1.157742   0.126255   1.038580
  7.715895   0.107707   1.165587   0.128955   1.047565
  7.725908   0.107081   1.173558   0.132484   1.056551
  7.735920   0.106853   1.181652   0.136899   1.065493
  7.745933   0.107042   1.189856   0.142269   1.074332
  7.755945   0.107666   1.198153   0.148672   1.082986
  7.765958   0.108742   1.206525   0.156196   1.091348
  7.775970   0.110285   1.214949   0.164931   1.099271
  7.785983   0.112309   1.223403   0.174961   1.106562
  7.795995   0.114830   1.231859   0.186350   1.112971
  7.806007   0.117860   1.240290   0.199120   1.118183
  7.816020   0.121413   1.248667   0.213224   1.121816
  7.826032   0.125499   1.256956   0.228498   1.123430
  7.836045   0.130133   1.265128   0.244623   1.122555
  7.846057   0.135332   1.273151   0.261079   1.118754
  7.856071   0.141125   1.280988   0.277128   1.111711
  7.866083   0.147549   1.288587   0.291835   1.101351
  7.876096   0.154654   1.295874   0.304171   1.087951
  7.886107   0.162484   1.302732   0.313179   1.072212
  7.896121   0.171065   1.309003   0.318188   1.055212
  7.906133   0.180376   1.314480   0.318978   1.038265
  7.916146   0.190321   1.318924   0.315860   1.022668
  7.926158   0.200702   1.322087   0.309594   1.009475
  7.936170   0.211199   1.323761   0.301216   0.999337
  7.946183   0.221375   1.323840   0.291827   0.992476
  7.956195   0.230708   1.322389   0.282431   0.988742
  7.966208   0.238679   1.319690   0.273829   0.987727
  7.976220   0.244878   1.316254   0.266592   0.988874
  7.986233   0.249120   1.312750   0.261068   0.991572
  7.996245   0.251498   1.309884   0.257414   0.995216
  8.006258   0.252370   1.308270   0.255624   0.999242
  8.016271   0.252275   1.308322   0.255566   1.003161
  8.026283   0.251818   1.310227   0.257005   1.006580
  8.036296   0.251575   1.313967   0.259642   1.009224
  8.046309   0.252034   1.319380   0.263168   1.010942
  8.056320   0.253579   1.326215   0.267310   1.011694
  8.066333   0.256493   1.334180   0.271882   1.011505
  8.076345   0.260980   1.342974   0.276793   1.010394
  8.086358   0.267174   1.352298   0.282014   1.008311
  8.096371   0.275163   1.361867   0.287505   1.005095
  8.106383   0.285000   1.371418   0.293122   1.000498
  8.116396   0.296726   1.380705   0.298555   0.994248
  8.126408   0.310376   1.389493   0.303306   0.986166
  8.136421   0.326006   1.397540   0.306733   0.976267
  8.146433   0.343680   1.404574   0.308155   0.964846
  8.156446   0.363480   1.410268   0.306995   0.952494
  8.166458   0.385466   1.414203   0.302928   0.940038
  8.176471   0.409655   1.415851   0.295973   0.928392
  8.186483   0.435941   1.414562   0.286505   0.918396
  8.196495   0.464037   1.409586   0.275160   0.910662
  8.206509   0.493396   1.400132   0.262699   0.905497
  8.216520   0.523157   1.385464   0.249868   0.902926
  8.226534   0.552146   1.365023   0.237283   0.902751
  8.236546   0.578891   1.338566   0.225400   0.904653
  8.246558   0.601736   1.306294   0.214511   0.908274
  8.256571   0.618971   1.268978   0.204786   0.913273
  8.266583   0.629079   1.228008   0.196305   0.919350
  8.276596   0.631007   1.185363   0.189108   0.926251
  8.286609   0.624444   1.143376   0.183207   0.933757
  8.296621   0.609957   1.104403   0.178605   0.941672
  8.306634   0.588916   1.070400   0.175293   0.949810
  8.316646   0.563228   1.042644   0.173253   0.957990
  8.326658   0.534962   1.021611   0.172448   0.966035
  8.336671   0.506022   1.007073   0.172823   0.973765
  8.346684   0.477946   0.998301   0.174297   0.981007
  8.356696   0.451820   0.994283   0.176761   0.987599
  8.366709   0.428312   0.993911   0.180077   0.993397
  8.376721   0.407733   0.996093   0.184089   0.998285
  8.386733   0.390111   0.999819   0.188627   1.002179
  8.396747   0.375237   1.004193   0.193527   1.005018
  8.406758   0.362707   1.008464   0.198626   1.006750
  8.416772   0.351949   1.012061   0.203752   1.007322
  8.426784   0.342266   1.014641   0.208698   1.006676
  8.436796   0.332918   1.016138   0.213201   1.004776
  8.446809   0.323224   1.016767   0.216932   1.001654
  8.456820   0.312680   1.016986   0.219521   0.997449
  8.466834   0.301044   1.017390   0.220614   0.992449
  8.476846   0.288362   1.018576   0.219940   0.987091
  8.486859   0.274914   1.021021   0.217391   0.981917
  8.496871   0.261115   1.025007   0.213065   0.977498
  8.506884   0.247404   1.030612   0.207260   0.974335
  8.516896   0.234173   1.037751   0.200423   0.972778
  8.526909   0.221709   1.046239   0.193060   0.972990
  8.536922   0.210199   1.055838   0.185658   0.974960
  8.546934   0.199735   1.066313   0.178625   0.978546
  8.556947   0.190342   1.077444   0.172271   0.983525
  8.566959   0.181992   1.089051   0.166803   0.989649
  8.576971   0.174632   1.100986   0.162350   0.996668
  8.586984   0.168194   1.113136   0.158980   1.004356
  8.596996   0.162602   1.125421   0.156723   1.012509
  8.607009   0.157785   1.137780   0.155585   1.020947
  8.617022   0.153674   1.150173   0.155562   1.029508
  8.627034   0.150206   1.162574   0.156641   1.038036
  8.637047   0.147325   1.174970   0.158801   1.046379
  8.647058   0.144985   1.187351   0.162012   1.054374
  8.657072   0.143142   1.199720   0.166226   1.061849
  8.667084   0.141761   1.212077   0.171359   1.068618
  8.677097   0.140810   1.224432   0.177286   1.074485
  8.687109   0.140265   1.236791   0.183814   1.079260
  8.697122   0.140101   1.249170   0.190677   1.082786
  8.707134   0.140301   1.261578   0.197532   1.084976
  8.717146   0.140849   1.274034   0.203984   1.085858
  8.727160   0.141734   1.286558   0.209640   1.085601
  8.737171   0.142949   1.299168   0.214169   1.084523
  8.747185   0.144494   1.311890   0.217372   1.083043
  8.757196   0.146376   1.324743   0.219208   1.081621
  8.767209   0.148607   1.337748   0.219784   1.080686
  8.777222   0.151204   1.350919   0.219318   1.080592
  8.787234   0.154185   1.364267   0.218097   1.081609
  8.797247   0.157570   1.377796   0.216446   1.083917
  8.807260   0.161380   1.391510   0.214709   1.087616
  8.817272   0.165628   1.405403   0.213237   1.092726
  8.827285   0.170327   1.419471   0.212365   1.099194
  8.837296   0.175480   1.433708   0.212401   1.106898
  8.847309   0.181083   1.448112   0.213610   1.115670
  8.857322   0.187124   1.462692   0.216217   1.125310
  8.867334   0.193584   1.477471   0.220408   1.135599
  8.877347   0.200447   1.492494   0.226350   1.146308
  8.887360   0.207707   1.507827   0.234191   1.157190
  8.897372   0.215383   1.523561   0.244076   1.167980
  8.907384   0.223524   1.539792   0.256145   1.178366
  8.917397   0.232215   1.556622   0.270529   1.187985
  8.927409   0.241573   1.574136   0.287331   1.196391
  8.937423   0.251746   1.592403   0.306603   1.203042
  8.947434   0.262897   1.611464   0.328292   1.207280
  8.957447   0.275208   1.631340   0.352188   1.208343
  8.967460   0.288863   1.652022   0.377829   1.205385
  8.977471   0.304058   1.673490   0.404433   1.197563
  8.987485   0.320996   1.695702   0.430826   1.184164
  8.997497   0.339891   1.718598   0.455436   1.164812
  9.007510   0.360973   1.742102   0.476414   1.139680
  9.017522   0.384486   1.766105   0.491877   1.109682
  9.027534   0.410693   1.790477   0.500279   1.076487
  9.037547   0.439869   1.815046   0.500777   1.042355
  9.047560   0.472313   1.839608   0.493461   1.009721
  9.057572   0.508334   1.863914   0.479331   0.980763
  9.067585   0.548279   1.887670   0.460031   0.957023
  9.077598   0.592528   1.910515   0.437476   0.939273
  9.087609   0.641524   1.931998   0.413493   0.927565
  9.097622   0.695778   1.951517   0.389594   0.921431
  9.107635   0.755822   1.968240   0.366896   0.920106
  9.117647   0.822179   1.981035   0.346118   0.922711
  9.127660   0.895204   1.988397   0.327664   0.928379
  9.137672   0.974966   1.988438   0.311687   0.936327
  9.147685   1.061014   1.978920   0.298175   0.945882
  9.157698   1.152228   1.957378   0.286995   0.956491
  9.167709   1.246589   1.921340   0.277939   0.967713
  9.177723   1.341118   1.868619   0.270745   0.979221
  9.187735   1.431802   1.797721   0.265130   0.990796
  9.197748   1.513790   1.708272   0.260812   1.002330
  9.207760   1.581682   1.601528   0.257541   1.013810
  9.217772   1.630210   1.480693   0.255132   1.025302
  9.227785   1.655101   1.351011   0.253479   1.036915
  9.237797   1.654061   1.219354   0.252560   1.048756
  9.247810   1.627460   1.093161   0.252409   1.060900
  9.257822   1.578395   0.979214   0.253092   1.073376
  9.267836   1.511999   0.882445   0.254665   1.086172
  9.277847   1.434366   0.805444   0.257161   1.099255
  9.287860   1.351396   0.748505   0.260586   1.112608
  9.297873   1.268070   0.710247   0.264935   1.126242
  9.307885   1.188073   0.688286   0.270225   1.140213
  9.317898   1.113892   0.679888   0.276520   1.154603
  9.327910   1.046994   0.682359   0.283953   1.169499
  9.337923   0.988166   0.693253   0.292723   1.184956
  9.347935   0.937713   0.710421   0.303082   1.200972
  9.357947   0.895642   0.731985   0.315317   1.217479
  9.367960   0.861761   0.756277   0.329723   1.234325
  9.377973   0.835702   0.781797   0.346597   1.251291
  9.387985   0.816944   0.807160   0.366222   1.268071
  9.397998   0.804774   0.831100   0.388863   1.284280
  9.408010   0.798260   0.852476   0.414738   1.299431
  9.418023   0.796212   0.870349   0.444007   1.312930
  9.428035   0.797182   0.884086   0.476707   1.324065
  9.438048   0.799535   0.893519   0.512717   1.332026
  9.448060   0.801622   0.899055   0.551665   1.335940
  9.458074   0.802043   0.901720   0.592898   1.334963
  9.468085   0.799931   0.903024   0.635432   1.328409
  9.478098   0.795144   0.904685   0.678034   1.315903
  9.488111   0.788279   0.908264   0.719353   1.297509
  9.498122   0.780488   0.914870   0.758134   1.273772
  9.508136   0.773190   0.925012   0.793467   1.245599
  9.518147   0.767785   0.938620   0.824876   1.214051
  9.528161   0.765456   0.955193   0.852306   1.180082
  9.538173   0.767095   0.973965   0.875928   1.144410
  9.548185   0.773313   0.994067   0.895967   1.107501
  9.558198   0.784508   1.014599   0.912588   1.069696
  9.568211   0.800948   1.034674   0.925924   1.031278
  9.578223   0.822817   1.053365   0.936109   0.992514
  9.588236   0.850225   1.069664   0.943292   0.953579
  9.598248   0.883154   1.082416   0.947544   0.914569
  9.608260   0.921375   1.090306   0.948783   0.875562
  9.618273   0.964329   1.091882   0.946784   0.836793
  9.628285   1.010993   1.085656   0.941335   0.798781
  9.638298   1.059823   1.070270   0.932476   0.762278
  9.648311   1.108719   1.044733   0.920659   0.728086
  9.658323   1.155165   1.008650   0.906729   0.696748
  9.668336   1.196415   0.962429   0.891714   0.668359
  9.678349   1.229823   0.907357   0.876525   0.642522
  9.688360   1.253157   0.845605   0.861729   0.618529
  9.698374   1.264965   0.780032   0.847460   0.595598
  9.708385   1.264833   0.713897   0.833520   0.573111
  9.718399   1.253518   0.650346   0.819551   0.550698
  9.728411   1.232795   0.591953   0.805217   0.528200
  9.738423   1.205059   0.540315   0.790248   0.505538
  9.748436   1.172809   0.495985   0.774395   0.482611
  9.758448   1.138224   0.458663   0.757300   0.459307
  9.768461   1.102915   0.427516   0.738427   0.435623
  9.778473   1.067939   0.401511   0.717131   0.411844
  9.788486   1.033886   0.379599   0.692837   0.388620
  9.798498   1.001010   0.360808   0.665294   0.366918
  9.808511   0.969263   0.344267   0.634704   0.347798
  9.818523   0.938327   0.329271   0.601715   0.332155
  9.828535   0.907670   0.315381   0.567264   0.320537
  9.838549   0.876657   0.302501   0.532342   0.313085
  9.848560   0.844736   0.290901   0.497839   0.309616
  9.858574   0.811578   0.281117   0.464435   0.309747
  9.868586   0.777178   0.273818   0.432623   0.313009
  9.878598   0.741845   0.269643   0.402724   0.318926
  9.888611   0.706155   0.269076   0.374959   0.327032
  9.898623   0.670838   0.272369   0.349452   0.336884
  9.908636   0.636680   0.279510   0.326261   0.348057
  9.918649   0.604406   0.290249   0.305369   0.360153
  9.928661   0.574611   0.304148   0.286707   0.372805
  9.938673   0.547716   0.320670   0.270147   0.385685
  9.948686   0.523968   0.339251   0.255518   0.398515
  9.958698   0.503478   0.359357   0.242619   0.411060
  9.968711   0.486251   0.380524   0.231220   0.423149
  9.978724   0.472253   0.402362   0.221080   0.434665
  9.988736   0.461437   0.424554   0.211958   0.445559
  9.998749   0.453782   0.446810   0.203639   0.455841
  10.00876    0.44930    0.46885    0.19595    0.46557
  10.01877    0.44803    0.49037    0.18878    0.47483
  10.02879    0.45001    0.51099    0.18205    0.48368
  10.03880    0.45526    0.53027    0.17575    0.49219
  10.04881    0.46373    0.54768    0.16985    0.50037
  10.05882    0.47530    0.56263    0.16431    0.50821
  10.06884    0.48966    0.57445    0.15909    0.51570
  10.07885    0.50635    0.58245    0.15412    0.52286
  10.08886    0.52464    0.58598    0.14932    0.52971
  10.09887    0.54357    0.58454    0.14464    0.53631
  10.10889    0.56190    0.57788    0.14007    0.54273
  10.11890    0.57827    0.56613    0.13561    0.54900
  10.12891    0.59130    0.54991    0.13127    0.55516
  10.13892    0.59986    0.53035    0.12707    0.56121
  10.14894    0.60324    0.50895    0.12299    0.56714
  10.15895    0.60136    0.48739    0.11901    0.57296
  10.16896    0.59478    0.46721    0.11508    0.57867
  10.17897    0.58451    0.44956    0.11120    0.58433
  10.18899    0.57187    0.43506    0.10733    0.58998
  10.19900    0.55815    0.42381    0.10351    0.59570
  10.20901    0.54446    0.41543    0.09977    0.60152
  10.21902    0.53162    0.40926    0.09618    0.60745
  10.22904    0.52011    0.40447    0.09278    0.61351
  10.23905    0.51005    0.40017    0.08962    0.61966
  10.24906    0.50124    0.39553    0.08674    0.62586
  10.25907    0.49315    0.38986    0.08416    0.63209
  10.26909    0.48502    0.38276    0.08187    0.63830
  10.27910    0.47592    0.37418    0.07990    0.64446
  10.28911    0.46499    0.36455    0.07822    0.65053
  10.29912    0.45163    0.35464    0.07683    0.65647
  10.30914    0.43565    0.34543    0.07572    0.66226
  10.31915    0.41734    0.33790    0.07486    0.66785
  10.32916    0.39734    0.33274    0.07424    0.67321
  10.33917    0.37647    0.33031    0.07381    0.67831
  10.34919    0.35557    0.33057    0.07352    0.68310
  10.35920    0.33527    0.33325    0.07332    0.68758
  10.36921    0.31602    0.33788    0.07310    0.69174
  10.37922    0.29803    0.34400    0.07280    0.69559
  10.38924    0.28131    0.35117    0.07234    0.69921
  10.39925    0.26576    0.35908    0.07164    0.70267
  10.40926    0.25125    0.36752    0.07070    0.70607
  10.41927    0.23762    0.37640    0.06952    0.70952
  10.42929    0.22480    0.38570    0.06817    0.71311
  10.43930    0.21273    0.39540    0.06670    0.71688
  10.44931    0.20143    0.40549    0.06520    0.72086
  10.45932    0.19092    0.41595    0.06374    0.72504
  10.46934    0.18122    0.42670    0.06236    0.72941
  10.47935    0.17236    0.43767    0.06111    0.73393
  10.48936    0.16432    0.44877    0.06000    0.73858
  10.49937    0.15706    0.45993    0.05904    0.74332
  10.50939    0.15056    0.47108    0.05825    0.74814
  10.51940    0.14477    0.48216    0.05762    0.75302
  10.52941    0.13964    0.49313    0.05714    0.75793
  10.53942    0.13511    0.50396    0.05682    0.76288
  10.54944    0.13114    0.51463    0.05664    0.76784
  10.55945    0.12769    0.52512    0.05661    0.77283
  10.56946    0.12471    0.53544    0.05671    0.77783
  10.57947    0.12217    0.54558    0.05695    0.78284
  10.58949    0.12004    0.55555    0.05731    0.78786
  10.59950    0.11830    0.56536    0.05780    0.79290
  10.60951    0.11695    0.57502    0.05840    0.79795
  10.61952    0.11598    0.58454    0.05912    0.80302
  10.62954    0.11539    0.59393    0.05995    0.80813
  10.63955    0.11522    0.60319    0.06088    0.81329
  10.64956    0.11546    0.61229    0.06192    0.81851
  10.65957    0.11616    0.62121    0.06307    0.82382
  10.66959    0.11732    0.62992    0.06437    0.82923
  10.67960    0.11897    0.63836    0.06582    0.83476
  10.68961    0.12110    0.64646    0.06744    0.84042
  10.69962    0.12373    0.65414    0.06927    0.84622
  10.70964    0.12680    0.66130    0.07132    0.85216
  10.71965    0.13027    0.66781    0.07362    0.85825
  10.72966    0.13401    0.67357    0.07621    0.86449
  10.73967    0.13785    0.67849    0.07911    0.87090
  10.74969    0.14156    0.68251    0.08236    0.87747
  10.75970    0.14488    0.68570    0.08600    0.88421
  10.76971    0.14755    0.68819    0.09007    0.89112
  10.77973    0.14935    0.69025    0.09463    0.89820
  10.78974    0.15019    0.69222    0.09973    0.90546
  10.79975    0.15010    0.69447    0.10544    0.91287
  10.80976    0.14926    0.69731    0.11185    0.92042
  10.81977    0.14794    0.70097    0.11905    0.92810
  10.82979    0.14644    0.70556    0.12713    0.93587
  10.83980    0.14505    0.71109    0.13623    0.94366
  10.84981    0.14402    0.71749    0.14647    0.95140
  10.85983    0.14355    0.72463    0.15800    0.95897
  10.86984    0.14379    0.73240    0.17099    0.96622
  10.87985    0.14485    0.74067    0.18560    0.97294
  10.88986    0.14681    0.74929    0.20199    0.97885
  10.89988    0.14975    0.75816    0.22031    0.98357
  10.90989    0.15374    0.76715    0.24063    0.98663
  10.91990    0.15884    0.77614    0.26296    0.98745
  10.92991    0.16513    0.78498    0.28713    0.98535
  10.93993    0.17269    0.79351    0.31275    0.97953
  10.94994    0.18158    0.80153    0.33913    0.96924
  10.95995    0.19187    0.80879    0.36520    0.95382
  10.96996    0.20357    0.81497    0.38956    0.93291
  10.97997    0.21664    0.81969    0.41050    0.90669
  10.98999    0.23093    0.82253    0.42631    0.87598
  11.00000    0.24615    0.82302    0.43560    0.84236
# 
# 08/23/2016 at 13:20 YAMBO @ narro [start]
# 08/23/2016 at 13:20               [end]
#  
# Timing   [Min/Max/Average]: 04s/04s/04s
#
# .-Input file : yambo.in
# | optics                       # [R OPT] Optics
# | bse                          # [R BSE] Bethe Salpeter Equation.
# | bsk                          # [R BSK] Bethe Salpeter Equation kernel
# | bss                          # [R BSS] Bethe Salpeter Equation solver
# | tddft                        # [R   K] Use TDDFT kernel
# | BoseTemp= 0.000000     eV    # Bosonic Temperature
# | BS_nCPU_invert= 1            # [PARALLEL] CPUs for matrix inversion
# | BS_nCPU_diago= 1             # [PARALLEL] CPUs for matrix diagonalization
# | NonPDirs= "XYZ"              # [X/BSS] Non periodic chartesian directions (X,Y,Z,XY...)
# | BSEmod= "resonant"           # [BSE] resonant/retarded/coupling
# | BSKmod= "ALDA"               # [BSE] IP/Hartree/HF/ALDA/SEX/BSfxc
# | BSSmod= "d"                  # [BSS] (h)aydock/(d)iagonalization/(i)nversion/(t)ddft`
# | BSENGexx= 1535         mHa   # [BSK] Exchange components
# | % BEnRange
# |   3.00000 | 11.00000 | eV    # [BSS] Energy range
# | %
# | % BDmRange
# |   0.10000 |  0.10000 | eV    # [BSS] Damping range
# | %
# | BEnSteps=  800               # [BSS] Energy steps
# | % BLongDir
# | 0.5774E-5 |0.5774E-5 |0.5774E-5 |        # [BSS] [cc] Electric Field
# | %
# | % BSEBands
# |   14 |  34 |                 # [BSK] Bands range
# | %
