#                                                           
#  /$$     /$$ /$$$$$$  /$$      /$$ /$$$$$$$   /$$$$$$     
# |  $$   /$$//$$__  $$| $$$    /$$$| $$__  $$ /$$__  $$    
#  \  $$ /$$/| $$  \ $$| $$$$  /$$$$| $$  \ $$| $$  \ $$    
#   \  $$$$/ | $$$$$$$$| $$ $$/$$ $$| $$$$$$$ | $$  | $$    
#    \  $$/  | $$__  $$| $$  $$$| $$| $$__  $$| $$  | $$    
#     | $$   | $$  | $$| $$\  $ | $$| $$  \ $$| $$  | $$    
#     | $$   | $$  | $$| $$ \/  | $$| $$$$$$$/|  $$$$$$/    
#     |__/   |__/  |__/|__/     |__/|_______/  \______/     
#                                                           
#       Version 4.2.0 Revision 14456 Hash cc1a9b3           
#                  MPI+SLK+OpenMP Build                     
#               http://www.yambo-code.org                   
#
# Off-diagonal Absorption @ Q(1) [q->0 direction] :0.1000E-4  0.000     0.000   
#
#
#
# - The Green`s function is Retarded -
# - Using the Length Gauge -
# - [r,Vnl] *is* included -
#
#
#    Anomalous Hall effect sH
#    sH                        
#      [fs]^-1    [Ohm*cm]^-1  [e^2/hbar]
#    0.265E-10    0.295E-07    0.121E-01
#
#    E/ev[1]      off-Im[2]    off-Re[3]
#
   0.2000       -.1602E-5    -.8155E-5
   0.2195       -.1887E-5    -.8070E-5
   0.2391       -.2164E-5    -.8001E-5
   0.2586       -.2455E-5    -.7903E-5
   0.2782       -.2765E-5    -.7761E-5
   0.2977       -.3058E-5    -.7621E-5
   0.3173       -.3363E-5    -.7484E-5
   0.3368       -.3617E-5    -.7319E-5
   0.3564       -.3897E-5    -.7069E-5
   0.3759       -.4123E-5    -.6865E-5
   0.3955       -.4343E-5    -.6708E-5
   0.4150       -.4590E-5    -.6375E-5
   0.4346       -.4758E-5    -.6186E-5
   0.4541       -.4882E-5    -.5964E-5
   0.4737       -.5020E-5    -.5729E-5
   0.4932       -.5160E-5    -.5433E-5
   0.5128       -.5330E-5    -.5279E-5
   0.5323       -.5413E-5    -.4991E-5
   0.5519       -.5577E-5    -.4834E-5
   0.5714       -.5732E-5    -.4623E-5
   0.5910       -.5869E-5    -.4383E-5
   0.6105       -.6058E-5    -.4171E-5
   0.6301       -.6190E-5    -.3995E-5
   0.6496       -.6326E-5    -.3676E-5
   0.6692       -.6486E-5    -.3364E-5
   0.6887       -.6562E-5    -.3096E-5
   0.7083       -.6745E-5    -.2731E-5
   0.7278       -.6775E-5    -.2329E-5
   0.7474       -.6794E-5    -.1982E-5
   0.7669       -.6809E-5    -.1564E-5
   0.7865       -.6756E-5    -.1168E-5
   0.8060       -.6688E-5    -.7975E-6
   0.8256       -.6542E-5    -.4484E-6
   0.8451       -.6386E-5    -.1101E-6
   0.8647       -.6143E-5    0.2428E-6
   0.8842       -.5957E-5    0.4907E-6
   0.9038       -.5688E-5    0.7418E-6
   0.9233       -.5458E-5    0.9461E-6
   0.9429       -.5184E-5    0.1104E-5
   0.9624       -.4936E-5    0.1259E-5
   0.9820       -.4716E-5    0.1429E-5
    1.002       -.4458E-5    0.1506E-5
    1.021       -.4226E-5    0.1572E-5
    1.041       -.3978E-5    0.1655E-5
    1.060       -.3796E-5    0.1693E-5
    1.080       -.3593E-5    0.1687E-5
    1.099       -.3339E-5    0.1687E-5
    1.119       -.3190E-5    0.1681E-5
    1.138       -.3041E-5    0.1624E-5
    1.158       -.2950E-5    0.1612E-5
    1.177       -.2786E-5    0.1705E-5
    1.197       -.2560E-5    0.1529E-5
    1.217       -.2495E-5    0.1570E-5
    1.236       -.2411E-5    0.1511E-5
    1.256       -.2330E-5    0.1466E-5
    1.275       -.2222E-5    0.1497E-5
    1.295       -.2133E-5    0.1434E-5
    1.314       -.2061E-5    0.1369E-5
    1.334       -.1984E-5    0.1372E-5
    1.353       -.1909E-5    0.1392E-5
    1.373       -.1826E-5    0.1335E-5
    1.392       -.1769E-5    0.1303E-5
    1.412       -.1687E-5    0.1289E-5
    1.432       -.1643E-5    0.1251E-5
    1.451       -.1576E-5    0.1244E-5
    1.471       -.1594E-5    0.1212E-5
    1.490       -.1523E-5    0.1192E-5
    1.510       -.1477E-5    0.1199E-5
    1.529       -.1463E-5    0.1160E-5
    1.549       -.1393E-5    0.1147E-5
    1.568       -.1321E-5    0.1167E-5
    1.588       -.1287E-5    0.1146E-5
    1.608       -.1227E-5    0.1112E-5
    1.627       -.1156E-5    0.1085E-5
    1.647       -.1149E-5    0.1052E-5
    1.666       -.1062E-5    0.1036E-5
    1.686       -.1045E-5    0.1015E-5
    1.705       -.1024E-5    0.9967E-6
    1.725       -.1005E-5    0.9961E-6
    1.744       -.9384E-6    0.9989E-6
    1.764       -.8498E-6    0.9619E-6
    1.783       -.8618E-6    0.9406E-6
    1.803       -.8206E-6    0.9213E-6
    1.823       -.8069E-6    0.8769E-6
    1.842       -.7022E-6    0.8516E-6
    1.862       -.7199E-6    0.8324E-6
    1.881       -.7006E-6    0.7850E-6
    1.901       -.6586E-6    0.7441E-6
    1.920       -.6420E-6    0.7622E-6
    1.940       -.6106E-6    0.7130E-6
    1.959       -.6087E-6    0.6953E-6
    1.979       -.5646E-6    0.5878E-6
    1.998       -.5467E-6    0.6401E-6
    2.018       -.5153E-6    0.5963E-6
    2.038       -.5326E-6    0.5680E-6
    2.057       -.5373E-6    0.5139E-6
    2.077       -.4982E-6    0.4913E-6
    2.096       -.5232E-6    0.4859E-6
    2.116       -.5134E-6    0.4923E-6
    2.135       -.5391E-6    0.4031E-6
    2.155       -.5280E-6    0.3964E-6
    2.174       -.4973E-6    0.3898E-6
    2.194       -.4909E-6    0.3649E-6
    2.214       -.5154E-6    0.3528E-6
    2.233       -.5520E-6    0.3493E-6
    2.253       -.5191E-6    0.3779E-6
    2.272       -.5123E-6    0.3608E-6
    2.292       -.4962E-6    0.3848E-6
    2.311       -.4664E-6    0.3827E-6
    2.331       -.4571E-6    0.3189E-6
    2.350       -.4580E-6    0.2981E-6
    2.370       -.4469E-6    0.3130E-6
    2.389       -.4443E-6    0.2891E-6
    2.409       -.4479E-6    0.3278E-6
    2.429       -.4405E-6    0.2426E-6
    2.448       -.3986E-6    0.2852E-6
    2.468       -.3828E-6    0.2578E-6
    2.487       -.3962E-6    0.2496E-6
    2.507       -.4059E-6    0.2625E-6
    2.526       -.4008E-6    0.2194E-6
    2.546       -.3615E-6    0.2228E-6
    2.565       -.3392E-6    0.1835E-6
    2.585       -.3509E-6    0.1608E-6
    2.605       -.3576E-6    0.1570E-6
    2.624       -.3273E-6    0.1484E-6
    2.644       -.3384E-6    0.1122E-6
    2.663       -.3250E-6    0.8620E-7
    2.683       -.3392E-6    0.6754E-7
    2.702       -.3464E-6    0.8687E-7
    2.722       -.3418E-6    0.8405E-7
    2.741       -.3674E-6    0.2448E-7
    2.761       -.3668E-6    0.3054E-7
    2.780       -.3288E-6    0.1589E-7
    2.800       -.3853E-6    -.2261E-7
    2.820       -.3860E-6    -.4907E-7
    2.839       -.4050E-6    -.1198E-7
    2.859       -.4022E-6    -.3478E-7
    2.878       -.3872E-6    -.6889E-7
    2.898       -.3972E-6    -.5797E-7
    2.917       -.4257E-6    -.9065E-7
    2.937       -.4212E-6    -.9033E-7
    2.956       -.4422E-6    -.1275E-6
    2.976       -.4397E-6    -.1228E-6
    2.995       -.4788E-6    -.9284E-7
    3.015       -.5140E-6    -.8089E-7
    3.035       -.4957E-6    -.1088E-6
    3.054       -.4990E-6    -.1315E-6
    3.074       -.5156E-6    -.1016E-6
    3.093       -.5542E-6    -.1244E-6
    3.113       -.5179E-6    -.8386E-7
    3.132       -.5652E-6    -.7391E-7
    3.152       -.5827E-6    -.7940E-7
    3.171       -.5893E-6    -.8761E-7
    3.191       -.6285E-6    -.9902E-7
    3.211       -.6143E-6    -.8846E-7
    3.230       -.5933E-6    -.5655E-7
    3.250       -.6263E-6    -.4328E-7
    3.269       -.6515E-6    -.3753E-7
    3.289       -.6421E-6    -.5351E-7
    3.308       -.6363E-6    -.1436E-7
    3.328       -.6528E-6    -.1739E-7
    3.347       -.6549E-6    -.4834E-8
    3.367       -.6781E-6    0.9061E-8
    3.386       -.6612E-6    0.7231E-8
    3.406       -.6767E-6    0.4677E-7
    3.426       -.6390E-6    0.5148E-7
    3.445       -.6970E-6    0.5276E-7
    3.465       -.6562E-6    0.4835E-7
    3.484       -.6558E-6    0.7207E-7
    3.504       -.6481E-6    0.1038E-6
    3.523       -.6667E-6    0.1038E-6
    3.543       -.6548E-6    0.1145E-6
    3.562       -.6659E-6    0.1252E-6
    3.582       -.6348E-6    0.1647E-6
    3.602       -.6067E-6    0.1645E-6
    3.621       -.6152E-6    0.1551E-6
    3.641       -.6170E-6    0.1761E-6
    3.660       -.5815E-6    0.1798E-6
    3.680       -.6049E-6    0.1664E-6
    3.699       -.5737E-6    0.1975E-6
    3.719       -.5666E-6    0.2041E-6
    3.738       -.5710E-6    0.1938E-6
    3.758       -.5712E-6    0.2047E-6
    3.777       -.5607E-6    0.1912E-6
    3.797       -.5587E-6    0.1858E-6
    3.817       -.5292E-6    0.2122E-6
    3.836       -.5415E-6    0.2207E-6
    3.856       -.5162E-6    0.2155E-6
    3.875       -.5294E-6    0.2137E-6
    3.895       -.5181E-6    0.1988E-6
    3.914       -.5012E-6    0.2201E-6
    3.934       -.5018E-6    0.2455E-6
    3.953       -.5090E-6    0.2267E-6
    3.973       -.5024E-6    0.2012E-6
    3.992       -.4810E-6    0.2192E-6
    4.012       -.4891E-6    0.2076E-6
    4.032       -.4611E-6    0.2269E-6
    4.051       -.4715E-6    0.2171E-6
    4.071       -.4797E-6    0.2262E-6
    4.090       -.4727E-6    0.2299E-6
    4.110       -.4579E-6    0.2391E-6
    4.129       -.4315E-6    0.2479E-6
    4.149       -.4559E-6    0.2301E-6
    4.168       -.4414E-6    0.2092E-6
    4.188       -.4232E-6    0.2502E-6
    4.208       -.4433E-6    0.2454E-6
    4.227       -.4323E-6    0.2408E-6
    4.247       -.4153E-6    0.2232E-6
    4.266       -.4098E-6    0.2327E-6
    4.286       -.4208E-6    0.2435E-6
    4.305       -.3916E-6    0.2513E-6
    4.325       -.3966E-6    0.2329E-6
    4.344       -.3966E-6    0.2201E-6
    4.364       -.3935E-6    0.2557E-6
    4.383       -.3686E-6    0.2446E-6
    4.403       -.3632E-6    0.2287E-6
    4.423       -.3601E-6    0.2346E-6
    4.442       -.3389E-6    0.2330E-6
    4.462       -.3402E-6    0.2398E-6
    4.481       -.3388E-6    0.2354E-6
    4.501       -.3338E-6    0.2445E-6
    4.520       -.3380E-6    0.2259E-6
    4.540       -.3207E-6    0.2436E-6
    4.559       -.3121E-6    0.2328E-6
    4.579       -.3160E-6    0.2152E-6
    4.598       -.3013E-6    0.2157E-6
    4.618       -.2987E-6    0.2304E-6
    4.638       -.3037E-6    0.2189E-6
    4.657       -.2971E-6    0.2160E-6
    4.677       -.2849E-6    0.2161E-6
    4.696       -.2851E-6    0.2038E-6
    4.716       -.2634E-6    0.2098E-6
    4.735       -.2748E-6    0.2037E-6
    4.755       -.2739E-6    0.2051E-6
    4.774       -.2672E-6    0.1969E-6
    4.794       -.2638E-6    0.1890E-6
    4.814       -.2574E-6    0.1793E-6
    4.833       -.2680E-6    0.1825E-6
    4.853       -.2509E-6    0.1877E-6
    4.872       -.2453E-6    0.1786E-6
    4.892       -.2501E-6    0.1834E-6
    4.911       -.2480E-6    0.1580E-6
    4.931       -.2466E-6    0.1590E-6
    4.950       -.2425E-6    0.1544E-6
    4.970       -.2431E-6    0.1671E-6
    4.989       -.2391E-6    0.1528E-6
    5.009       -.2397E-6    0.1556E-6
    5.029       -.2367E-6    0.1532E-6
    5.048       -.2321E-6    0.1365E-6
    5.068       -.2340E-6    0.1409E-6
    5.087       -.2320E-6    0.1330E-6
    5.107       -.2312E-6    0.1245E-6
    5.126       -.2313E-6    0.1412E-6
    5.146       -.2323E-6    0.1307E-6
    5.165       -.2246E-6    0.1279E-6
    5.185       -.2323E-6    0.1186E-6
    5.205       -.2273E-6    0.1155E-6
    5.224       -.2242E-6    0.1154E-6
    5.244       -.2279E-6    0.1208E-6
    5.263       -.2186E-6    0.1190E-6
    5.283       -.2270E-6    0.1150E-6
    5.302       -.2193E-6    0.1086E-6
    5.322       -.2244E-6    0.1221E-6
    5.341       -.2145E-6    0.9685E-7
    5.361       -.2165E-6    0.1116E-6
    5.380       -.2244E-6    0.1074E-6
    5.400       -.2185E-6    0.8778E-7
    5.420       -.2183E-6    0.8179E-7
    5.439       -.2214E-6    0.8324E-7
    5.459       -.2193E-6    0.8838E-7
    5.478       -.2254E-6    0.9067E-7
    5.498       -.2272E-6    0.9039E-7
    5.517       -.2162E-6    0.8376E-7
    5.537       -.2301E-6    0.8798E-7
    5.556       -.2262E-6    0.8474E-7
    5.576       -.2270E-6    0.7673E-7
    5.595       -.2354E-6    0.6903E-7
    5.615       -.2319E-6    0.6976E-7
    5.635       -.2277E-6    0.8276E-7
    5.654       -.2370E-6    0.6651E-7
    5.674       -.2378E-6    0.6950E-7
    5.693       -.2434E-6    0.7858E-7
    5.713       -.2335E-6    0.6238E-7
    5.732       -.2393E-6    0.6507E-7
    5.752       -.2526E-6    0.5753E-7
    5.771       -.2546E-6    0.6684E-7
    5.791       -.2479E-6    0.7338E-7
    5.811       -.2452E-6    0.6380E-7
    5.830       -.2528E-6    0.8147E-7
    5.850       -.2503E-6    0.7006E-7
    5.869       -.2436E-6    0.7337E-7
    5.889       -.2665E-6    0.6581E-7
    5.908       -.2711E-6    0.7933E-7
    5.928       -.2614E-6    0.7448E-7
    5.947       -.2468E-6    0.6611E-7
    5.967       -.2688E-6    0.8873E-7
    5.986       -.2725E-6    0.7228E-7
    6.006       -.2611E-6    0.1001E-6
    6.026       -.2607E-6    0.9949E-7
    6.045       -.2502E-6    0.9095E-7
    6.065       -.2573E-6    0.1044E-6
    6.084       -.2523E-6    0.1020E-6
    6.104       -.2610E-6    0.1034E-6
    6.123       -.2577E-6    0.1004E-6
    6.143       -.2520E-6    0.1120E-6
    6.162       -.2511E-6    0.9897E-7
    6.182       -.2533E-6    0.1026E-6
    6.202       -.2534E-6    0.1108E-6
    6.221       -.2418E-6    0.1106E-6
    6.241       -.2480E-6    0.9533E-7
    6.260       -.2519E-6    0.1071E-6
    6.280       -.2423E-6    0.1031E-6
    6.299       -.2494E-6    0.1054E-6
    6.319       -.2528E-6    0.1075E-6
    6.338       -.2422E-6    0.1063E-6
    6.358       -.2423E-6    0.1105E-6
    6.377       -.2439E-6    0.1003E-6
    6.397       -.2444E-6    0.1006E-6
    6.417       -.2310E-6    0.1137E-6
    6.436       -.2427E-6    0.1128E-6
    6.456       -.2385E-6    0.1139E-6
    6.475       -.2377E-6    0.1358E-6
    6.495       -.2419E-6    0.1117E-6
    6.514       -.2376E-6    0.1116E-6
    6.534       -.2371E-6    0.1128E-6
    6.553       -.2415E-6    0.1077E-6
    6.573       -.2432E-6    0.1159E-6
    6.592       -.2355E-6    0.1003E-6
    6.612       -.2313E-6    0.9969E-7
    6.632       -.2393E-6    0.1027E-6
    6.651       -.2387E-6    0.1069E-6
    6.671       -.2300E-6    0.1321E-6
    6.690       -.2379E-6    0.1194E-6
    6.710       -.2342E-6    0.1232E-6
    6.729       -.2251E-6    0.1383E-6
    6.749       -.2228E-6    0.1437E-6
    6.768       -.2217E-6    0.1340E-6
    6.788       -.2174E-6    0.1265E-6
    6.808       -.2152E-6    0.1298E-6
    6.827       -.2231E-6    0.1346E-6
    6.847       -.2229E-6    0.1363E-6
    6.866       -.2140E-6    0.1346E-6
    6.886       -.2171E-6    0.1286E-6
    6.905       -.2151E-6    0.1580E-6
    6.925       -.2125E-6    0.1542E-6
    6.944       -.2144E-6    0.1606E-6
    6.964       -.2050E-6    0.1595E-6
    6.983       -.2068E-6    0.1561E-6
    7.003       -.1999E-6    0.1500E-6
    7.023       -.2004E-6    0.1495E-6
    7.042       -.1980E-6    0.1513E-6
    7.062       -.1926E-6    0.1426E-6
    7.081       -.1931E-6    0.1553E-6
    7.101       -.1856E-6    0.1347E-6
    7.120       -.1948E-6    0.1618E-6
    7.140       -.1910E-6    0.1571E-6
    7.159       -.1818E-6    0.1604E-6
    7.179       -.1833E-6    0.1504E-6
    7.198       -.1841E-6    0.1592E-6
    7.218       -.1780E-6    0.1734E-6
    7.238       -.1741E-6    0.1539E-6
    7.257       -.1653E-6    0.1723E-6
    7.277       -.1592E-6    0.1621E-6
    7.296       -.1654E-6    0.1770E-6
    7.316       -.1554E-6    0.1500E-6
    7.335       -.1504E-6    0.1717E-6
    7.355       -.1515E-6    0.1611E-6
    7.374       -.1513E-6    0.1590E-6
    7.394       -.1522E-6    0.1624E-6
    7.414       -.1474E-6    0.1731E-6
    7.433       -.1465E-6    0.1749E-6
    7.453       -.1378E-6    0.1718E-6
    7.472       -.1388E-6    0.1556E-6
    7.492       -.1363E-6    0.1685E-6
    7.511       -.1187E-6    0.1652E-6
    7.531       -.1268E-6    0.1692E-6
    7.550       -.1234E-6    0.1552E-6
    7.570       -.1205E-6    0.1594E-6
    7.589       -.1180E-6    0.1547E-6
    7.609       -.1128E-6    0.1575E-6
    7.629       -.1049E-6    0.1628E-6
    7.648       -.1020E-6    0.1583E-6
    7.668       -.1042E-6    0.1686E-6
    7.687       -.9690E-7    0.1658E-6
    7.707       -.8304E-7    0.1696E-6
    7.726       -.7751E-7    0.1453E-6
    7.746       -.9670E-7    0.1414E-6
    7.765       -.7922E-7    0.1601E-6
    7.785       -.8711E-7    0.1441E-6
    7.805       -.6795E-7    0.1566E-6
    7.824       -.8090E-7    0.1440E-6
    7.844       -.7081E-7    0.1454E-6
    7.863       -.6210E-7    0.1388E-6
    7.883       -.6010E-7    0.1492E-6
    7.902       -.4623E-7    0.1255E-6
    7.922       -.5134E-7    0.1273E-6
    7.941       -.5319E-7    0.1375E-6
    7.961       -.4600E-7    0.1236E-6
    7.980       -.3986E-7    0.1208E-6
    8.000       -.2805E-7    0.1216E-6
# 
# 04/14/2017 at 08:44 YAMBO_RT @ anomaly [start]
# 04/14/2017 at 08:45                    [end]
#  
# Timing   [Min/Max/Average]: 04s/04s/04s
#
# .-Input file : yambo.in
# | optics                       # [R OPT] Optics
# | bse                          # [R BSE] Bethe Salpeter Equation.
# | ElecTemp=0.1000E-3     eV    # Electronic Temperature
# | BoseTemp=0.1000E-3     eV    # Bosonic Temperature
# | FFTGvecs= 1865         RL    # [FFT] Plane-waves
# | X_Threads= 1                 # [OPENMP/X] Number of threads for response functions
# | DIP_Threads= 1               # [OPENMP/X] Number of threads for dipoles
# | K_Threads= 1                 # [OPENMP/BSK] Number of threads for response functions
# | BSEmod= "retarded"           # [BSE] resonant/retarded/coupling
# | BSKmod= "IP"                 # [BSE] IP/Hartree/HF/ALDA/SEX/BSfxc
# | MetDamp                      # [BSE] Define \w+=sqrt(\w*(\w+i\eta))
# | DrudeWBS= ( 4.800000 , 5.650000 )  eV  # [BSE] Drude plasmon
# | % BEnRange
# |  0.200000 | 8.000000 | eV    # [BSS] Energy range
# | %
# | % BDmRange
# |  0.300000 | 0.500000 | eV    # [BSS] Damping range
# | %
# | BEnSteps=  400               # [BSS] Energy steps
# | % BLongDir
# | 0.1000E-4 | 0.000    | 0.000    |        # [BSS] [cc] Electric Field
# | %
# | % BSEBands
# |   1 | 20 |                   # [BSK] Bands range
# | %
