#  __      __   ______   __       __  _______    ______               
# |  \    /  \ /      \ |  \     /  \|       \  /      \              
#  \$$\  /  $$|  $$$$$$\| $$\   /  $$| $$$$$$$\|  $$$$$$\             
#   \$$\/  $$ | $$__| $$| $$$\ /  $$$| $$__/ $$| $$  | $$             
#    \$$  $$  | $$    $$| $$$$\  $$$$| $$    $$| $$  | $$             
#     \$$$$   | $$$$$$$$| $$\$$ $$ $$| $$$$$$$\| $$  | $$             
#     | $$    | $$  | $$| $$ \$$$| $$| $$__/ $$| $$__/ $$             
#     | $$    | $$  | $$| $$  \$ | $$| $$    $$ \$$    $$             
#      \$$     \$$   \$$ \$$      \$$ \$$$$$$$   \$$$$$$              
#                                                                     
# Version 5.2.0 Revision 23130 Hash (prev commit) 3b61fa0e1           
#            Branch is phys-levels_degeneracy                         
#               MPI+SLK+SLEPC+HDF5_IO Build                           
#                http://www.yambo-code.eu                             
#
# Joint Density of states @ Q(1):  0.577350259     0.577350259     0.577350259    [q->0 direction]
#
# [GEN] GF Energies                               : Teter 93(XC)
# [GEN] Green`s Function                          : Retarded
#
# [GEN] Gauge                                     : Length
# [GEN] [r,Vnl] included                          : yes
#
# DIP band range                                  :   5  10
# DIP band range limits                           :   8   9
# DIP e/h energy range                            :  -1.00000000     -1.00000000    [eV]
# RL vectors in the sum                           :   3473
# [r,Vnl] included                                : yes
# Bands ordered                                   : yes
# Direct v evaluation                             : no
# Approach used                                   : G-space v
# Dipoles computed                                : R V P
# Wavefunctions                                   : Teter 93(XC)
#
#
# [K] Identifier                                  :   9622
# [K] Dimension                                   :   64
# [K] Bands                                       :   5  10
# [K] Exchange                                    : yes [res]
# [K] Correlation                                 : no [res]
# [K] Kernel`s coupling                           : no
# [K] Exchange                                    : no [cpl]
# [K] Correlation                                 : no [cpl]
# [K] W interaction is bare                       : no
# [K] ALDA kernel in R-space                      : no
# [K] RL vectors                                  :   51 [exchange]
# [K] E/h energy range                            :  -1.00000000     -1.00000000    [eV]
# [K] Coupling range                              :   100.000000      100.000000    [o/o]
# [K] Kernel long-range exchange                  : BAR
#
#
#    E[1] [eV]          Im(jdos)           Re(jdos)           Im(jdos_o)         Re(jdos_o)
#
        4.000000           1.264881           17.20384           2.956014           21.39695
        4.010025           1.433453           17.71496           3.614198           22.52396
        4.020050           1.640256           18.29177           4.518477           23.85996
        4.030076           1.897688           18.94799           5.801034           25.45087
        4.040100           2.223495           19.70110           7.686927           27.33361
        4.050125           2.643815           20.57346           10.56958           29.48421
        4.060150           3.198089           21.59366           15.12853           31.64369
        4.070176           3.947890           22.79768           22.37692           32.79082
        4.080201           4.992619           24.22842           32.80973           29.97802
        4.090226           6.498570           25.92924           42.48130           18.66278
        4.100251           8.752768           27.91691           41.83007           1.870867
        4.110276           12.25589           30.08735           31.67159          -8.486146
        4.120301           17.82622           31.91612           21.50695          -10.68697
        4.130326           26.36402           31.66783           14.58032          -9.343652
        4.140351           36.80195           25.56002           10.23490          -7.152496
        4.150376           42.48024           11.68986           7.481043          -5.016006
        4.160401           37.78363          -2.554699           5.673649          -3.154320
        4.170426           27.66246          -9.579133           4.441038          -1.580656
        4.180451           18.81225          -10.40753           3.570129          -0.255789
        4.190476           12.89629          -8.752995           2.935431           0.865918
        4.200501           9.166432          -6.591308           2.460303           1.824493
        4.210526           6.777438          -4.565420           2.096396           2.652078
        4.220551           5.191453          -2.818177           1.812121           3.373966
        4.230577           4.098154          -1.343470           1.586239           4.009888
        4.240602           3.318178          -0.099857           1.404080           4.575285
        4.250627           2.744865           0.956036           1.255279           5.082327
        4.260652           2.312505           1.861089           1.132358           5.540663
        4.270677           1.979166           2.644897           1.029801           5.958084
        4.280702           1.717259           3.330559           0.943494           6.340848
        4.290727           1.508082           3.936146           0.870308           6.694081
        4.300752           1.338628           4.475842           0.807836           7.021998
        4.310777           1.199642           4.960842           0.754198           7.328116
        4.320802           1.084402           5.400079           0.707914           7.615369
        4.330827           0.987940           5.800734           0.667804           7.886231
        4.340852           0.906519           6.168622           0.632920           8.142797
        4.350877           0.837284           6.508549           0.602490           8.386896
        4.360902           0.778033           6.824447           0.575887           8.620060
        4.370927           0.727042           7.119599           0.552591           8.843632
        4.380952           0.682945           7.396763           0.532175           9.058778
        4.390977           0.644652           7.658272           0.514279           9.266532
        4.401003           0.611282           7.906111           0.498604           9.467797
        4.411027           0.582120           8.141973           0.484898           9.663374
        4.421052           0.556580           8.367341           0.472944           9.853975
        4.431077           0.534176           8.583484           0.462563           10.04025
        4.441103           0.514508           8.791520           0.453600           10.22277
        4.451128           0.497239           8.992418           0.445922           10.40206
        4.461153           0.482087           9.187036           0.439416           10.57860
        4.471178           0.468815           9.376152           0.433985           10.75282
        4.481203           0.457220           9.560436           0.429547           10.92513
        4.491228           0.447133           9.740511           0.426028           11.09590
        4.501253           0.438405           9.916944           0.423368           11.26548
        4.511278           0.430911           10.09021           0.421516           11.43420
        4.521303           0.424546           10.26079           0.420427           11.60237
        4.531328           0.419216           10.42911           0.420062           11.77028
        4.541354           0.414844           10.59554           0.420393           11.93820
        4.551379           0.411360           10.76045           0.421390           12.10641
        4.561403           0.408709           10.92417           0.423036           12.27516
        4.571428           0.406839           11.08703           0.425312           12.44471
        4.581454           0.405711           11.24932           0.428208           12.61531
        4.591479           0.405287           11.41133           0.431714           12.78720
        4.601504           0.405539           11.57333           0.435827           12.96062
        4.611529           0.406443           11.73558           0.440545           13.13581
        4.621554           0.407980           11.89833           0.445872           13.31301
        4.631579           0.410136           12.06182           0.451812           13.49246
        4.641604           0.412899           12.22632           0.458375           13.67441
        4.651629           0.416263           12.39205           0.465573           13.85911
        4.661654           0.420226           12.55925           0.473421           14.04680
        4.671679           0.424787           12.72815           0.481940           14.23777
        4.681705           0.429950           12.89901           0.491150           14.43226
        4.691730           0.435724           13.07204           0.501079           14.63057
        4.701755           0.442118           13.24752           0.511756           14.83298
        4.711779           0.449147           13.42565           0.523215           15.03981
        4.721805           0.456829           13.60672           0.535496           15.25134
        4.731830           0.465185           13.79100           0.548641           15.46794
        4.741855           0.474239           13.97874           0.562698           15.68996
        4.751880           0.484021           14.17022           0.577722           15.91775
        4.761905           0.494565           14.36576           0.593773           16.15172
        4.771930           0.505906           14.56564           0.610918           16.39229
        4.781955           0.518090           14.77021           0.629230           16.63988
        4.791980           0.531163           14.97979           0.648793           16.89500
        4.802005           0.545180           15.19475           0.669699           17.15816
        4.812030           0.560200           15.41549           0.692051           17.42989
        4.822055           0.576292           15.64239           0.715961           17.71079
        4.832080           0.593530           15.87591           0.741558           18.00150
        4.842105           0.612001           16.11652           0.768983           18.30272
        4.852130           0.631795           16.36469           0.798394           18.61517
        4.862155           0.653022           16.62102           0.829973           18.93970
        4.872180           0.675799           16.88605           0.863918           19.27717
        4.882205           0.700258           17.16043           0.900455           19.62857
        4.892231           0.726549           17.44484           0.939839           19.99497
        4.902256           0.754842           17.74005           0.982358           20.37751
        4.912281           0.785324           18.04685           1.028339           20.77751
        4.922306           0.818214           18.36619           1.078156           21.19634
        4.932331           0.853753           18.69898           1.132236           21.63563
        4.942356           0.892220           19.04637           1.191063           22.09706
        4.952381           0.933938           19.40954           1.255206           22.58265
        4.962406           0.979269           19.78982           1.325312           23.09455
        4.972431           1.028632           20.18871           1.402137           23.63518
        4.982456           1.082516           20.60782           1.486559           24.20732
        4.992481           1.141483           21.04904           1.579610           24.81407
        5.002506           1.206190           21.51441           1.682500           25.45892
        5.012531           1.277414           22.00632           1.796675           26.14594
        5.022556           1.356064           22.52741           1.923844           26.87972
        5.032581           1.443219           23.08072           2.066060           27.66550
        5.042606           1.540166           23.66969           2.225802           28.50945
        5.052632           1.648454           24.29833           2.406085           29.41864
        5.062657           1.769964           24.97120           2.610604           30.40136
        5.072682           1.906973           25.69369           2.843928           31.46735
        5.082707           2.062311           26.47201           3.111762           32.62815
        5.092732           2.239464           27.31350           3.421279           33.89747
        5.102757           2.442843           28.22692           3.781676           35.29188
        5.112782           2.678038           29.22265           4.204773           36.83132
        5.122807           2.952231           30.31315           4.706052           38.54009
        5.132832           3.274806           31.51364           5.306070           40.44815
        5.142858           3.658194           32.84269           6.032577           42.59273
        5.152882           4.119137           34.32310           6.923685           45.02025
        5.162907           4.680722           35.98365           8.033003           47.78986
        5.172932           5.375313           37.86013           9.437372           50.97647
        5.182957           6.249563           39.99804           11.25005           54.67603
        5.192983           7.372550           42.45491           13.64277           59.01094
        5.203008           8.849786           45.30324           16.88436           64.13454
        5.213033           10.84810           48.63139           21.41060           70.22818
        5.223058           13.64099           52.53672           27.95344           77.46954
        5.233083           17.69248           57.09168           37.78103           85.90485
        5.243108           23.80482           62.21961           53.10908           95.00877
        5.253133           33.31668           67.29071           77.54581           102.2890
        5.263158           47.94404           69.98260           114.8595           99.59253
        5.273183           67.22189           64.56686           158.8757           69.39595
        5.283208           81.99646           46.12423           176.0663           5.886371
        5.293233           81.43943           24.47215           145.8459          -48.98209
        5.303258           72.38251           12.78948           102.3708          -67.69749
        5.313283           66.46191           9.042155           70.09470          -65.16415
        5.323308           64.58260           4.635714           49.89652          -56.06598
        5.333333           60.76104          -0.944859           37.69943          -46.08588
        5.343359           56.75523          -3.650092           30.50511          -36.77132
        5.353384           55.01231          -7.359530           26.69061          -28.34225
        5.363409           49.98190          -13.29817           25.59345          -20.71093
        5.373434           41.16183          -14.87471           27.27773          -13.95154
        5.383459           34.47021          -11.10931           32.38631          -8.908222
        5.393484           32.30983          -5.425128           41.19258          -8.374962
        5.403509           34.66357          -0.723027           49.63986          -16.78854
        5.413534           40.17292           0.044234           48.06564          -31.10399
        5.423559           44.50442          -4.499279           37.13555          -39.33530
        5.433584           44.16330          -10.30196           26.31083          -39.64335
        5.443609           42.34307          -13.25679           18.83750          -36.59666
        5.453634           42.93451          -16.39335           14.04008          -32.86997
        5.463659           42.08163          -23.87229           10.90975          -29.34420
        5.473684           34.77456          -30.84387           8.785857          -26.21904
        5.483709           25.39899          -32.09290           7.285079          -23.48979
        5.493734           18.26846          -29.71676           6.185572          -21.10202
        5.503759           13.58957          -26.34600           5.355120          -18.99719
        5.513784           10.54786          -23.03345           4.711943          -17.12438
        5.523810           8.510480          -20.05207           4.203577          -15.44201
        5.533835           7.097162          -17.42185           3.795204          -13.91665
        5.543859           6.087576          -15.09622           3.463057          -12.52151
        5.553885           5.352010          -13.01827           3.190431          -11.23472
        5.563910           4.812502          -11.13624           2.965414          -10.03850
        5.573935           4.421712          -9.405725           2.779332          -8.918031
        5.583960           4.151920          -7.788702           2.625811          -7.860743
        5.593985           3.989476          -6.251761           2.500179          -6.855890
        5.604010           3.932812          -4.764084           2.399014          -5.893908
        5.614035           3.993484          -3.296215           2.319913          -4.966315
        5.624060           4.200805          -1.819377           2.261301          -4.065274
        5.634085           4.612277          -0.307875           2.222334          -3.183369
        5.644110           5.334027           1.249521           2.202861          -2.313361
        5.654136           6.556027           2.809289           2.203442          -1.448001
        5.664161           8.585865           4.145344           2.225428          -0.579724
        5.674186           11.71461           4.521335           2.271103           0.299556
        5.684210           15.26993           2.441281           2.343937           1.198748
        5.694235           16.30196          -2.285916           2.448985           2.128169
        5.704261           13.50450          -5.944343           2.593463           3.099721
        5.714286           9.893557          -6.623384           2.787699           4.127769
        5.724311           7.281873          -5.679403           3.046629           5.229906
        5.734335           5.655306          -4.258345           3.392164           6.427920
        5.744361           4.670571          -2.783873           3.857288           7.749394
        5.754386           4.082341          -1.364261           4.492853           9.228705
        5.764411           3.750928          -0.006015           5.379879           10.90797
        5.774436           3.602683           1.313645           6.651946           12.83421
        5.784461           3.603623           2.625326           8.536857           15.04491
        5.794487           3.746661           3.962155           11.43286           17.51449
        5.804512           4.047998           5.359416           16.02739           19.97567
        5.814537           4.550979           6.855066           23.33802           21.37981
        5.824562           5.338892           8.488226           33.81772           18.72283
        5.834587           6.562096           10.28935           43.35769           7.492600
        5.844612           8.489118           12.24270           42.41108          -8.982181
        5.854637           11.58640           14.16173           32.15841          -18.82770
        5.864662           16.53582           15.31224           22.05962          -20.60341
        5.874687           23.57886           13.61859           15.20937          -18.92322
        5.884712           29.75655           6.125365           10.91924          -16.42726
        5.894737           28.74554          -4.545716           8.205536          -13.99136
        5.904762           21.80935          -10.55018           6.431341          -11.82628
        5.914787           15.18393          -11.28888           5.230134          -9.941412
        5.924812           10.73972          -9.830410           4.391981          -8.295292
        5.934837           7.981234          -7.859240           3.793491          -6.840306
        5.944862           6.263594          -5.923272           3.359748          -5.534440
        5.954887           5.175412          -4.147660           3.043908          -4.343030
        5.964912           4.483414          -2.529748           2.816003          -3.237930
        5.974937           4.058383          -1.033785           2.656652          -2.195979
        5.984963           3.830978           0.381340           2.553441          -1.197624
        5.994987           3.769353           1.755187           2.498842          -0.225815
        6.005013           3.869983           3.125147           2.489022           0.735158
        6.015038           4.157858           4.525915           2.523271           1.700309
        6.025063           4.696218           5.985894           2.603897           2.684904
        6.035088           5.609480           7.510276           2.736566           3.705176
        6.045113           7.121590           9.023026           2.931138           4.779501
        6.055138           9.569266           10.18834           3.203295           5.929048
        6.065163           13.10736           10.02100           3.577323           7.179269
        6.075188           16.38283           7.025664           4.091032           8.561121
        6.085213           16.21622           2.297431           4.804463           10.11197
        6.095238           12.97631          -0.187448           5.815674           11.87433
        6.105263           9.831563           0.092162           7.290093           13.88687
        6.115288           7.843492           1.618335           9.513750           16.14932
        6.125314           6.810497           3.530786           12.97670           18.50395
        6.135339           6.442838           5.565789           18.40668           20.27460
        6.145363           6.587999           7.689816           26.18000           19.48203
        6.155388           7.221413           9.943373           33.67343           13.14944
        6.165414           8.437016           12.38224           34.76139           3.529306
        6.175439           10.47610           15.03158           30.68837          -1.595666
        6.185463           13.79870           17.77457           28.40043          -1.845677
        6.195488           19.13149           20.02154           30.44806          -1.967153
        6.205513           26.99200           19.94774           34.54900          -6.783331
        6.215539           35.25671           14.49782           33.83563          -16.37427
        6.225564           37.94632           5.047944           26.49537          -23.06504
        6.235589           35.55860          -0.914509           18.59228          -24.13719
        6.245614           35.03983          -3.226606           13.00284          -22.50809
        6.255639           37.41617          -7.959192           9.418495          -20.24677
        6.265665           36.34974          -17.26132           7.103940          -18.07538
        6.275690           28.75595          -24.27758           5.555563          -16.16766
        6.285715           20.28252          -25.54033           4.478407          -14.52908
        6.295739           14.19246          -23.83165           3.701688          -13.12314
        6.305765           10.26955          -21.39576           3.123808          -11.90876
        6.315790           7.735073          -19.04390           2.682299          -10.85024
        6.325814           6.040639          -16.97530           2.337237          -9.918695
        6.335839           4.862754          -15.19886           2.062247          -9.091146
        6.345864           4.014031          -13.67572           1.839416          -8.349610
        6.355890           3.383080          -12.36139           1.656218          -7.679822
        6.365915           2.901331          -11.21691           1.503689          -7.070404
        6.375940           2.525039          -10.21074           1.375283          -6.512238
        6.385965           2.225342          -9.317905           1.266125          -5.997897
        6.395990           1.982616          -8.518719           1.172524          -5.521330
        6.406015           1.783161          -7.797607           1.091648          -5.077528
        6.416040           1.617179          -7.142189           1.021289          -4.662308
        6.426065           1.477514          -6.542497           0.959706          -4.272173
        6.436090           1.358843          -5.990463           0.905514          -3.904145
        6.446115           1.257141          -5.479486           0.857597          -3.555724
        6.456141           1.169307          -5.004062           0.815043          -3.224705
        6.466166           1.092936          -4.559664           0.777113          -2.909230
        6.476190           1.026133          -4.142488           0.743194          -2.607682
        6.486216           0.967380          -3.749278           0.712773          -2.318618
        6.496241           0.915463          -3.377291           0.685427          -2.040792
        6.506266           0.869394          -3.024168           0.660797          -1.773098
        6.516291           0.828364          -2.687854           0.638580          -1.514552
        6.526316           0.791705          -2.366585           0.618517          -1.264278
        6.536341           0.758860          -2.058809           0.600391          -1.021483
        6.546366           0.729368          -1.763161           0.584013          -0.785454
        6.556391           0.702838          -1.478433           0.569223          -0.555545
        6.566416           0.678940          -1.203543           0.555884          -0.331164
        6.576441           0.657396          -0.937545           0.543874          -0.111770
        6.586466           0.637967          -0.679581           0.533094           0.103128
        6.596491           0.620449          -0.428848           0.523454           0.314012
        6.606516           0.604668          -0.184652           0.514880           0.521304
        6.616541           0.590475           0.053656           0.507308           0.725410
        6.626566           0.577742           0.286659           0.500684           0.926705
        6.636591           0.566359           0.514924           0.494964           1.125569
        6.646616           0.556232           0.738951           0.490108           1.322339
        6.656641           0.547281           0.959220           0.486088           1.517356
        6.666667           0.539438           1.176172           0.482882           1.710940
        6.676692           0.532647           1.390240           0.480472           1.903409
        6.686717           0.526861           1.601815           0.478850           2.095076
        6.696742           0.522041           1.811296           0.478012           2.286245
        6.706767           0.518160           2.019058           0.477960           2.477236
        6.716792           0.515196           2.225461           0.478705           2.668355
        6.726818           0.513136           2.430863           0.480261           2.859914
        6.736842           0.511974           2.635612           0.482651           3.052235
        6.746867           0.511710           2.840080           0.485906           3.245672
        6.756892           0.512357           3.044611           0.490063           3.440548
        6.766917           0.513929           3.249572           0.495171           3.637244
        6.776942           0.516453           3.455319           0.501284           3.836126
        6.786967           0.519963           3.662248           0.508472           4.037616
        6.796992           0.524503           3.870746           0.516816           4.242150
        6.807017           0.530129           4.081234           0.526411           4.450178
        6.817043           0.536907           4.294143           0.537369           4.662226
        6.827068           0.544918           4.509940           0.549824           4.878849
        6.837093           0.554258           4.729127           0.563931           5.100645
        6.847118           0.565041           4.952237           0.579873           5.328294
        6.857143           0.577402           5.179861           0.597867           5.562539
        6.867168           0.591501           5.412638           0.618171           5.804217
        6.877193           0.607527           5.651273           0.641091           6.054264
        6.887218           0.625704           5.896553           0.666991           6.313752
        6.897243           0.646300           6.149354           0.696312           6.583895
        6.907269           0.669632           6.410657           0.729582           6.866068
        6.917294           0.696081           6.681572           0.767447           7.161881
        6.927318           0.726102           6.963348           0.810692           7.473152
        6.937343           0.760258           7.257471           0.860299           7.802109
        6.947368           0.799222           7.565595           0.917475           8.151273
        6.957394           0.843824           7.889668           0.983747           8.523676
        6.967419           0.895092           8.231939           1.061046           8.922905
        6.977444           0.954309           8.595094           1.151859           9.353313
        6.987469           1.023090           8.982296           1.259417           9.820184
        6.997494           1.103495           9.397331           1.387980           10.32997
        7.007519           1.198171           9.844773           1.543254           10.89065
        7.017544           1.310582           10.33017           1.733013           11.51218
        7.027569           1.445302           10.86034           1.968047           12.20710
        7.037593           1.608478           11.44368           2.263627           12.99127
        7.047619           1.808560           12.09083           2.642042           13.88517
        7.057644           2.057297           12.81506           3.136434           14.91479
        7.067669           2.371458           13.63332           3.797790           16.11328
        7.077694           2.775574           14.56728           4.707152           17.52148
        7.087719           3.306498           15.64467           5.997886           19.18529
        7.097744           4.021354           16.90057           7.897293           21.14132
        7.107769           5.011701           18.37761           10.80259           23.36353
        7.117795           6.429627           20.12156           15.39950           25.58584
        7.127820           8.536345           22.16091           22.70462           26.76501
        7.137845           11.78938           24.43422           33.18068           23.90903
        7.147870           16.96502           26.55276           42.75560           12.49777
        7.157895           25.10294           27.11285           41.87815          -4.209777
        7.167920           36.04784           22.47829           31.64694          -14.32965
        7.177945           43.82535           8.842070           21.53196          -16.36008
        7.187970           39.79340          -7.145847           14.66122          -14.91574
        7.197996           28.86743          -14.86768           10.35282          -12.65017
        7.208021           19.52675          -15.61583           7.621737          -10.44622
        7.218045           13.40618          -13.79966           5.828880          -8.517871
        7.228070           9.575299          -11.49520           4.606019          -6.876159
        7.238095           7.128166          -9.341842           3.742259          -5.481643
        7.248120           5.506276          -7.476515           3.113194          -4.288609
        7.258145           4.390153          -5.889804           2.642904          -3.257164
        7.268170           3.595622          -4.538259           2.283382          -2.355154
        7.278195           3.013183          -3.377111           2.003276          -1.557314
        7.288221           2.575417          -2.368386           1.781506          -0.843902
        7.298246           2.239330          -1.481772           1.603514          -0.199436
        7.308271           1.976632          -0.693478           1.459005           0.388306
        7.318296           1.768166           0.015067           1.340561           0.929073
        7.328321           1.600622           0.658466           1.242723           1.430706
        7.338346           1.464558           1.248243           1.161422           1.899560
        7.348371           1.353097           1.793744           1.093555           2.340956
        7.358396           1.261197           2.302403           1.036758           2.759211
        7.368421           1.185070           2.780318           0.989196           3.157984
        7.378446           1.121835           3.232539           0.949421           3.540380
        7.388471           1.069283           3.663280           0.916298           3.909057
        7.398496           1.025692           4.076087           0.888922           4.266315
        7.408521           0.989719           4.474004           0.866575           4.614170
        7.418546           0.960301           4.859637           0.848680           4.954412
        7.428572           0.936602           5.235282           0.834778           5.288630
        7.438597           0.917955           5.602956           0.824505           5.618293
        7.448622           0.903835           5.964468           0.817577           5.944725
        7.458647           0.893830           6.321466           0.813778           6.269166
        7.468672           0.887622           6.675458           0.812945           6.592798
        7.478697           0.884971           7.027854           0.814972           6.916750
        7.488722           0.885706           7.379987           0.819795           7.242101
        7.498747           0.889714           7.733144           0.827396           7.569948
        7.508772           0.896942           8.088584           0.837798           7.901370
        7.518797           0.907383           8.447544           0.851064           8.237451
        7.528823           0.921083           8.811288           0.867303           8.579337
        7.538847           0.938140           9.181056           0.886669           8.928193
        7.548872           0.958703           9.558244           0.909364           9.285292
        7.558897           0.982979           9.944217           0.935650           9.651970
        7.568923           1.011240           10.34045           0.965856           10.02965
        7.578948           1.043823           10.74856           1.000376           10.41992
        7.588973           1.081154           11.17026           1.039706           10.82451
        7.598998           1.123754           11.60750           1.084444           11.24538
        7.609022           1.172259           12.06234           1.135318           11.68468
        7.619047           1.227457           12.53724           1.193236           12.14494
        7.629072           1.290303           13.03489           1.259295           12.62898
        7.639097           1.361977           13.55834           1.334865           13.14009
        7.649123           1.443936           14.11117           1.421650           13.68203
        7.659148           1.538002           14.69748           1.521799           14.25932
        7.669173           1.646458           15.32212           1.638032           14.87724
        7.679198           1.772207           15.99079           1.773866           15.54214
        7.689223           1.918976           16.71031           1.933861           16.26165
        7.699248           2.091616           17.48888           2.124066           17.04505
        7.709273           2.296537           18.33647           2.352600           17.90381
        7.719298           2.542349           19.26530           2.630581           18.85215
        7.729323           2.840838           20.29053           2.973558           19.90785
        7.739348           3.208498           21.43111           3.403797           21.09340
        7.749374           3.668981           22.71087           3.954024           22.43738
        7.759399           4.257151           24.15990           4.673812           23.97579
        7.769424           5.026043           25.81593           5.640797           25.75345
        7.779449           6.059170           27.72469           6.980951           27.82229
        7.789474           7.492901           29.93648           8.906233           30.23046
        7.799499           9.557479           32.48823           11.78383           32.98023
        7.809525           12.64732           35.33893           16.24976           35.88403
        7.819550           17.40160           38.16174           23.29249           38.11833
        7.829575           24.54915           39.80185           33.66792           37.14775
        7.839599           33.54841           37.74874           44.54457           28.38728
        7.849624           40.38399           30.71757           46.59536           12.87046
        7.859649           41.96442           23.14948           38.14459           2.425855
        7.869674           42.32003           18.65676           28.81923           0.904931
        7.879699           44.39149           13.27604           23.20180           3.891141
        7.889725           43.09118           4.868935           21.28041           8.275903
        7.899750           36.61731          -0.083004           22.67461           12.74528
        7.909774           31.11346           0.583854           27.67230           16.11855
        7.919799           29.66650           2.988930           36.53193           15.68053
        7.929824           31.04698           3.472643           45.80694           6.853724
        7.939849           31.72517           1.704678           45.86818          -8.652904
        7.949874           31.52542           0.859515           35.74221          -18.89286
        7.959899           33.72412           0.120498           24.93667          -20.74479
        7.969924           37.16273          -5.049111           17.39699          -18.71880
        7.979950           35.20885          -14.18658           12.61422          -15.75334
        7.989975           27.23781          -19.63440           9.558781          -12.85892
        8.000000           19.35544          -19.69489           7.538661          -10.28317
# 
# 09/18/2024 at 16:32 yambo @ baym [start]
# 09/18/2024 at 16:32              [end]
#
# .-Input file  yambo.in
# | optics                           # [R] Linear Response optical properties
# | bss                              # [R] BSE solver
# | bse                              # [R][BSE] Bethe Salpeter Equation.
# | BoseTemp= 0.000000         eV    # Bosonic Temperature
# | FFTGvecs=  3473            RL    # [FFT] Plane-waves
# | BS_nCPU_LinAlg_INV= 1            # [PARALLEL] CPUs for Linear Algebra (if -1 it is automatically set)
# | BS_nCPU_LinAlg_DIAGO= 1          # [PARALLEL] CPUs for Linear Algebra (if -1 it is automatically set)
# | BSKmod= "HARTREE"                # [BSE] IP/Hartree/HF/ALDA/SEX/BSfxc
# | BSEmod= "retarded"               # [BSE] resonant/retarded/coupling
# | BSSmod= "d"                      # [BSS] (h)aydock/(d)iagonalization/(s)lepc/(i)nversion/(t)ddft`
# | DipComputed= "R V P"             # [DIP] [default R P V; extra P2 Spin Orb]
# | BSENGexx=  51              RL    # [BSK] Exchange components
# | % BSEQptR
# |  1 | 1 |                             # [BSK] Transferred momenta range
# | %
# | % BSEBands
# |   5 | 10 |                           # [BSK] Bands range
# | %
# | % BEnRange
# |  4.000000 | 8.000000 |         eV    # [BSS] Energy range
# | %
# | % BDmRange
# |  0.025000 | 0.025000 |         eV    # [BSS] Damping range
# | %
# | BEnSteps=  400                   # [BSS] Energy steps
# | % BLongDir
# |  0.577350E-5 | 0.577350E-5 | 0.577350E-5 # [BSS] [cc] Electric Field
# | %
# | BSEprop= "abs jdos"              # [BSS] Can be any among abs/jdos/kerr/magn/dich/photolum/esrt
# | BSEdips= "none"                  # [BSS] Can be "trace/none" or "xy/xz/yz" to define off-diagonal rotation plane
# | #WRbsWF                        # [BSS] Write to disk excitonic the WFs
