#                                                           
#   __   __     _        __  __       ____      U  ___  u   
#   \ \ / / U  /"\  U u |" \/ "| u U | __") u    \/"_ \/    
#    \ V /   \/ _ \/   \| |\/| |/   \|  _ \/     | | | |    
#   U_|"|_u  / ___ \    | |  | |     | |_) | .-,_| |_| |    
#     |_|   /_/   \_\   |_|  |_|     |____/   \_)-\___/     
# .-,//|(_   \\    >>  <<,-,,-.     _|| \\_        \\       
#  \_) (__) (__)  (__)  (./  \.)   (__) (__)      (__)      
#                                                           
#                                                           
#        Version 4.3.0 Revision 15168 Hash 7cbb356          
#                  MPI+SLK+OpenMP Build                     
#                http://www.yambo-code.org                  
#
# EELS @ Q(1)  [q->0 direction]:0.5774E-5 0.5774E-5 0.5774E-5
#
#
# - Energies      are Teter 93(XC)
# - Wavefunctions are Teter 93(XC)
#
# - The Green`s function is Retarded -
# - Using the Length Gauge -
# - [r,Vnl] *is* included -
#
#   BSK|Identifier              :3064
#      |Dimension               :32
#      |Bands                   :7 - 10
#      |Exchange           [res]: yes
#      |Correlation        [res]: no
#      |Kernel`s coupling       : no
#      |Exchange           [cpl]: no
#      |Correlation        [cpl]: no
#      |W interaction is bare   : no
#      |ALDA kernel in R-space  : yes
#      |RL vectors    [exchange]:51
#      |E/h energy range    [ev]:-1.000000 - -1.000000
#      |Coupling range     [o/o]: 100.0000 -  100.0000
#
#    E/ev[1]      EEL-Im[2]    EEL-Re[3]    EELo-Im[4]   EELo-Re[5]
#
    4.000       0.1147E-2    -.8346E-1    0.1162E-2    -.8161E-1
    4.010       0.1152E-2    -.8300E-1    0.1166E-2    -.8115E-1
    4.020       0.1156E-2    -.8254E-1    0.1170E-2    -.8068E-1
    4.030       0.1161E-2    -.8207E-1    0.1175E-2    -.8021E-1
    4.040       0.1165E-2    -.8161E-1    0.1179E-2    -.7974E-1
    4.050       0.1169E-2    -.8114E-1    0.1184E-2    -.7926E-1
    4.060       0.1174E-2    -.8067E-1    0.1188E-2    -.7879E-1
    4.070       0.1178E-2    -.8020E-1    0.1193E-2    -.7831E-1
    4.080       0.1183E-2    -.7973E-1    0.1197E-2    -.7783E-1
    4.090       0.1188E-2    -.7925E-1    0.1202E-2    -.7735E-1
    4.100       0.1192E-2    -.7877E-1    0.1206E-2    -.7687E-1
    4.110       0.1197E-2    -.7830E-1    0.1211E-2    -.7638E-1
    4.120       0.1202E-2    -.7782E-1    0.1215E-2    -.7590E-1
    4.130       0.1206E-2    -.7733E-1    0.1220E-2    -.7541E-1
    4.140       0.1210E-2    -.7685E-1    0.1224E-2    -.7492E-1
    4.150       0.1215E-2    -.7636E-1    0.1229E-2    -.7443E-1
    4.160       0.1219E-2    -.7588E-1    0.1234E-2    -.7393E-1
    4.170       0.1223E-2    -.7539E-1    0.1238E-2    -.7344E-1
    4.180       0.1228E-2    -.7490E-1    0.1243E-2    -.7294E-1
    4.190       0.1233E-2    -.7440E-1    0.1248E-2    -.7244E-1
    4.201       0.1237E-2    -.7391E-1    0.1253E-2    -.7194E-1
    4.211       0.1242E-2    -.7341E-1    0.1257E-2    -.7143E-1
    4.221       0.1247E-2    -.7291E-1    0.1262E-2    -.7093E-1
    4.231       0.1251E-2    -.7241E-1    0.1267E-2    -.7042E-1
    4.241       0.1256E-2    -.7191E-1    0.1272E-2    -.6991E-1
    4.251       0.1261E-2    -.7140E-1    0.1277E-2    -.6940E-1
    4.261       0.1266E-2    -.7090E-1    0.1282E-2    -.6889E-1
    4.271       0.1271E-2    -.7039E-1    0.1286E-2    -.6837E-1
    4.281       0.1275E-2    -.6988E-1    0.1291E-2    -.6786E-1
    4.291       0.1280E-2    -.6936E-1    0.1296E-2    -.6734E-1
    4.301       0.1285E-2    -.6885E-1    0.1301E-2    -.6682E-1
    4.311       0.1290E-2    -.6833E-1    0.1306E-2    -.6629E-1
    4.321       0.1295E-2    -.6782E-1    0.1311E-2    -.6577E-1
    4.331       0.1300E-2    -.6730E-1    0.1317E-2    -.6524E-1
    4.341       0.1305E-2    -.6677E-1    0.1322E-2    -.6471E-1
    4.351       0.1310E-2    -.6625E-1    0.1327E-2    -.6418E-1
    4.361       0.1315E-2    -.6572E-1    0.1332E-2    -.6365E-1
    4.371       0.1320E-2    -.6519E-1    0.1337E-2    -.6312E-1
    4.381       0.1326E-2    -.6466E-1    0.1342E-2    -.6258E-1
    4.391       0.1331E-2    -.6413E-1    0.1348E-2    -.6204E-1
    4.401       0.1336E-2    -.6360E-1    0.1353E-2    -.6150E-1
    4.411       0.1341E-2    -.6306E-1    0.1358E-2    -.6095E-1
    4.421       0.1347E-2    -.6252E-1    0.1364E-2    -.6041E-1
    4.431       0.1352E-2    -.6198E-1    0.1369E-2    -.5986E-1
    4.441       0.1357E-2    -.6144E-1    0.1375E-2    -.5931E-1
    4.451       0.1363E-2    -.6089E-1    0.1380E-2    -.5876E-1
    4.461       0.1368E-2    -.6034E-1    0.1385E-2    -.5820E-1
    4.471       0.1374E-2    -.5979E-1    0.1391E-2    -.5765E-1
    4.481       0.1379E-2    -.5924E-1    0.1397E-2    -.5709E-1
    4.491       0.1385E-2    -.5869E-1    0.1402E-2    -.5653E-1
    4.501       0.1390E-2    -.5813E-1    0.1408E-2    -.5596E-1
    4.511       0.1396E-2    -.5757E-1    0.1414E-2    -.5540E-1
    4.521       0.1402E-2    -.5701E-1    0.1419E-2    -.5483E-1
    4.531       0.1407E-2    -.5645E-1    0.1425E-2    -.5426E-1
    4.541       0.1413E-2    -.5588E-1    0.1431E-2    -.5369E-1
    4.551       0.1419E-2    -.5532E-1    0.1437E-2    -.5311E-1
    4.561       0.1425E-2    -.5475E-1    0.1443E-2    -.5253E-1
    4.571       0.1431E-2    -.5417E-1    0.1449E-2    -.5195E-1
    4.581       0.1437E-2    -.5360E-1    0.1455E-2    -.5137E-1
    4.591       0.1443E-2    -.5302E-1    0.1461E-2    -.5079E-1
    4.602       0.1449E-2    -.5244E-1    0.1467E-2    -.5020E-1
    4.612       0.1455E-2    -.5186E-1    0.1474E-2    -.4961E-1
    4.622       0.1461E-2    -.5127E-1    0.1480E-2    -.4902E-1
    4.632       0.1468E-2    -.5069E-1    0.1486E-2    -.4842E-1
    4.642       0.1474E-2    -.5010E-1    0.1493E-2    -.4783E-1
    4.652       0.1481E-2    -.4950E-1    0.1499E-2    -.4723E-1
    4.662       0.1487E-2    -.4891E-1    0.1506E-2    -.4662E-1
    4.672       0.1494E-2    -.4831E-1    0.1512E-2    -.4602E-1
    4.682       0.1500E-2    -.4771E-1    0.1519E-2    -.4541E-1
    4.692       0.1507E-2    -.4711E-1    0.1526E-2    -.4480E-1
    4.702       0.1514E-2    -.4650E-1    0.1533E-2    -.4419E-1
    4.712       0.1521E-2    -.4589E-1    0.1539E-2    -.4357E-1
    4.722       0.1528E-2    -.4528E-1    0.1547E-2    -.4295E-1
    4.732       0.1535E-2    -.4467E-1    0.1554E-2    -.4233E-1
    4.742       0.1542E-2    -.4405E-1    0.1561E-2    -.4171E-1
    4.752       0.1549E-2    -.4343E-1    0.1568E-2    -.4108E-1
    4.762       0.1557E-2    -.4281E-1    0.1575E-2    -.4045E-1
    4.772       0.1564E-2    -.4218E-1    0.1583E-2    -.3982E-1
    4.782       0.1572E-2    -.4156E-1    0.1591E-2    -.3918E-1
    4.792       0.1579E-2    -.4092E-1    0.1598E-2    -.3854E-1
    4.802       0.1587E-2    -.4029E-1    0.1606E-2    -.3790E-1
    4.812       0.1595E-2    -.3965E-1    0.1614E-2    -.3725E-1
    4.822       0.1603E-2    -.3901E-1    0.1622E-2    -.3660E-1
    4.832       0.1612E-2    -.3837E-1    0.1631E-2    -.3595E-1
    4.842       0.1620E-2    -.3772E-1    0.1639E-2    -.3530E-1
    4.852       0.1629E-2    -.3707E-1    0.1647E-2    -.3464E-1
    4.862       0.1637E-2    -.3641E-1    0.1656E-2    -.3398E-1
    4.872       0.1646E-2    -.3575E-1    0.1665E-2    -.3331E-1
    4.882       0.1655E-2    -.3509E-1    0.1674E-2    -.3264E-1
    4.892       0.1665E-2    -.3443E-1    0.1683E-2    -.3197E-1
    4.902       0.1674E-2    -.3376E-1    0.1693E-2    -.3129E-1
    4.912       0.1684E-2    -.3308E-1    0.1703E-2    -.3061E-1
    4.922       0.1694E-2    -.3241E-1    0.1713E-2    -.2993E-1
    4.932       0.1704E-2    -.3173E-1    0.1723E-2    -.2924E-1
    4.942       0.1715E-2    -.3104E-1    0.1733E-2    -.2854E-1
    4.952       0.1726E-2    -.3035E-1    0.1744E-2    -.2785E-1
    4.962       0.1737E-2    -.2966E-1    0.1755E-2    -.2715E-1
    4.972       0.1749E-2    -.2896E-1    0.1766E-2    -.2644E-1
    4.982       0.1761E-2    -.2825E-1    0.1778E-2    -.2573E-1
    4.992       0.1773E-2    -.2755E-1    0.1790E-2    -.2502E-1
    5.003       0.1786E-2    -.2683E-1    0.1803E-2    -.2430E-1
    5.013       0.1799E-2    -.2612E-1    0.1816E-2    -.2357E-1
    5.023       0.1813E-2    -.2539E-1    0.1829E-2    -.2284E-1
    5.033       0.1828E-2    -.2466E-1    0.1844E-2    -.2210E-1
    5.043       0.1843E-2    -.2393E-1    0.1858E-2    -.2136E-1
    5.053       0.1859E-2    -.2318E-1    0.1874E-2    -.2061E-1
    5.063       0.1876E-2    -.2244E-1    0.1890E-2    -.1986E-1
    5.073       0.1893E-2    -.2168E-1    0.1906E-2    -.1910E-1
    5.083       0.1912E-2    -.2092E-1    0.1924E-2    -.1833E-1
    5.093       0.1932E-2    -.2015E-1    0.1943E-2    -.1756E-1
    5.103       0.1953E-2    -.1937E-1    0.1963E-2    -.1678E-1
    5.113       0.1976E-2    -.1859E-1    0.1984E-2    -.1599E-1
    5.123       0.2000E-2    -.1779E-1    0.2007E-2    -.1519E-1
    5.133       0.2027E-2    -.1698E-1    0.2032E-2    -.1438E-1
    5.143       0.2055E-2    -.1617E-1    0.2058E-2    -.1356E-1
    5.153       0.2087E-2    -.1534E-1    0.2087E-2    -.1273E-1
    5.163       0.2122E-2    -.1450E-1    0.2118E-2    -.1189E-1
    5.173       0.2161E-2    -.1365E-1    0.2153E-2    -.1104E-1
    5.183       0.2205E-2    -.1278E-1    0.2192E-2    -.1017E-1
    5.193       0.2256E-2    -.1189E-1    0.2235E-2    -.9288E-2
    5.203       0.2314E-2    -.1098E-1    0.2284E-2    -.8387E-2
    5.213       0.2384E-2    -.1005E-1    0.2340E-2    -.7467E-2
    5.223       0.2469E-2    -.9094E-2    0.2405E-2    -.6525E-2
    5.233       0.2575E-2    -.8110E-2    0.2481E-2    -.5557E-2
    5.243       0.2713E-2    -.7096E-2    0.2572E-2    -.4559E-2
    5.253       0.2896E-2    -.6057E-2    0.2684E-2    -.3526E-2
    5.263       0.3134E-2    -.5016E-2    0.2822E-2    -.2452E-2
    5.273       0.3391E-2    -.4001E-2    0.2997E-2    -.1327E-2
    5.283       0.3605E-2    -.2953E-2    0.3227E-2    -.1413E-3
    5.293       0.3836E-2    -.1760E-2    0.3538E-2    0.1118E-2
    5.303       0.4208E-2    -.4123E-3    0.3973E-2    0.2466E-2
    5.313       0.4817E-2    0.1061E-2    0.4606E-2    0.3912E-2
    5.323       0.5796E-2    0.2625E-2    0.5568E-2    0.5442E-2
    5.333       0.7369E-2    0.4158E-2    0.7082E-2    0.6956E-2
    5.343       0.9854E-2    0.5247E-2    0.9460E-2    0.8076E-2
    5.353       0.1323E-1    0.4800E-2    0.1273E-1    0.7782E-2
    5.363       0.1575E-1    0.1598E-2    0.1533E-1    0.4826E-2
    5.373       0.1467E-1    -.2457E-2    0.1449E-1    0.8313E-3
    5.383       0.1136E-1    -.4007E-2    0.1131E-1    -.8197E-3
    5.393       0.8491E-2    -.3340E-2    0.8456E-2    -.2309E-3
    5.404       0.6618E-2    -.1830E-2    0.6583E-2    0.1239E-2
    5.414       0.5466E-2    -.1384E-3    0.5431E-2    0.2907E-2
    5.424       0.4754E-2    0.1530E-2    0.4718E-2    0.4558E-2
    5.434       0.4305E-2    0.3132E-2    0.4269E-2    0.6145E-2
    5.444       0.4021E-2    0.4671E-2    0.3985E-2    0.7670E-2
    5.454       0.3844E-2    0.6164E-2    0.3806E-2    0.9149E-2
    5.464       0.3741E-2    0.7627E-2    0.3701E-2    0.1060E-1
    5.474       0.3691E-2    0.9074E-2    0.3648E-2    0.1203E-1
    5.484       0.3683E-2    0.1052E-1    0.3635E-2    0.1346E-1
    5.494       0.3709E-2    0.1197E-1    0.3656E-2    0.1489E-1
    5.504       0.3765E-2    0.1345E-1    0.3705E-2    0.1634E-1
    5.514       0.3850E-2    0.1495E-1    0.3782E-2    0.1782E-1
    5.524       0.3963E-2    0.1649E-1    0.3885E-2    0.1933E-1
    5.534       0.4105E-2    0.1808E-1    0.4015E-2    0.2089E-1
    5.544       0.4281E-2    0.1973E-1    0.4177E-2    0.2250E-1
    5.554       0.4494E-2    0.2145E-1    0.4372E-2    0.2419E-1
    5.564       0.4751E-2    0.2326E-1    0.4608E-2    0.2595E-1
    5.574       0.5060E-2    0.2518E-1    0.4892E-2    0.2781E-1
    5.584       0.5435E-2    0.2722E-1    0.5235E-2    0.2978E-1
      5.5940       0.0059       0.0294       0.0057       0.0319
      5.6040       0.0065       0.0318       0.0062       0.0342
      5.6140       0.0071       0.0344       0.0068       0.0366
      5.6241       0.0080       0.0372       0.0076       0.0393
      5.6341       0.0091       0.0404       0.0086       0.0424
      5.6441       0.0106       0.0440       0.0099       0.0457
     5.65414      0.01257      0.04805      0.01167      0.04957
     5.66416      0.01526      0.05276      0.01405      0.05397
     5.67419      0.01906      0.05824      0.01741      0.05907
     5.68421      0.02465      0.06460      0.02231      0.06499
     5.69424      0.03316      0.07179      0.02971      0.07174
     5.70426      0.04659      0.07912      0.04134      0.07882
     5.71429      0.06800      0.08373      0.05989      0.08413
     5.72431      0.09924      0.07720      0.08782      0.08099
     5.73434      0.12987      0.04548      0.11867      0.05630
    5.744       0.1308       -.5120E-2    0.1265       0.9543E-2
     5.75439      0.10085     -0.03817      0.10158     -0.02656
     5.76441      0.06924     -0.04555      0.07055     -0.03706
     5.77444      0.04740     -0.04120      0.04817     -0.03407
     5.78446      0.03368     -0.03389      0.03403     -0.02728
     5.79449      0.02500     -0.02666      0.02512     -0.02025
     5.80451      0.01932     -0.02024      0.01934     -0.01393
      5.8145       0.0155      -0.0147       0.0154      -0.0085
    5.825       0.1273E-1    -.9941E-2    0.1270E-1    -.3728E-2
    5.835       0.1075E-1    -.5807E-2    0.1073E-1    0.3827E-3
    5.845       0.9268E-2    -.2180E-2    0.9262E-2    0.3998E-2
    5.855       0.8135E-2    0.1040E-2    0.8149E-2    0.7217E-2
    5.865       0.7251E-2    0.3932E-2    0.7285E-2    0.1012E-1
      5.8747       0.0065       0.0066       0.0066       0.0128
      5.8847       0.0060       0.0090       0.0061       0.0152
    5.895       0.5520E-2    0.1119E-1    0.5622E-2    0.1745E-1
    5.905       0.5138E-2    0.1326E-1    0.5264E-2    0.1957E-1
    5.915       0.4819E-2    0.1521E-1    0.4970E-2    0.2157E-1
    5.925       0.4550E-2    0.1705E-1    0.4727E-2    0.2348E-1
    5.935       0.4322E-2    0.1879E-1    0.4527E-2    0.2530E-1
    5.945       0.4126E-2    0.2046E-1    0.4363E-2    0.2705E-1
    5.955       0.3958E-2    0.2206E-1    0.4229E-2    0.2875E-1
    5.965       0.3813E-2    0.2360E-1    0.4122E-2    0.3040E-1
    5.975       0.3686E-2    0.2509E-1    0.4039E-2    0.3202E-1
    5.985       0.3575E-2    0.2653E-1    0.3978E-2    0.3360E-1
    5.995       0.3478E-2    0.2794E-1    0.3940E-2    0.3517E-1
    6.005       0.3393E-2    0.2930E-1    0.3925E-2    0.3673E-1
    6.015       0.3318E-2    0.3064E-1    0.3934E-2    0.3828E-1
    6.025       0.3251E-2    0.3195E-1    0.3970E-2    0.3984E-1
    6.035       0.3192E-2    0.3324E-1    0.4040E-2    0.4141E-1
    6.045       0.3140E-2    0.3450E-1    0.4152E-2    0.4301E-1
    6.055       0.3094E-2    0.3575E-1    0.4318E-2    0.4465E-1
    6.065       0.3053E-2    0.3697E-1    0.4561E-2    0.4634E-1
    6.075       0.3017E-2    0.3819E-1    0.4914E-2    0.4811E-1
    6.085       0.2986E-2    0.3939E-1    0.5433E-2    0.4998E-1
    6.095       0.2960E-2    0.4057E-1    0.6213E-2    0.5196E-1
    6.105       0.2938E-2    0.4175E-1    0.7421E-2    0.5405E-1
    6.115       0.2921E-2    0.4292E-1    0.9349E-2    0.5615E-1
    6.125       0.2910E-2    0.4408E-1    0.1243E-1    0.5783E-1
    6.135       0.2907E-2    0.4524E-1    0.1693E-1    0.5787E-1
    6.145       0.2915E-2    0.4640E-1    0.2128E-1    0.5425E-1
    6.155       0.2938E-2    0.4754E-1    0.2129E-1    0.4798E-1
    6.165       0.2988E-2    0.4868E-1    0.1693E-1    0.4431E-1
    6.175       0.3073E-2    0.4979E-1    0.1239E-1    0.4430E-1
    6.185       0.3179E-2    0.5082E-1    0.9261E-2    0.4594E-1
    6.195       0.3221E-2    0.5175E-1    0.7294E-2    0.4799E-1
    6.206       0.3134E-2    0.5270E-1    0.6046E-2    0.5002E-1
    6.216       0.3008E-2    0.5374E-1    0.5227E-2    0.5192E-1
    6.226       0.2911E-2    0.5484E-1    0.4668E-2    0.5370E-1
    6.236       0.2847E-2    0.5595E-1    0.4273E-2    0.5537E-1
    6.246       0.2806E-2    0.5706E-1    0.3984E-2    0.5694E-1
    6.256       0.2779E-2    0.5817E-1    0.3768E-2    0.5844E-1
    6.266       0.2759E-2    0.5927E-1    0.3602E-2    0.5988E-1
    6.276       0.2745E-2    0.6037E-1    0.3472E-2    0.6127E-1
    6.286       0.2735E-2    0.6147E-1    0.3369E-2    0.6262E-1
    6.296       0.2728E-2    0.6256E-1    0.3286E-2    0.6394E-1
    6.306       0.2722E-2    0.6365E-1    0.3219E-2    0.6523E-1
    6.316       0.2718E-2    0.6474E-1    0.3163E-2    0.6650E-1
    6.326       0.2715E-2    0.6583E-1    0.3117E-2    0.6775E-1
    6.336       0.2714E-2    0.6692E-1    0.3079E-2    0.6899E-1
    6.346       0.2713E-2    0.6801E-1    0.3047E-2    0.7021E-1
    6.356       0.2712E-2    0.6909E-1    0.3020E-2    0.7142E-1
    6.366       0.2713E-2    0.7018E-1    0.2997E-2    0.7263E-1
    6.376       0.2714E-2    0.7127E-1    0.2977E-2    0.7382E-1
    6.386       0.2715E-2    0.7236E-1    0.2961E-2    0.7501E-1
    6.396       0.2717E-2    0.7345E-1    0.2948E-2    0.7619E-1
    6.406       0.2719E-2    0.7454E-1    0.2936E-2    0.7737E-1
    6.416       0.2722E-2    0.7563E-1    0.2927E-2    0.7854E-1
    6.426       0.2725E-2    0.7672E-1    0.2919E-2    0.7972E-1
    6.436       0.2729E-2    0.7781E-1    0.2913E-2    0.8088E-1
    6.446       0.2732E-2    0.7891E-1    0.2908E-2    0.8205E-1
    6.456       0.2736E-2    0.8000E-1    0.2904E-2    0.8321E-1
    6.466       0.2740E-2    0.8110E-1    0.2901E-2    0.8438E-1
    6.476       0.2745E-2    0.8220E-1    0.2899E-2    0.8554E-1
    6.486       0.2750E-2    0.8330E-1    0.2899E-2    0.8670E-1
    6.496       0.2755E-2    0.8440E-1    0.2898E-2    0.8786E-1
    6.506       0.2760E-2    0.8551E-1    0.2899E-2    0.8902E-1
    6.516       0.2765E-2    0.8662E-1    0.2900E-2    0.9019E-1
    6.526       0.2771E-2    0.8773E-1    0.2902E-2    0.9135E-1
    6.536       0.2777E-2    0.8884E-1    0.2904E-2    0.9251E-1
    6.546       0.2783E-2    0.8995E-1    0.2907E-2    0.9368E-1
    6.556       0.2789E-2    0.9107E-1    0.2910E-2    0.9484E-1
    6.566       0.2795E-2    0.9219E-1    0.2913E-2    0.9601E-1
    6.576       0.2802E-2    0.9331E-1    0.2917E-2    0.9718E-1
    6.586       0.2809E-2    0.9444E-1    0.2922E-2    0.9835E-1
    6.596       0.2815E-2    0.9557E-1    0.2927E-2    0.9952E-1
    6.607       0.2822E-2    0.9670E-1    0.2932E-2    0.1007   
    6.617       0.2829E-2    0.9783E-1    0.2937E-2    0.1019   
    6.627       0.2837E-2    0.9896E-1    0.2943E-2    0.1031   
    6.637       0.2844E-2    0.1001       0.2949E-2    0.1042   
    6.647       0.2852E-2    0.1012       0.2955E-2    0.1054   
    6.657       0.2859E-2    0.1024       0.2961E-2    0.1066   
    6.667       0.2867E-2    0.1035       0.2968E-2    0.1078   
    6.677       0.2875E-2    0.1047       0.2975E-2    0.1090   
    6.687       0.2883E-2    0.1058       0.2982E-2    0.1102   
    6.697       0.2891E-2    0.1070       0.2989E-2    0.1114   
    6.707       0.2899E-2    0.1082       0.2997E-2    0.1126   
    6.717       0.2908E-2    0.1093       0.3004E-2    0.1138   
    6.727       0.2916E-2    0.1105       0.3012E-2    0.1150   
    6.737       0.2925E-2    0.1117       0.3020E-2    0.1162   
    6.747       0.2934E-2    0.1128       0.3028E-2    0.1174   
    6.757       0.2942E-2    0.1140       0.3037E-2    0.1186   
    6.767       0.2951E-2    0.1152       0.3045E-2    0.1198   
    6.777       0.2960E-2    0.1164       0.3054E-2    0.1211   
    6.787       0.2970E-2    0.1176       0.3063E-2    0.1223   
    6.797       0.2979E-2    0.1188       0.3072E-2    0.1235   
    6.807       0.2988E-2    0.1200       0.3081E-2    0.1248   
    6.817       0.2998E-2    0.1212       0.3090E-2    0.1260   
    6.827       0.3007E-2    0.1224       0.3100E-2    0.1272   
    6.837       0.3017E-2    0.1236       0.3109E-2    0.1285   
    6.847       0.3026E-2    0.1248       0.3119E-2    0.1297   
    6.857       0.3036E-2    0.1260       0.3129E-2    0.1310   
    6.867       0.3046E-2    0.1272       0.3139E-2    0.1322   
    6.877       0.3056E-2    0.1284       0.3149E-2    0.1335   
    6.887       0.3066E-2    0.1297       0.3159E-2    0.1348   
    6.897       0.3076E-2    0.1309       0.3169E-2    0.1360   
    6.907       0.3087E-2    0.1321       0.3180E-2    0.1373   
    6.917       0.3097E-2    0.1334       0.3190E-2    0.1386   
    6.927       0.3107E-2    0.1346       0.3201E-2    0.1399   
    6.937       0.3118E-2    0.1359       0.3212E-2    0.1411   
    6.947       0.3129E-2    0.1371       0.3223E-2    0.1424   
    6.957       0.3139E-2    0.1384       0.3234E-2    0.1437   
    6.967       0.3150E-2    0.1396       0.3245E-2    0.1450   
    6.977       0.3161E-2    0.1409       0.3256E-2    0.1463   
    6.987       0.3172E-2    0.1422       0.3268E-2    0.1476   
    6.997       0.3183E-2    0.1434       0.3279E-2    0.1490   
    7.008       0.3194E-2    0.1447       0.3291E-2    0.1503   
    7.018       0.3206E-2    0.1460       0.3303E-2    0.1516   
    7.028       0.3217E-2    0.1473       0.3315E-2    0.1529   
    7.038       0.3229E-2    0.1486       0.3327E-2    0.1542   
    7.048       0.3240E-2    0.1499       0.3339E-2    0.1556   
    7.058       0.3252E-2    0.1512       0.3351E-2    0.1569   
    7.068       0.3264E-2    0.1525       0.3363E-2    0.1583   
    7.078       0.3276E-2    0.1538       0.3376E-2    0.1596   
    7.088       0.3288E-2    0.1551       0.3388E-2    0.1610   
    7.098       0.3300E-2    0.1564       0.3401E-2    0.1623   
    7.108       0.3312E-2    0.1578       0.3414E-2    0.1637   
    7.118       0.3325E-2    0.1591       0.3426E-2    0.1651   
    7.128       0.3338E-2    0.1604       0.3439E-2    0.1665   
    7.138       0.3352E-2    0.1618       0.3453E-2    0.1678   
    7.148       0.3366E-2    0.1631       0.3466E-2    0.1692   
    7.158       0.3380E-2    0.1645       0.3479E-2    0.1706   
    7.168       0.3393E-2    0.1658       0.3493E-2    0.1720   
    7.178       0.3404E-2    0.1672       0.3506E-2    0.1734   
    7.188       0.3415E-2    0.1685       0.3520E-2    0.1748   
    7.198       0.3427E-2    0.1699       0.3534E-2    0.1762   
    7.208       0.3439E-2    0.1713       0.3548E-2    0.1777   
    7.218       0.3452E-2    0.1727       0.3562E-2    0.1791   
    7.228       0.3465E-2    0.1741       0.3576E-2    0.1805   
    7.238       0.3478E-2    0.1754       0.3590E-2    0.1820   
    7.248       0.3491E-2    0.1768       0.3605E-2    0.1834   
    7.258       0.3505E-2    0.1782       0.3620E-2    0.1848   
    7.268       0.3518E-2    0.1797       0.3634E-2    0.1863   
    7.278       0.3532E-2    0.1811       0.3649E-2    0.1878   
    7.288       0.3546E-2    0.1825       0.3664E-2    0.1892   
    7.298       0.3560E-2    0.1839       0.3679E-2    0.1907   
    7.308       0.3574E-2    0.1853       0.3695E-2    0.1922   
    7.318       0.3588E-2    0.1868       0.3710E-2    0.1937   
    7.328       0.3602E-2    0.1882       0.3726E-2    0.1952   
    7.338       0.3617E-2    0.1897       0.3741E-2    0.1966   
    7.348       0.3631E-2    0.1911       0.3757E-2    0.1982   
    7.358       0.3646E-2    0.1926       0.3773E-2    0.1997   
    7.368       0.3661E-2    0.1940       0.3789E-2    0.2012   
    7.378       0.3676E-2    0.1955       0.3806E-2    0.2027   
    7.388       0.3691E-2    0.1970       0.3822E-2    0.2042   
    7.398       0.3706E-2    0.1985       0.3839E-2    0.2058   
    7.409       0.3721E-2    0.2000       0.3856E-2    0.2073   
    7.419       0.3737E-2    0.2015       0.3872E-2    0.2089   
    7.429       0.3752E-2    0.2030       0.3890E-2    0.2104   
    7.439       0.3768E-2    0.2045       0.3907E-2    0.2120   
    7.449       0.3784E-2    0.2060       0.3924E-2    0.2135   
    7.459       0.3800E-2    0.2075       0.3942E-2    0.2151   
    7.469       0.3816E-2    0.2090       0.3960E-2    0.2167   
    7.479       0.3832E-2    0.2106       0.3978E-2    0.2183   
    7.489       0.3848E-2    0.2121       0.3996E-2    0.2199   
    7.499       0.3865E-2    0.2137       0.4014E-2    0.2215   
    7.509       0.3882E-2    0.2152       0.4033E-2    0.2231   
    7.519       0.3898E-2    0.2168       0.4052E-2    0.2247   
    7.529       0.3915E-2    0.2183       0.4070E-2    0.2264   
    7.539       0.3933E-2    0.2199       0.4090E-2    0.2280   
    7.549       0.3950E-2    0.2215       0.4109E-2    0.2296   
    7.559       0.3967E-2    0.2231       0.4129E-2    0.2313   
    7.569       0.3985E-2    0.2247       0.4148E-2    0.2330   
    7.579       0.4003E-2    0.2263       0.4168E-2    0.2346   
    7.589       0.4021E-2    0.2279       0.4189E-2    0.2363   
    7.599       0.4039E-2    0.2295       0.4209E-2    0.2380   
    7.609       0.4057E-2    0.2311       0.4230E-2    0.2397   
    7.619       0.4076E-2    0.2327       0.4251E-2    0.2414   
    7.629       0.4094E-2    0.2344       0.4272E-2    0.2431   
    7.639       0.4113E-2    0.2360       0.4293E-2    0.2448   
    7.649       0.4132E-2    0.2377       0.4315E-2    0.2465   
    7.659       0.4151E-2    0.2393       0.4337E-2    0.2483   
    7.669       0.4171E-2    0.2410       0.4359E-2    0.2500   
    7.679       0.4191E-2    0.2427       0.4382E-2    0.2518   
    7.689       0.4210E-2    0.2444       0.4405E-2    0.2535   
    7.699       0.4231E-2    0.2461       0.4428E-2    0.2553   
    7.709       0.4251E-2    0.2478       0.4451E-2    0.2571   
    7.719       0.4271E-2    0.2495       0.4475E-2    0.2589   
    7.729       0.4292E-2    0.2512       0.4499E-2    0.2607   
    7.739       0.4313E-2    0.2529       0.4523E-2    0.2625   
    7.749       0.4334E-2    0.2546       0.4548E-2    0.2643   
    7.759       0.4356E-2    0.2564       0.4573E-2    0.2661   
    7.769       0.4378E-2    0.2581       0.4599E-2    0.2679   
    7.779       0.4400E-2    0.2599       0.4625E-2    0.2698   
    7.789       0.4422E-2    0.2617       0.4651E-2    0.2717   
    7.799       0.4445E-2    0.2634       0.4678E-2    0.2735   
    7.810       0.4468E-2    0.2652       0.4705E-2    0.2754   
    7.820       0.4491E-2    0.2670       0.4732E-2    0.2773   
    7.830       0.4514E-2    0.2688       0.4760E-2    0.2792   
    7.840       0.4538E-2    0.2706       0.4789E-2    0.2811   
    7.850       0.4562E-2    0.2725       0.4817E-2    0.2830   
    7.860       0.4587E-2    0.2743       0.4847E-2    0.2850   
    7.870       0.4612E-2    0.2762       0.4877E-2    0.2869   
    7.880       0.4637E-2    0.2780       0.4907E-2    0.2889   
    7.890       0.4662E-2    0.2799       0.4938E-2    0.2909   
    7.900       0.4688E-2    0.2817       0.4969E-2    0.2928   
    7.910       0.4715E-2    0.2836       0.5002E-2    0.2948   
    7.920       0.4741E-2    0.2855       0.5034E-2    0.2969   
    7.930       0.4768E-2    0.2874       0.5068E-2    0.2989   
    7.940       0.4796E-2    0.2893       0.5102E-2    0.3009   
    7.950       0.4824E-2    0.2913       0.5136E-2    0.3030   
    7.960       0.4853E-2    0.2932       0.5172E-2    0.3050   
    7.970       0.4882E-2    0.2952       0.5208E-2    0.3071   
    7.980       0.4911E-2    0.2971       0.5245E-2    0.3092   
    7.990       0.4941E-2    0.2991       0.5283E-2    0.3113   
    8.000       0.4972E-2    0.3011       0.5321E-2    0.3135   
# 
# 11/27/2017 at 16:26 YAMBO @ narro [start]
# 11/27/2017 at 16:26               [end]
#
# .-Input file : yambo.in
# | optics                         # [R OPT] Optics
# | bse                            # [R BSE] Bethe Salpeter Equation.
# | bsk                            # [R BSK] Bethe Salpeter Equation kernel
# | bss                            # [R BSS] Bethe Salpeter Equation solver
# | BoseTemp= 0.000000     eV      # Bosonic Temperature
# | FFTGvecs=  3473        RL      # [FFT] Plane-waves
# | X_Threads= 1                   # [OPENMP/X] Number of threads for response functions
# | DIP_Threads= 1                 # [OPENMP/X] Number of threads for dipoles
# | K_Threads= 1                   # [OPENMP/BSK] Number of threads for response functions
# | BSEmod= "retarded"             # [BSE] resonant/retarded/coupling
# | BSKmod= "ALDA"                 # [BSE] IP/Hartree/HF/ALDA/SEX/BSfxc
# | BSSmod= "d"                    # [BSS] (h)aydock/(d)iagonalization/(i)nversion/(t)ddft`
# | BSENGexx=  51          RL      # [BSK] Exchange components
# | % BEnRange
# |  4.000000 | 8.000000 | eV      # [BSS] Energy range
# | %
# | % BDmRange
# |   0.02500 |  0.02500 | eV      # [BSS] Damping range
# | %
# | BEnSteps=  400                 # [BSS] Energy steps
# | % BLongDir
# | 0.5774E-5 |0.5774E-5 |0.5774E-5 |        # [BSS] [cc] Electric Field
# | %
# | % BSEBands
# |   7 | 10 |                     # [BSK] Bands range
# | %
