#                                                                     
#  /$$     /$$ /$$$$$$  /$$      /$$ /$$$$$$$   /$$$$$$               
# |  $$   /$$//$$__  $$| $$$    /$$$| $$__  $$ /$$__  $$              
#  \  $$ /$$/| $$  \ $$| $$$$  /$$$$| $$  \ $$| $$  \ $$              
#   \  $$$$/ | $$$$$$$$| $$ $$/$$ $$| $$$$$$$ | $$  | $$              
#    \  $$/  | $$__  $$| $$  $$$| $$| $$__  $$| $$  | $$              
#     | $$   | $$  | $$| $$\  $ | $$| $$  \ $$| $$  | $$              
#     | $$   | $$  | $$| $$ \/  | $$| $$$$$$$/|  $$$$$$/              
#     |__/   |__/  |__/|__/     |__/|_______/  \______/               
#                                                                     
# Version 5.2.0 Revision 23130 Hash (prev commit) 3b61fa0e1           
#            Branch is phys-levels_degeneracy                         
#              MPI+SLK+SLEPC+HDF5_IO Build                            
#                http://www.yambo-code.eu                             
#
# Electron Energy Loss @ Q(1):  0.577350259     0.577350259     0.577350259    [q->0 direction]
#
# [GEN] GF Energies                               : Teter 93(XC)
# [GEN] Green`s Function                          : Retarded
#
# [GEN] Gauge                                     : Length
# [GEN] [r,Vnl] included                          : yes
#
# DIP band range                                  :   5  10
# DIP band range limits                           :   8   9
# DIP e/h energy range                            :  -1.00000000     -1.00000000    [eV]
# RL vectors in the sum                           :   3473
# [r,Vnl] included                                : yes
# Bands ordered                                   : yes
# Direct v evaluation                             : no
# Approach used                                   : G-space v
# Dipoles computed                                : R V P
# Wavefunctions                                   : Teter 93(XC)
#
#
# [K] Identifier                                  :   8416
# [K] Dimension                                   :   64
# [K] Bands                                       :   5  10
# [K] Exchange                                    : yes [res]
# [K] Correlation                                 : yes [res]
# [K] Kernel`s coupling                           : no
# [K] Exchange                                    : no [cpl]
# [K] Correlation                                 : no [cpl]
# [K] W interaction is bare                       : yes
# [K] ALDA kernel in R-space                      : no
# [K] RL vectors                                  :   51 [exchange]
# [K] RL vectors                                  :   51 [correlation]
# [K] E/h energy range                            :  -1.00000000     -1.00000000    [eV]
# [K] Coupling range                              :   100.000000      100.000000    [o/o]
# [W] Interaction is diagonal                     : yes
# [W] Matrix size                                 :  1
# [RIM] RL components                             : 0 [col]
# [RIM] Random points                             : 0 [col]
# [SOC] Perturbative SOC                          : no
# [K] Kernel long-range exchange                  : BAR
#
#
#    E[1] [eV]          Im(eel)            Re(eel)            Im(eel_o)          Re(eel_o)
#
        0.000000          -0.000000          -0.053225          -0.000000          -0.301706
        0.010013           0.113422E-4       -0.053223           0.739768E-6       -0.301706
        0.020025           0.226846E-4       -0.053216           0.147959E-5       -0.301705
        0.030038           0.340280E-4       -0.053205           0.221938E-5       -0.301705
        0.040050           0.453726E-4       -0.053189           0.295921E-5       -0.301704
        0.050063           0.567187E-4       -0.053168           0.369900E-5       -0.301702
        0.060075           0.680670E-4       -0.053143           0.443885E-5       -0.301701
        0.070088           0.794177E-4       -0.053114           0.517866E-5       -0.301699
        0.080100           0.907711E-4       -0.053080           0.591856E-5       -0.301697
        0.090113           0.102128E-3       -0.053041           0.665839E-5       -0.301694
        0.100125           0.113488E-3       -0.052998           0.739830E-5       -0.301691
        0.110138           0.124853E-3       -0.052950           0.813818E-5       -0.301688
        0.120150           0.136222E-3       -0.052898           0.887813E-5       -0.301685
        0.130163           0.147596E-3       -0.052841           0.961805E-5       -0.301681
        0.140175           0.158975E-3       -0.052780           0.103580E-4       -0.301677
        0.150188           0.170360E-3       -0.052714           0.110980E-4       -0.301673
        0.160200           0.181751E-3       -0.052643           0.118380E-4       -0.301668
        0.170213           0.193148E-3       -0.052568           0.125781E-4       -0.301663
        0.180225           0.204553E-3       -0.052489           0.133182E-4       -0.301658
        0.190238           0.215964E-3       -0.052404           0.140583E-4       -0.301653
        0.200250           0.227384E-3       -0.052316           0.147984E-4       -0.301647
        0.210263           0.238812E-3       -0.052222           0.155387E-4       -0.301641
        0.220275           0.250248E-3       -0.052124           0.162789E-4       -0.301634
        0.230288           0.261694E-3       -0.052022           0.170192E-4       -0.301628
        0.240300           0.273149E-3       -0.051915           0.177595E-4       -0.301621
        0.250313           0.284613E-3       -0.051803           0.184999E-4       -0.301613
        0.260325           0.296088E-3       -0.051687           0.192403E-4       -0.301606
        0.270338           0.307574E-3       -0.051566           0.199807E-4       -0.301598
        0.280350           0.319070E-3       -0.051441           0.207213E-4       -0.301590
        0.290363           0.330579E-3       -0.051310           0.214618E-4       -0.301581
        0.300375           0.342099E-3       -0.051176           0.222025E-4       -0.301573
        0.310388           0.353632E-3       -0.051036           0.229431E-4       -0.301564
        0.320401           0.365177E-3       -0.050893           0.236839E-4       -0.301554
        0.330413           0.376736E-3       -0.050744           0.244247E-4       -0.301545
        0.340426           0.388308E-3       -0.050591           0.251656E-4       -0.301535
        0.350438           0.399894E-3       -0.050433           0.259065E-4       -0.301525
        0.360451           0.411496E-3       -0.050270           0.266475E-4       -0.301514
        0.370463           0.423112E-3       -0.050103           0.273885E-4       -0.301503
        0.380476           0.434743E-3       -0.049932           0.281297E-4       -0.301492
        0.390488           0.446390E-3       -0.049755           0.288709E-4       -0.301481
        0.400501           0.458054E-3       -0.049574           0.296121E-4       -0.301469
        0.410513           0.469734E-3       -0.049388           0.303535E-4       -0.301457
        0.420526           0.481432E-3       -0.049198           0.310949E-4       -0.301445
        0.430538           0.493147E-3       -0.049003           0.318365E-4       -0.301432
        0.440551           0.504879E-3       -0.048803           0.325780E-4       -0.301419
        0.450563           0.516631E-3       -0.048598           0.333198E-4       -0.301406
        0.460576           0.528401E-3       -0.048389           0.340615E-4       -0.301392
        0.470588           0.540191E-3       -0.048175           0.348034E-4       -0.301379
        0.480601           0.552001E-3       -0.047956           0.355453E-4       -0.301365
        0.490613           0.563831E-3       -0.047733           0.362874E-4       -0.301350
        0.500626           0.575682E-3       -0.047505           0.370295E-4       -0.301336
        0.510638           0.587554E-3       -0.047272           0.377717E-4       -0.301320
        0.520651           0.599448E-3       -0.047034           0.385140E-4       -0.301305
        0.530663           0.611364E-3       -0.046792           0.392564E-4       -0.301290
        0.540676           0.623303E-3       -0.046545           0.399990E-4       -0.301274
        0.550688           0.635264E-3       -0.046293           0.407416E-4       -0.301258
        0.560701           0.647250E-3       -0.046036           0.414843E-4       -0.301241
        0.570713           0.659259E-3       -0.045774           0.422272E-4       -0.301224
        0.580726           0.671293E-3       -0.045508           0.429701E-4       -0.301207
        0.590738           0.683351E-3       -0.045236           0.437132E-4       -0.301190
        0.600751           0.695436E-3       -0.044960           0.444564E-4       -0.301172
        0.610763           0.707547E-3       -0.044679           0.451997E-4       -0.301154
        0.620776           0.719683E-3       -0.044394           0.459431E-4       -0.301136
        0.630789           0.731847E-3       -0.044103           0.466866E-4       -0.301118
        0.640801           0.744039E-3       -0.043807           0.474302E-4       -0.301099
        0.650814           0.756258E-3       -0.043507           0.481740E-4       -0.301080
        0.660826           0.768506E-3       -0.043202           0.489178E-4       -0.301060
        0.670839           0.780783E-3       -0.042892           0.496619E-4       -0.301040
        0.680851           0.793090E-3       -0.042576           0.504060E-4       -0.301020
        0.690864           0.805426E-3       -0.042256           0.511503E-4       -0.301000
        0.700876           0.817793E-3       -0.041931           0.518947E-4       -0.300979
        0.710889           0.830191E-3       -0.041601           0.526392E-4       -0.300958
        0.720901           0.842621E-3       -0.041266           0.533839E-4       -0.300937
        0.730914           0.855083E-3       -0.040926           0.541287E-4       -0.300916
        0.740926           0.867578E-3       -0.040581           0.548737E-4       -0.300894
        0.750939           0.880105E-3       -0.040232           0.556188E-4       -0.300872
        0.760951           0.892667E-3       -0.039877           0.563640E-4       -0.300849
        0.770964           0.905263E-3       -0.039517           0.571094E-4       -0.300827
        0.780976           0.917894E-3       -0.039152           0.578549E-4       -0.300804
        0.790989           0.930560E-3       -0.038781           0.586005E-4       -0.300780
        0.801001           0.943262E-3       -0.038406           0.593464E-4       -0.300757
        0.811014           0.956001E-3       -0.038026           0.600924E-4       -0.300733
        0.821026           0.968777E-3       -0.037640           0.608385E-4       -0.300708
        0.831039           0.981591E-3       -0.037250           0.615848E-4       -0.300684
        0.841051           0.994443E-3       -0.036854           0.623313E-4       -0.300659
        0.851064           0.001007          -0.036453           0.630779E-4       -0.300634
        0.861076           0.001020          -0.036047           0.638247E-4       -0.300609
        0.871089           0.001033          -0.035636           0.645716E-4       -0.300583
        0.881101           0.001046          -0.035220           0.653188E-4       -0.300557
        0.891114           0.001059          -0.034798           0.660660E-4       -0.300531
        0.901126           0.001072          -0.034371           0.668135E-4       -0.300504
        0.911139           0.001086          -0.033939           0.675611E-4       -0.300477
        0.921151           0.001099          -0.033502           0.683089E-4       -0.300450
        0.931164           0.001112          -0.033059           0.690569E-4       -0.300422
        0.941177           0.001125          -0.032611           0.698050E-4       -0.300395
        0.951189           0.001139          -0.032158           0.705534E-4       -0.300366
        0.961202           0.001152          -0.031700           0.713019E-4       -0.300338
        0.971214           0.001165          -0.031236           0.720506E-4       -0.300309
        0.981227           0.001179          -0.030766           0.727994E-4       -0.300280
        0.991239           0.001192          -0.030291           0.735486E-4       -0.300251
        1.001252           0.001206          -0.029811           0.742978E-4       -0.300221
        1.011264           0.001219          -0.029326           0.750472E-4       -0.300192
        1.021277           0.001233          -0.028835           0.757969E-4       -0.300161
        1.031289           0.001247          -0.028338           0.765467E-4       -0.300131
        1.041302           0.001261          -0.027836           0.772968E-4       -0.300100
        1.051314           0.001274          -0.027328           0.780470E-4       -0.300069
        1.061327           0.001288          -0.026815           0.787975E-4       -0.300037
        1.071339           0.001302          -0.026297           0.795481E-4       -0.300006
        1.081352           0.001316          -0.025772           0.802990E-4       -0.299974
        1.091364           0.001330          -0.025242           0.810501E-4       -0.299941
        1.101377           0.001344          -0.024707           0.818014E-4       -0.299909
        1.111389           0.001359          -0.024166           0.825528E-4       -0.299876
        1.121402           0.001373          -0.023619           0.833046E-4       -0.299843
        1.131414           0.001387          -0.023066           0.840565E-4       -0.299809
        1.141427           0.001401          -0.022508           0.848086E-4       -0.299775
        1.151439           0.001416          -0.021944           0.855609E-4       -0.299741
        1.161452           0.001431          -0.021374           0.863135E-4       -0.299707
        1.171464           0.001445          -0.020798           0.870663E-4       -0.299672
        1.181477           0.001460          -0.020216           0.878194E-4       -0.299637
        1.191489           0.001475          -0.019629           0.885726E-4       -0.299602
        1.201502           0.001490          -0.019035           0.893261E-4       -0.299566
        1.211514           0.001505          -0.018436           0.900799E-4       -0.299530
        1.221527           0.001521          -0.017830           0.908338E-4       -0.299494
        1.231539           0.001536          -0.017218           0.915880E-4       -0.299457
        1.241552           0.001553          -0.016600           0.923424E-4       -0.299421
        1.251565           0.001570          -0.015976           0.930971E-4       -0.299384
        1.261577           0.001588          -0.015346           0.938520E-4       -0.299346
        1.271590           0.001608          -0.014709           0.946072E-4       -0.299308
        1.281602           0.001632          -0.014068           0.953626E-4       -0.299270
        1.291615           0.001658          -0.013425           0.961182E-4       -0.299232
        1.301627           0.001683          -0.012786           0.968741E-4       -0.299193
        1.311640           0.001696          -0.012145           0.976302E-4       -0.299154
        1.321652           0.001700          -0.011490           0.983867E-4       -0.299115
        1.331665           0.001705          -0.010820           0.991433E-4       -0.299076
        1.341677           0.001714          -0.010141           0.999003E-4       -0.299036
        1.351690           0.001725          -0.009456           0.100657E-3       -0.298996
        1.361702           0.001738          -0.008763           0.101415E-3       -0.298955
        1.371715           0.001752          -0.008065           0.102173E-3       -0.298914
        1.381727           0.001767          -0.007361           0.102931E-3       -0.298873
        1.391740           0.001782          -0.006651           0.103689E-3       -0.298832
        1.401752           0.001797          -0.005934           0.104447E-3       -0.298790
        1.411765           0.001813          -0.005212           0.105206E-3       -0.298748
        1.421777           0.001829          -0.004483           0.105965E-3       -0.298706
        1.431790           0.001845          -0.003747           0.106724E-3       -0.298663
        1.441802           0.001861          -0.003005           0.107484E-3       -0.298620
        1.451815           0.001877          -0.002257           0.108244E-3       -0.298577
        1.461827           0.001894          -0.001502           0.109004E-3       -0.298534
        1.471840           0.001910          -0.739973E-3        0.109765E-3       -0.298490
        1.481852           0.001927           0.282774E-4        0.110525E-3       -0.298446
        1.491865           0.001944           0.803202E-3        0.111286E-3       -0.298401
        1.501877           0.001960           0.001585           0.112048E-3       -0.298357
        1.511890           0.001977           0.002373           0.112809E-3       -0.298312
        1.521902           0.001994           0.003169           0.113571E-3       -0.298266
        1.531915           0.002011           0.003971           0.114333E-3       -0.298221
        1.541927           0.002029           0.004780           0.115096E-3       -0.298175
        1.551940           0.002046           0.005595           0.115859E-3       -0.298128
        1.561952           0.002063           0.006418           0.116622E-3       -0.298082
        1.571965           0.002081           0.007248           0.117385E-3       -0.298035
        1.581978           0.002099           0.008085           0.118149E-3       -0.297988
        1.591990           0.002116           0.008929           0.118913E-3       -0.297940
        1.602003           0.002134           0.009780           0.119677E-3       -0.297893
        1.612015           0.002152           0.010638           0.120442E-3       -0.297844
        1.622028           0.002170           0.011504           0.121207E-3       -0.297796
        1.632040           0.002189           0.012377           0.121972E-3       -0.297748
        1.642053           0.002207           0.013257           0.122738E-3       -0.297698
        1.652065           0.002225           0.014144           0.123504E-3       -0.297649
        1.662078           0.002244           0.015039           0.124270E-3       -0.297600
        1.672090           0.002262           0.015941           0.125037E-3       -0.297550
        1.682103           0.002281           0.016851           0.125804E-3       -0.297499
        1.692115           0.002300           0.017768           0.126571E-3       -0.297449
        1.702128           0.002319           0.018693           0.127338E-3       -0.297398
        1.712140           0.002338           0.019625           0.128106E-3       -0.297347
        1.722153           0.002357           0.020566           0.128874E-3       -0.297295
        1.732165           0.002377           0.021513           0.129643E-3       -0.297244
        1.742178           0.002396           0.022469           0.130412E-3       -0.297192
        1.752190           0.002416           0.023432           0.131181E-3       -0.297139
        1.762203           0.002435           0.024404           0.131951E-3       -0.297086
        1.772215           0.002455           0.025383           0.132721E-3       -0.297033
        1.782228           0.002475           0.026370           0.133491E-3       -0.296980
        1.792240           0.002495           0.027365           0.134262E-3       -0.296926
        1.802253           0.002515           0.028368           0.135033E-3       -0.296873
        1.812265           0.002536           0.029380           0.135804E-3       -0.296818
        1.822278           0.002556           0.030399           0.136576E-3       -0.296764
        1.832290           0.002577           0.031427           0.137348E-3       -0.296709
        1.842303           0.002598           0.032463           0.138120E-3       -0.296654
        1.852315           0.002618           0.033507           0.138893E-3       -0.296598
        1.862328           0.002640           0.034560           0.139666E-3       -0.296543
        1.872341           0.002661           0.035622           0.140440E-3       -0.296487
        1.882353           0.002682           0.036691           0.141214E-3       -0.296430
        1.892365           0.002704           0.037770           0.141988E-3       -0.296373
        1.902378           0.002725           0.038857           0.142762E-3       -0.296316
        1.912390           0.002747           0.039952           0.143538E-3       -0.296259
        1.922403           0.002769           0.041057           0.144313E-3       -0.296201
        1.932416           0.002791           0.042170           0.145089E-3       -0.296143
        1.942428           0.002813           0.043292           0.145865E-3       -0.296085
        1.952441           0.002836           0.044423           0.146641E-3       -0.296027
        1.962453           0.002858           0.045563           0.147418E-3       -0.295968
        1.972466           0.002881           0.046712           0.148196E-3       -0.295909
        1.982478           0.002904           0.047871           0.148973E-3       -0.295849
        1.992491           0.002927           0.049038           0.149751E-3       -0.295789
        2.002503           0.002950           0.050215           0.150530E-3       -0.295729
        2.012516           0.002974           0.051401           0.151309E-3       -0.295669
        2.022528           0.002997           0.052596           0.152088E-3       -0.295608
        2.032541           0.003021           0.053801           0.152868E-3       -0.295547
        2.042553           0.003045           0.055016           0.153648E-3       -0.295485
        2.052566           0.003069           0.056240           0.154429E-3       -0.295424
        2.062578           0.003094           0.057474           0.155209E-3       -0.295362
        2.072591           0.003118           0.058718           0.155991E-3       -0.295299
        2.082603           0.003143           0.059971           0.156773E-3       -0.295237
        2.092616           0.003168           0.061235           0.157555E-3       -0.295174
        2.102628           0.003193           0.062508           0.158337E-3       -0.295111
        2.112641           0.003218           0.063792           0.159120E-3       -0.295047
        2.122653           0.003244           0.065086           0.159904E-3       -0.294983
        2.132666           0.003269           0.066390           0.160687E-3       -0.294919
        2.142678           0.003295           0.067704           0.161472E-3       -0.294854
        2.152691           0.003322           0.069029           0.162256E-3       -0.294790
        2.162703           0.003348           0.070365           0.163042E-3       -0.294724
        2.172716           0.003375           0.071711           0.163827E-3       -0.294659
        2.182729           0.003401           0.073067           0.164613E-3       -0.294593
        2.192741           0.003429           0.074435           0.165400E-3       -0.294527
        2.202754           0.003456           0.075813           0.166186E-3       -0.294461
        2.212766           0.003484           0.077203           0.166974E-3       -0.294394
        2.222779           0.003511           0.078603           0.167761E-3       -0.294327
        2.232791           0.003539           0.080015           0.168550E-3       -0.294260
        2.242804           0.003568           0.081438           0.169338E-3       -0.294192
        2.252816           0.003597           0.082872           0.170127E-3       -0.294124
        2.262829           0.003625           0.084318           0.170917E-3       -0.294056
        2.272841           0.003655           0.085776           0.171707E-3       -0.293987
        2.282854           0.003684           0.087245           0.172497E-3       -0.293918
        2.292866           0.003714           0.088727           0.173288E-3       -0.293849
        2.302879           0.003745           0.090220           0.174080E-3       -0.293779
        2.312891           0.003775           0.091725           0.174872E-3       -0.293709
        2.322904           0.003806           0.093243           0.175664E-3       -0.293639
        2.332916           0.003838           0.094773           0.176457E-3       -0.293569
        2.342929           0.003870           0.096316           0.177250E-3       -0.293498
        2.352941           0.003903           0.097872           0.178044E-3       -0.293427
        2.362954           0.003936           0.099441           0.178838E-3       -0.293355
        2.372966           0.003970           0.101024           0.179632E-3       -0.293283
        2.382979           0.004006           0.102620           0.180428E-3       -0.293211
        2.392991           0.004042           0.104230           0.181223E-3       -0.293139
        2.403004           0.004081           0.105855           0.182019E-3       -0.293066
        2.413016           0.004122           0.107495           0.182816E-3       -0.292993
        2.423029           0.004167           0.109150           0.183613E-3       -0.292920
        2.433041           0.004217           0.110822           0.184411E-3       -0.292846
        2.443054           0.004276           0.112510           0.185209E-3       -0.292772
        2.453066           0.004350           0.114213           0.186007E-3       -0.292698
        2.463079           0.004447           0.115926           0.186807E-3       -0.292623
        2.473091           0.004580           0.117627           0.187606E-3       -0.292548
        2.483104           0.004734           0.119272           0.188406E-3       -0.292473
        2.493116           0.004822           0.120838           0.189207E-3       -0.292397
        2.503129           0.004782           0.122432           0.190008E-3       -0.292321
        2.513142           0.004699           0.124137           0.190810E-3       -0.292245
        2.523154           0.004644           0.125917           0.191612E-3       -0.292168
        2.533166           0.004623           0.127730           0.192414E-3       -0.292092
        2.543179           0.004623           0.129561           0.193217E-3       -0.292014
        2.553191           0.004637           0.131404           0.194021E-3       -0.291937
        2.563204           0.004659           0.133259           0.194825E-3       -0.291859
        2.573217           0.004686           0.135126           0.195630E-3       -0.291781
        2.583229           0.004716           0.137006           0.196435E-3       -0.291702
        2.593242           0.004749           0.138900           0.197241E-3       -0.291623
        2.603254           0.004784           0.140807           0.198047E-3       -0.291544
        2.613267           0.004820           0.142729           0.198854E-3       -0.291465
        2.623279           0.004858           0.144666           0.199661E-3       -0.291385
        2.633292           0.004896           0.146619           0.200469E-3       -0.291305
        2.643304           0.004935           0.148587           0.201278E-3       -0.291224
        2.653317           0.004975           0.150571           0.202087E-3       -0.291144
        2.663329           0.005015           0.152571           0.202896E-3       -0.291063
        2.673342           0.005057           0.154587           0.203706E-3       -0.290981
        2.683354           0.005098           0.156620           0.204517E-3       -0.290899
        2.693367           0.005141           0.158670           0.205328E-3       -0.290817
        2.703379           0.005184           0.160737           0.206140E-3       -0.290735
        2.713392           0.005227           0.162821           0.206952E-3       -0.290652
        2.723404           0.005271           0.164923           0.207765E-3       -0.290569
        2.733417           0.005316           0.167042           0.208579E-3       -0.290486
        2.743429           0.005361           0.169180           0.209392E-3       -0.290402
        2.753442           0.005407           0.171336           0.210207E-3       -0.290318
        2.763454           0.005453           0.173510           0.211022E-3       -0.290234
        2.773467           0.005500           0.175703           0.211838E-3       -0.290149
        2.783479           0.005548           0.177915           0.212654E-3       -0.290064
        2.793492           0.005596           0.180146           0.213471E-3       -0.289979
        2.803504           0.005644           0.182396           0.214288E-3       -0.289893
        2.813517           0.005693           0.184666           0.215106E-3       -0.289807
        2.823529           0.005743           0.186955           0.215925E-3       -0.289721
        2.833542           0.005794           0.189265           0.216744E-3       -0.289634
        2.843554           0.005845           0.191595           0.217564E-3       -0.289547
        2.853567           0.005896           0.193946           0.218384E-3       -0.289460
        2.863580           0.005949           0.196317           0.219205E-3       -0.289372
        2.873592           0.006001           0.198710           0.220027E-3       -0.289284
        2.883605           0.006055           0.201123           0.220849E-3       -0.289196
        2.893617           0.006109           0.203559           0.221671E-3       -0.289107
        2.903630           0.006164           0.206016           0.222495E-3       -0.289018
        2.913642           0.006220           0.208495           0.223319E-3       -0.288929
        2.923655           0.006276           0.210997           0.224143E-3       -0.288839
        2.933667           0.006333           0.213521           0.224969E-3       -0.288750
        2.943680           0.006391           0.216068           0.225794E-3       -0.288659
        2.953692           0.006449           0.218639           0.226621E-3       -0.288569
        2.963705           0.006509           0.221233           0.227448E-3       -0.288478
        2.973717           0.006569           0.223851           0.228275E-3       -0.288386
        2.983730           0.006629           0.226493           0.229104E-3       -0.288295
        2.993742           0.006691           0.229160           0.229932E-3       -0.288203
        3.003755           0.006753           0.231852           0.230762E-3       -0.288111
        3.013767           0.006817           0.234569           0.231592E-3       -0.288018
        3.023780           0.006881           0.237311           0.232423E-3       -0.287925
        3.033792           0.006946           0.240079           0.233254E-3       -0.287832
        3.043805           0.007012           0.242873           0.234086E-3       -0.287738
        3.053817           0.007078           0.245694           0.234919E-3       -0.287644
        3.063830           0.007146           0.248541           0.235752E-3       -0.287550
        3.073842           0.007215           0.251416           0.236586E-3       -0.287456
        3.083855           0.007284           0.254319           0.237421E-3       -0.287361
        3.093868           0.007355           0.257249           0.238256E-3       -0.287265
        3.103880           0.007426           0.260208           0.239092E-3       -0.287170
        3.113892           0.007499           0.263196           0.239929E-3       -0.287074
        3.123905           0.007572           0.266213           0.240766E-3       -0.286978
        3.133918           0.007647           0.269260           0.241604E-3       -0.286881
        3.143930           0.007722           0.272336           0.242442E-3       -0.286784
        3.153943           0.007799           0.275444           0.243282E-3       -0.286687
        3.163955           0.007877           0.278582           0.244121E-3       -0.286589
        3.173967           0.007956           0.281751           0.244962E-3       -0.286491
        3.183980           0.008036           0.284953           0.245803E-3       -0.286393
        3.193993           0.008118           0.288186           0.246645E-3       -0.286295
        3.204005           0.008200           0.291453           0.247488E-3       -0.286196
        3.214018           0.008284           0.294753           0.248331E-3       -0.286096
        3.224030           0.008369           0.298087           0.249175E-3       -0.285997
        3.234043           0.008456           0.301455           0.250020E-3       -0.285897
        3.244055           0.008544           0.304858           0.250865E-3       -0.285796
        3.254068           0.008633           0.308296           0.251711E-3       -0.285696
        3.264080           0.008723           0.311771           0.252558E-3       -0.285595
        3.274093           0.008815           0.315282           0.253405E-3       -0.285493
        3.284105           0.008909           0.318829           0.254253E-3       -0.285392
        3.294118           0.009004           0.322415           0.255102E-3       -0.285290
        3.304130           0.009100           0.326039           0.255952E-3       -0.285187
        3.314143           0.009198           0.329702           0.256802E-3       -0.285085
        3.324155           0.009298           0.333405           0.257653E-3       -0.284982
        3.334168           0.009399           0.337147           0.258505E-3       -0.284878
        3.344180           0.009502           0.340931           0.259357E-3       -0.284775
        3.354193           0.009607           0.344756           0.260210E-3       -0.284671
        3.364205           0.009714           0.348624           0.261064E-3       -0.284566
        3.374218           0.009822           0.352534           0.261919E-3       -0.284462
        3.384230           0.009932           0.356488           0.262774E-3       -0.284356
        3.394243           0.010044           0.360487           0.263630E-3       -0.284251
        3.404255           0.010158           0.364531           0.264487E-3       -0.284145
        3.414268           0.010274           0.368621           0.265344E-3       -0.284039
        3.424280           0.010392           0.372757           0.266202E-3       -0.283933
        3.434293           0.010513           0.376942           0.267061E-3       -0.283826
        3.444305           0.010635           0.381174           0.267921E-3       -0.283719
        3.454318           0.010759           0.385457           0.268781E-3       -0.283611
        3.464330           0.010886           0.389789           0.269643E-3       -0.283504
        3.474343           0.011015           0.394173           0.270505E-3       -0.283395
        3.484356           0.011147           0.398609           0.271367E-3       -0.283287
        3.494368           0.011281           0.403098           0.272231E-3       -0.283178
        3.504381           0.011417           0.407641           0.273095E-3       -0.283069
        3.514393           0.011557           0.412239           0.273960E-3       -0.282959
        3.524405           0.011698           0.416894           0.274826E-3       -0.282849
        3.534418           0.011843           0.421605           0.275692E-3       -0.282739
        3.544430           0.011990           0.426376           0.276560E-3       -0.282629
        3.554443           0.012140           0.431205           0.277428E-3       -0.282518
        3.564456           0.012294           0.436095           0.278297E-3       -0.282406
        3.574468           0.012450           0.441048           0.279166E-3       -0.282295
        3.584481           0.012609           0.446063           0.280037E-3       -0.282183
        3.594493           0.012772           0.451143           0.280908E-3       -0.282070
        3.604506           0.012938           0.456289           0.281780E-3       -0.281958
        3.614518           0.013108           0.461501           0.282653E-3       -0.281845
        3.624531           0.013281           0.466782           0.283526E-3       -0.281731
        3.634543           0.013457           0.472133           0.284401E-3       -0.281618
        3.644556           0.013638           0.477556           0.285276E-3       -0.281503
        3.654568           0.013822           0.483051           0.286152E-3       -0.281389
        3.664581           0.014010           0.488621           0.287028E-3       -0.281274
        3.674593           0.014202           0.494267           0.287906E-3       -0.281159
        3.684606           0.014399           0.499990           0.288784E-3       -0.281044
        3.694618           0.014600           0.505794           0.289664E-3       -0.280928
        3.704631           0.014805           0.511678           0.290544E-3       -0.280812
        3.714643           0.015016           0.517646           0.291425E-3       -0.280695
        3.724656           0.015231           0.523698           0.292306E-3       -0.280578
        3.734668           0.015451           0.529838           0.293189E-3       -0.280461
        3.744681           0.015676           0.536066           0.294072E-3       -0.280343
        3.754694           0.015906           0.542386           0.294956E-3       -0.280225
        3.764706           0.016142           0.548799           0.295841E-3       -0.280107
        3.774719           0.016384           0.555307           0.296727E-3       -0.279988
        3.784731           0.016631           0.561913           0.297614E-3       -0.279869
        3.794743           0.016884           0.568619           0.298501E-3       -0.279750
        3.804756           0.017144           0.575428           0.299390E-3       -0.279630
        3.814769           0.017411           0.582341           0.300279E-3       -0.279510
        3.824781           0.017684           0.589364           0.301169E-3       -0.279390
        3.834794           0.017964           0.596496           0.302060E-3       -0.279269
        3.844806           0.018251           0.603742           0.302952E-3       -0.279148
        3.854819           0.018546           0.611103           0.303844E-3       -0.279026
        3.864831           0.018849           0.618585           0.304738E-3       -0.278904
        3.874844           0.019159           0.626189           0.305632E-3       -0.278782
        3.884856           0.019478           0.633918           0.306527E-3       -0.278660
        3.894869           0.019806           0.641777           0.307423E-3       -0.278537
        3.904881           0.020144           0.649770           0.308320E-3       -0.278413
        3.914894           0.020490           0.657897           0.309218E-3       -0.278290
        3.924906           0.020847           0.666166           0.310117E-3       -0.278166
        3.934919           0.021214           0.674579           0.311017E-3       -0.278041
        3.944931           0.021591           0.683139           0.311917E-3       -0.277917
        3.954944           0.021980           0.691852           0.312819E-3       -0.277792
        3.964956           0.022378           0.700722           0.313721E-3       -0.277666
        3.974969           0.022789           0.709754           0.314624E-3       -0.277540
        3.984981           0.023212           0.718954           0.315528E-3       -0.277414
        3.994994           0.023648           0.728326           0.316433E-3       -0.277288
        4.005006           0.024098           0.737874           0.317339E-3       -0.277161
        4.015019           0.024562           0.747606           0.318246E-3       -0.277033
        4.025032           0.025041           0.757526           0.319154E-3       -0.276906
        4.035044           0.025536           0.767641           0.320062E-3       -0.276778
        4.045056           0.026047           0.777955           0.320972E-3       -0.276649
        4.055069           0.026575           0.788478           0.321882E-3       -0.276521
        4.065081           0.027120           0.799214           0.322794E-3       -0.276392
        4.075094           0.027684           0.810173           0.323706E-3       -0.276262
        4.085106           0.028268           0.821361           0.324620E-3       -0.276132
        4.095119           0.028872           0.832784           0.325534E-3       -0.276002
        4.105132           0.029498           0.844453           0.326449E-3       -0.275871
        4.115144           0.030146           0.856377           0.327365E-3       -0.275740
        4.125157           0.030817           0.868564           0.328282E-3       -0.275609
        4.135169           0.031513           0.881024           0.329200E-3       -0.275478
        4.145182           0.032236           0.893766           0.330119E-3       -0.275346
        4.155194           0.032986           0.906803           0.331039E-3       -0.275213
        4.165207           0.033765           0.920144           0.331960E-3       -0.275080
        4.175219           0.034575           0.933802           0.332881E-3       -0.274947
        4.185232           0.035417           0.947788           0.333804E-3       -0.274814
        4.195244           0.036293           0.962118           0.334728E-3       -0.274680
        4.205256           0.037205           0.976804           0.335653E-3       -0.274546
        4.215269           0.038154           0.991860           0.336579E-3       -0.274411
        4.225282           0.039145           1.007303           0.337505E-3       -0.274276
        4.235294           0.040178           1.023150           0.338433E-3       -0.274141
        4.245307           0.041256           1.039416           0.339361E-3       -0.274005
        4.255319           0.042383           1.056122           0.340291E-3       -0.273869
        4.265332           0.043561           1.073286           0.341222E-3       -0.273732
        4.275344           0.044793           1.090931           0.342153E-3       -0.273596
        4.285357           0.046083           1.109077           0.343086E-3       -0.273458
        4.295369           0.047434           1.127747           0.344020E-3       -0.273321
        4.305382           0.048852           1.146970           0.344954E-3       -0.273183
        4.315394           0.050341           1.166770           0.345890E-3       -0.273044
        4.325407           0.051905           1.187177           0.346826E-3       -0.272906
        4.335419           0.053550           1.208221           0.347764E-3       -0.272767
        4.345432           0.055282           1.229937           0.348703E-3       -0.272627
        4.355444           0.057109           1.252357           0.349642E-3       -0.272487
        4.365457           0.059038           1.275520           0.350583E-3       -0.272347
        4.375470           0.061080           1.299468           0.351525E-3       -0.272206
        4.385482           0.063246           1.324238           0.352468E-3       -0.272065
        4.395494           0.065543           1.349870           0.353411E-3       -0.271924
        4.405507           0.067966           1.376399           0.354356E-3       -0.271782
        4.415520           0.070502           1.403903           0.355302E-3       -0.271640
        4.425532           0.073176           1.432471           0.356249E-3       -0.271498
        4.435544           0.076025           1.462162           0.357197E-3       -0.271355
        4.445557           0.079071           1.493039           0.358146E-3       -0.271212
        4.455569           0.082326           1.525167           0.359096E-3       -0.271068
        4.465582           0.085808           1.558632           0.360047E-3       -0.270924
        4.475595           0.089535           1.593521           0.360999E-3       -0.270780
        4.485607           0.093531           1.629937           0.361952E-3       -0.270635
        4.495620           0.097821           1.667984           0.362907E-3       -0.270490
        4.505632           0.102435           1.707790           0.363862E-3       -0.270344
        4.515645           0.107407           1.749484           0.364819E-3       -0.270198
        4.525657           0.112776           1.793214           0.365776E-3       -0.270052
        4.535670           0.118584           1.839140           0.366735E-3       -0.269905
        4.545682           0.124882           1.887444           0.367695E-3       -0.269758
        4.555695           0.131727           1.938325           0.368655E-3       -0.269611
        4.565707           0.139185           1.992005           0.369617E-3       -0.269463
        4.575720           0.147333           2.048743           0.370580E-3       -0.269315
        4.585732           0.156260           2.108818           0.371544E-3       -0.269166
        4.595745           0.166069           2.172543           0.372509E-3       -0.269017
        4.605757           0.176880           2.240284           0.373476E-3       -0.268868
        4.615770           0.188838           2.312451           0.374443E-3       -0.268718
        4.625782           0.202110           2.389504           0.375412E-3       -0.268568
        4.635795           0.216897           2.471982           0.376381E-3       -0.268417
        4.645807           0.233443           2.560504           0.377352E-3       -0.268266
        4.655820           0.252038           2.655781           0.378324E-3       -0.268115
        4.665833           0.273035           2.758636           0.379297E-3       -0.267963
        4.675845           0.296869           2.870049           0.380271E-3       -0.267811
        4.685857           0.324077           2.991151           0.381246E-3       -0.267659
        4.695870           0.355325           3.123294           0.382223E-3       -0.267506
        4.705883           0.391457           3.268087           0.383200E-3       -0.267353
        4.715895           0.433542           3.427460           0.384179E-3       -0.267199
        4.725907           0.482963           3.603754           0.385159E-3       -0.267045
        4.735920           0.541515           3.799802           0.386140E-3       -0.266890
        4.745933           0.611589           4.019130           0.387122E-3       -0.266736
        4.755945           0.696389           4.266076           0.388105E-3       -0.266580
        4.765958           0.800292           4.546055           0.389090E-3       -0.266425
        4.775970           0.929446           4.866005           0.390075E-3       -0.266269
        4.785983           1.092576           5.234631           0.391062E-3       -0.266112
        4.795995           1.302475           5.663156           0.392050E-3       -0.265955
        4.806007           1.578355           6.165898           0.393040E-3       -0.265798
        4.816020           1.950061           6.761053           0.394030E-3       -0.265641
        4.826033           2.465426           7.470621           0.395022E-3       -0.265483
        4.836045           3.203872           8.317976           0.396014E-3       -0.265324
        4.846057           4.301924           9.317147           0.397008E-3       -0.265165
        4.856070           5.998655           10.43415           0.398004E-3       -0.265006
        4.866083           8.698292           11.46110           0.399000E-3       -0.264847
        4.876095           12.93493           11.65478           0.399997E-3       -0.264687
        4.886108           18.58982           9.113251           0.400996E-3       -0.264526
        4.896121           22.49726           1.931582           0.401996E-3       -0.264365
        4.906133           20.28608          -6.317328           0.402997E-3       -0.264204
        4.916145           14.63741          -10.25937           0.404000E-3       -0.264043
        4.926158           9.854005          -10.66080           0.405004E-3       -0.263881
        4.936170           6.723914          -9.774082           0.406008E-3       -0.263718
        4.946183           4.763110          -8.646966           0.407014E-3       -0.263555
        4.956195           3.508431          -7.600768           0.408022E-3       -0.263392
        4.966208           2.675268          -6.703896           0.409030E-3       -0.263229
        4.976220           2.100613          -5.950979           0.410040E-3       -0.263064
        4.986233           1.690457          -5.319667           0.411051E-3       -0.262900
        4.996245           1.388842          -4.787024           0.412064E-3       -0.262735
        5.006258           1.161281          -4.333656           0.413077E-3       -0.262570
        5.016271           0.985735          -3.944040           0.414092E-3       -0.262404
        5.026283           0.847708          -3.606059           0.415108E-3       -0.262238
        5.036295           0.737368          -3.310248           0.416126E-3       -0.262072
        5.046308           0.647874          -3.049182           0.417144E-3       -0.261905
        5.056321           0.574357          -2.816990           0.418164E-3       -0.261738
        5.066333           0.513289          -2.609016           0.419186E-3       -0.261570
        5.076345           0.462054          -2.421493           0.420208E-3       -0.261402
        5.086358           0.418688          -2.251377           0.421232E-3       -0.261233
        5.096371           0.381696          -2.096179           0.422257E-3       -0.261065
        5.106383           0.349919          -1.953843           0.423283E-3       -0.260895
        5.116395           0.322451          -1.822656           0.424311E-3       -0.260725
        5.126408           0.298576          -1.701184           0.425340E-3       -0.260555
        5.136421           0.277722          -1.588215           0.426371E-3       -0.260385
        5.146433           0.259426          -1.482719           0.427402E-3       -0.260214
        5.156446           0.243313          -1.383816           0.428435E-3       -0.260042
        5.166458           0.229076          -1.290743           0.429470E-3       -0.259871
        5.176471           0.216460          -1.202845           0.430505E-3       -0.259698
        5.186483           0.205255          -1.119547           0.431542E-3       -0.259526
        5.196496           0.195286          -1.040352           0.432581E-3       -0.259353
        5.206508           0.186402          -0.964810           0.433620E-3       -0.259179
        5.216521           0.178481          -0.892533           0.434661E-3       -0.259005
        5.226533           0.171416          -0.823171           0.435703E-3       -0.258831
        5.236546           0.165118          -0.756413           0.436747E-3       -0.258656
        5.246558           0.159510          -0.691977           0.437792E-3       -0.258481
        5.256571           0.154527          -0.629610           0.438838E-3       -0.258306
        5.266583           0.150113          -0.569079           0.439886E-3       -0.258130
        5.276596           0.146220          -0.510172           0.440935E-3       -0.257953
        5.286609           0.142808          -0.452696           0.441986E-3       -0.257777
        5.296621           0.139841          -0.396469           0.443038E-3       -0.257599
        5.306633           0.137290          -0.341324           0.444091E-3       -0.257422
        5.316646           0.135129          -0.287102           0.445146E-3       -0.257244
        5.326658           0.133339          -0.233656           0.446202E-3       -0.257065
        5.336671           0.131902          -0.180842           0.447259E-3       -0.256886
        5.346684           0.130804          -0.128525           0.448318E-3       -0.256707
        5.356696           0.130034          -0.076573           0.449378E-3       -0.256527
        5.366708           0.129585          -0.024861           0.450440E-3       -0.256347
        5.376721           0.129452           0.026739           0.451503E-3       -0.256166
        5.386734           0.129633           0.078348           0.452568E-3       -0.255985
        5.396746           0.130127           0.130091           0.453633E-3       -0.255804
        5.406759           0.130937           0.182092           0.454701E-3       -0.255622
        5.416771           0.132071           0.234476           0.455769E-3       -0.255440
        5.426784           0.133534           0.287372           0.456840E-3       -0.255257
        5.436796           0.135340           0.340911           0.457912E-3       -0.255074
        5.446809           0.137502           0.395231           0.458985E-3       -0.254890
        5.456821           0.140038           0.450473           0.460059E-3       -0.254706
        5.466834           0.142970           0.506792           0.461135E-3       -0.254522
        5.476846           0.146322           0.564345           0.462212E-3       -0.254337
        5.486859           0.150125           0.623302           0.463291E-3       -0.254151
        5.496871           0.154414           0.683846           0.464372E-3       -0.253966
        5.506884           0.159230           0.746175           0.465454E-3       -0.253779
        5.516896           0.164621           0.810503           0.466537E-3       -0.253593
        5.526909           0.170643           0.877064           0.467622E-3       -0.253406
        5.536922           0.177360           0.946114           0.468708E-3       -0.253218
        5.546934           0.184849           1.017938           0.469796E-3       -0.253030
        5.556946           0.193197           1.092849           0.470885E-3       -0.252842
        5.566959           0.202510           1.171199           0.471976E-3       -0.252653
        5.576971           0.212907           1.253377           0.473068E-3       -0.252464
        5.586984           0.224534           1.339829           0.474162E-3       -0.252274
        5.596996           0.237562           1.431057           0.475257E-3       -0.252084
        5.607009           0.252193           1.527629           0.476354E-3       -0.251894
        5.617022           0.268670           1.630193           0.477453E-3       -0.251703
        5.627034           0.287289           1.739504           0.478553E-3       -0.251511
        5.637046           0.308404           1.856424           0.479654E-3       -0.251319
        5.647059           0.332450           1.981960           0.480757E-3       -0.251127
        5.657072           0.359964           2.117298           0.481861E-3       -0.250934
        5.667084           0.391610           2.263820           0.482967E-3       -0.250741
        5.677097           0.428221           2.423177           0.484075E-3       -0.250547
        5.687109           0.470856           2.597342           0.485184E-3       -0.250353
        5.697122           0.520869           2.788689           0.486295E-3       -0.250159
        5.707134           0.580010           3.000084           0.487407E-3       -0.249964
        5.717146           0.650589           3.235062           0.488521E-3       -0.249768
        5.727159           0.735687           3.497980           0.489637E-3       -0.249572
        5.737172           0.839478           3.794254           0.490753E-3       -0.249376
        5.747184           0.967742           4.130713           0.491872E-3       -0.249179
        5.757196           1.128628           4.516008           0.492992E-3       -0.248982
        5.767209           1.333920           4.961196           0.494114E-3       -0.248784
        5.777222           1.601085           5.480432           0.495238E-3       -0.248586
        5.787234           1.956810           6.091779           0.496362E-3       -0.248388
        5.797247           2.443155           6.817678           0.497489E-3       -0.248189
        5.807260           3.128872           7.684124           0.498617E-3       -0.247989
        5.817272           4.130154           8.714393           0.499748E-3       -0.247789
        5.827284           5.649447           9.905766           0.500879E-3       -0.247589
        5.837296           8.038497           11.14963           0.502012E-3       -0.247388
        5.847309           11.84905           11.98522           0.503147E-3       -0.247187
        5.857322           17.52370           10.99617           0.504283E-3       -0.246985
        5.867334           23.54946           5.552291           0.505421E-3       -0.246783
        5.877347           24.62132          -4.014401           0.506561E-3       -0.246580
        5.887359           19.40835          -11.02887           0.507702E-3       -0.246377
        5.897372           13.30251          -13.02584           0.508845E-3       -0.246174
        5.907384           8.966473          -12.51033           0.509990E-3       -0.245970
        5.917397           6.229480          -11.31099           0.511136E-3       -0.245765
        5.927410           4.502460          -10.08564           0.512284E-3       -0.245560
        5.937422           3.376529          -9.007152           0.513434E-3       -0.245355
        5.947434           2.613698          -8.096536           0.514585E-3       -0.245149
        5.957447           2.077729          -7.334220           0.515739E-3       -0.244943
        5.967459           1.688878          -6.693970           0.516893E-3       -0.244736
        5.977472           1.398803          -6.152076           0.518050E-3       -0.244529
        5.987484           1.177162          -5.689228           0.519208E-3       -0.244321
        5.997497           1.004277          -5.290242           0.520368E-3       -0.244113
        6.007510           0.866969          -4.943227           0.521530E-3       -0.243904
        6.017522           0.756201          -4.638930           0.522693E-3       -0.243695
        6.027534           0.665599          -4.370042           0.523858E-3       -0.243485
        6.037547           0.590578          -4.130761           0.525025E-3       -0.243275
        6.047560           0.527782          -3.916466           0.526194E-3       -0.243065
        6.057572           0.474707          -3.723428           0.527364E-3       -0.242854
        6.067585           0.429452          -3.548593           0.528536E-3       -0.242642
        6.077597           0.390562          -3.389467           0.529710E-3       -0.242430
        6.087609           0.356898          -3.243971           0.530886E-3       -0.242218
        6.097622           0.327569          -3.110386           0.532064E-3       -0.242005
        6.107635           0.301863          -2.987258           0.533242E-3       -0.241792
        6.117647           0.279209          -2.873358           0.534424E-3       -0.241578
        6.127660           0.259143          -2.767649           0.535606E-3       -0.241364
        6.137672           0.241287          -2.669226           0.536791E-3       -0.241149
        6.147685           0.225328          -2.577328           0.537977E-3       -0.240934
        6.157697           0.211008          -2.491283           0.539165E-3       -0.240718
        6.167710           0.198111          -2.410516           0.540355E-3       -0.240502
        6.177722           0.186455          -2.334519           0.541547E-3       -0.240285
        6.187735           0.175886          -2.262850           0.542740E-3       -0.240068
        6.197748           0.166273          -2.195113           0.543936E-3       -0.239851
        6.207760           0.157506          -2.130971           0.545133E-3       -0.239633
        6.217772           0.149489          -2.070112           0.546332E-3       -0.239414
        6.227785           0.142139          -2.012263           0.547533E-3       -0.239195
        6.237797           0.135384          -1.957179           0.548736E-3       -0.238975
        6.247810           0.129162          -1.904643           0.549941E-3       -0.238755
        6.257823           0.123420          -1.854459           0.551147E-3       -0.238535
        6.267835           0.118110          -1.806448           0.552355E-3       -0.238314
        6.277847           0.113190          -1.760454           0.553566E-3       -0.238092
        6.287860           0.108623          -1.716327           0.554778E-3       -0.237870
        6.297873           0.104378          -1.673941           0.555992E-3       -0.237648
        6.307885           0.100425          -1.633171           0.557208E-3       -0.237425
        6.317898           0.096738          -1.593910           0.558426E-3       -0.237202
        6.327910           0.093295          -1.556059           0.559645E-3       -0.236978
        6.337923           0.090075          -1.519525           0.560867E-3       -0.236753
        6.347935           0.087060          -1.484226           0.562090E-3       -0.236529
        6.357947           0.084233          -1.450081           0.563316E-3       -0.236303
        6.367960           0.081580          -1.417022           0.564543E-3       -0.236077
        6.377973           0.079087          -1.384981           0.565772E-3       -0.235851
        6.387985           0.076743          -1.353900           0.567004E-3       -0.235624
        6.397998           0.074536          -1.323721           0.568237E-3       -0.235397
        6.408010           0.072456          -1.294392           0.569472E-3       -0.235169
        6.418023           0.070495          -1.265865           0.570709E-3       -0.234941
        6.428035           0.068643          -1.238095           0.571948E-3       -0.234712
        6.438048           0.066895          -1.211039           0.573189E-3       -0.234483
        6.448061           0.065242          -1.184659           0.574432E-3       -0.234253
        6.458073           0.063678          -1.158918           0.575677E-3       -0.234023
        6.468085           0.062198          -1.133782           0.576924E-3       -0.233792
        6.478097           0.060797          -1.109219           0.578173E-3       -0.233560
        6.488110           0.059469          -1.085197           0.579424E-3       -0.233329
        6.498123           0.058211          -1.061690           0.580677E-3       -0.233096
        6.508135           0.057017          -1.038669           0.581932E-3       -0.232863
        6.518148           0.055885          -1.016112           0.583189E-3       -0.232630
        6.528161           0.054810          -0.993994           0.584448E-3       -0.232396
        6.538173           0.053790          -0.972292           0.585709E-3       -0.232162
        6.548185           0.052822          -0.950987           0.586972E-3       -0.231927
        6.558198           0.051902          -0.930057           0.588237E-3       -0.231692
        6.568211           0.051028          -0.909484           0.589504E-3       -0.231456
        6.578223           0.050198          -0.889251           0.590774E-3       -0.231220
        6.588236           0.049410          -0.869339           0.592045E-3       -0.230983
        6.598248           0.048661          -0.849733           0.593318E-3       -0.230745
        6.608260           0.047949          -0.830420           0.594594E-3       -0.230508
        6.618273           0.047274          -0.811381           0.595872E-3       -0.230269
        6.628285           0.046632          -0.792606           0.597151E-3       -0.230030
        6.638298           0.046023          -0.774079           0.598433E-3       -0.229791
        6.648311           0.045445          -0.755788           0.599717E-3       -0.229551
        6.658323           0.044897          -0.737722           0.601003E-3       -0.229310
        6.668335           0.044377          -0.719869           0.602291E-3       -0.229069
        6.678348           0.043884          -0.702218           0.603581E-3       -0.228828
        6.688361           0.043418          -0.684758           0.604874E-3       -0.228586
        6.698373           0.042977          -0.667479           0.606168E-3       -0.228343
        6.708386           0.042560          -0.650370           0.607465E-3       -0.228100
        6.718399           0.042166          -0.633424           0.608764E-3       -0.227857
        6.728411           0.041794          -0.616630           0.610065E-3       -0.227613
        6.738423           0.041444          -0.599980           0.611367E-3       -0.227368
        6.748435           0.041115          -0.583465           0.612673E-3       -0.227123
        6.758448           0.040806          -0.567078           0.613980E-3       -0.226878
        6.768461           0.040517          -0.550809           0.615290E-3       -0.226631
        6.778473           0.040246          -0.534652           0.616602E-3       -0.226385
        6.788486           0.039994          -0.518600           0.617916E-3       -0.226137
        6.798498           0.039760          -0.502644           0.619232E-3       -0.225890
        6.808510           0.039543          -0.486779           0.620551E-3       -0.225642
        6.818523           0.039343          -0.470996           0.621871E-3       -0.225393
        6.828536           0.039159          -0.455291           0.623194E-3       -0.225143
        6.838549           0.038991          -0.439654           0.624520E-3       -0.224894
        6.848561           0.038839          -0.424082           0.625847E-3       -0.224643
        6.858573           0.038702          -0.408567           0.627177E-3       -0.224392
        6.868586           0.038581          -0.393104           0.628509E-3       -0.224141
        6.878599           0.038474          -0.377686           0.629843E-3       -0.223889
        6.888611           0.038381          -0.362309           0.631179E-3       -0.223636
        6.898624           0.038302          -0.346965           0.632518E-3       -0.223383
        6.908636           0.038238          -0.331650           0.633859E-3       -0.223130
        6.918649           0.038187          -0.316357           0.635202E-3       -0.222875
        6.928661           0.038150          -0.301083           0.636548E-3       -0.222621
        6.938673           0.038126          -0.285821           0.637896E-3       -0.222366
        6.948686           0.038115          -0.270564           0.639246E-3       -0.222110
        6.958698           0.038118          -0.255310           0.640599E-3       -0.221854
        6.968711           0.038134          -0.240051           0.641954E-3       -0.221597
        6.978724           0.038162          -0.224785           0.643311E-3       -0.221339
        6.988736           0.038203          -0.209503           0.644671E-3       -0.221081
        6.998748           0.038258          -0.194203           0.646033E-3       -0.220823
        7.008761           0.038324          -0.178878           0.647397E-3       -0.220564
        7.018774           0.038404          -0.163525           0.648763E-3       -0.220304
        7.028787           0.038496          -0.148136           0.650133E-3       -0.220044
        7.038799           0.038602          -0.132709           0.651504E-3       -0.219784
        7.048811           0.038719          -0.117237           0.652878E-3       -0.219522
        7.058824           0.038850          -0.101714           0.654254E-3       -0.219261
        7.068836           0.038994          -0.086137           0.655633E-3       -0.218998
        7.078849           0.039151          -0.070499           0.657014E-3       -0.218736
        7.088861           0.039320          -0.054797           0.658398E-3       -0.218472
        7.098874           0.039503          -0.039024           0.659783E-3       -0.218208
        7.108886           0.039700          -0.023176           0.661172E-3       -0.217944
        7.118899           0.039909          -0.007245           0.662563E-3       -0.217679
        7.128911           0.040133           0.008771           0.663956E-3       -0.217413
        7.138924           0.040370           0.024880           0.665352E-3       -0.217147
        7.148936           0.040622           0.041086           0.666750E-3       -0.216880
        7.158949           0.040888           0.057397           0.668151E-3       -0.216613
        7.168962           0.041169           0.073815           0.669554E-3       -0.216345
        7.178974           0.041465           0.090349           0.670959E-3       -0.216076
        7.188986           0.041776           0.107005           0.672368E-3       -0.215807
        7.198998           0.042104           0.123787           0.673779E-3       -0.215538
        7.209012           0.042448           0.140705           0.675192E-3       -0.215268
        7.219024           0.042809           0.157761           0.676608E-3       -0.214997
        7.229037           0.043188           0.174966           0.678026E-3       -0.214726
        7.239049           0.043586           0.192325           0.679447E-3       -0.214454
        7.249062           0.044004           0.209846           0.680870E-3       -0.214182
        7.259074           0.044446           0.227533           0.682296E-3       -0.213909
        7.269087           0.044915           0.245396           0.683725E-3       -0.213635
        7.279099           0.045415           0.263433           0.685156E-3       -0.213361
        7.289112           0.045943           0.281641           0.686590E-3       -0.213086
        7.299124           0.046473           0.300017           0.688026E-3       -0.212811
        7.309136           0.046985           0.318605           0.689465E-3       -0.212535
        7.319149           0.047507           0.337443           0.690906E-3       -0.212259
        7.329161           0.048063           0.356527           0.692350E-3       -0.211982
        7.339174           0.048657           0.375857           0.693797E-3       -0.211704
        7.349186           0.049289           0.395436           0.695247E-3       -0.211426
        7.359200           0.049957           0.415276           0.696699E-3       -0.211147
        7.369212           0.050665           0.435386           0.698153E-3       -0.210868
        7.379224           0.051416           0.455779           0.699611E-3       -0.210588
        7.389236           0.052212           0.476459           0.701071E-3       -0.210308
        7.399250           0.053046           0.497436           0.702534E-3       -0.210026
        7.409262           0.053902           0.518738           0.703999E-3       -0.209745
        7.419275           0.054798           0.540410           0.705467E-3       -0.209463
        7.429287           0.055757           0.562465           0.706939E-3       -0.209180
        7.439299           0.056797           0.584919           0.708412E-3       -0.208896
        7.449312           0.057929           0.607790           0.709888E-3       -0.208612
        7.459324           0.059174           0.631090           0.711367E-3       -0.208328
        7.469337           0.060545           0.654821           0.712849E-3       -0.208043
        7.479349           0.062010           0.678974           0.714334E-3       -0.207757
        7.489362           0.063499           0.703646           0.715821E-3       -0.207470
        7.499374           0.065070           0.728997           0.717312E-3       -0.207183
        7.509387           0.066854           0.755094           0.718805E-3       -0.206896
        7.519399           0.068929           0.781966           0.720300E-3       -0.206608
        7.529412           0.071366           0.809683           0.721799E-3       -0.206319
        7.539424           0.074268           0.838351           0.723300E-3       -0.206029
        7.549438           0.077798           0.868116           0.724804E-3       -0.205739
        7.559450           0.082209           0.899154           0.726311E-3       -0.205449
        7.569462           0.087907           0.931689           0.727821E-3       -0.205158
        7.579474           0.095563           0.965968           0.729333E-3       -0.204866
        7.589487           0.106316           1.002184           0.730849E-3       -0.204573
        7.599500           0.122159           1.040230           0.732368E-3       -0.204280
        7.609512           0.146526           1.078783           0.733889E-3       -0.203987
        7.619525           0.184510           1.112645           0.735413E-3       -0.203693
        7.629537           0.238430           1.126870           0.736940E-3       -0.203398
        7.639550           0.287992           1.098840           0.738470E-3       -0.203102
        7.649562           0.285369           1.044684           0.740003E-3       -0.202806
        7.659575           0.235733           1.023946           0.741539E-3       -0.202510
        7.669587           0.186544           1.044484           0.743078E-3       -0.202212
        7.679600           0.153655           1.083231           0.744620E-3       -0.201914
        7.689612           0.133713           1.126839           0.746165E-3       -0.201616
        7.699625           0.121778           1.170872           0.747712E-3       -0.201317
        7.709637           0.114640           1.214274           0.749263E-3       -0.201017
        7.719649           0.110450           1.257006           0.750817E-3       -0.200717
        7.729662           0.108148           1.299303           0.752373E-3       -0.200416
        7.739675           0.107112           1.341417           0.753933E-3       -0.200114
        7.749688           0.106963           1.383590           0.755496E-3       -0.199812
        7.759700           0.107465           1.426015           0.757062E-3       -0.199509
        7.769712           0.108464           1.468858           0.758631E-3       -0.199205
        7.779725           0.109860           1.512256           0.760202E-3       -0.198901
        7.789738           0.111584           1.556333           0.761777E-3       -0.198596
        7.799750           0.113591           1.601188           0.763355E-3       -0.198291
        7.809763           0.115850           1.646923           0.764937E-3       -0.197985
        7.819775           0.118340           1.693623           0.766520E-3       -0.197678
        7.829787           0.121048           1.741371           0.768108E-3       -0.197371
        7.839800           0.123967           1.790256           0.769698E-3       -0.197063
        7.849812           0.127094           1.840349           0.771292E-3       -0.196754
        7.859825           0.130428           1.891740           0.772889E-3       -0.196445
        7.869837           0.133973           1.944499           0.774488E-3       -0.196135
        7.879850           0.137733           1.998721           0.776091E-3       -0.195825
        7.889863           0.141715           2.054482           0.777698E-3       -0.195514
        7.899875           0.145929           2.111878           0.779307E-3       -0.195202
        7.909887           0.150386           2.171000           0.780920E-3       -0.194889
        7.919900           0.155097           2.231947           0.782536E-3       -0.194576
        7.929913           0.160078           2.294820           0.784154E-3       -0.194263
        7.939926           0.165344           2.359729           0.785777E-3       -0.193948
        7.949938           0.170914           2.426793           0.787402E-3       -0.193633
        7.959950           0.176808           2.496134           0.789031E-3       -0.193318
        7.969963           0.183047           2.567886           0.790663E-3       -0.193001
        7.979975           0.189656           2.642182           0.792298E-3       -0.192684
        7.989988           0.196664           2.719188           0.793937E-3       -0.192367
        8.000000           0.204100           2.799054           0.795578E-3       -0.192048
# 
# 09/18/2024 at 16:32 yambo @ baym [start]
# 09/18/2024 at 16:32              [end]
#
# .-Input file  yambo.in
# | optics                           # [R] Linear Response optical properties
# | bss                              # [R] BSE solver
# | bse                              # [R][BSE] Bethe Salpeter Equation.
# | BoseTemp= 0.000000         eV    # Bosonic Temperature
# | FFTGvecs=  3473            RL    # [FFT] Plane-waves
# | BS_nCPU_LinAlg_INV= 1            # [PARALLEL] CPUs for Linear Algebra (if -1 it is automatically set)
# | BS_nCPU_LinAlg_DIAGO= 1          # [PARALLEL] CPUs for Linear Algebra (if -1 it is automatically set)
# | BSKmod= "HF"                     # [BSE] IP/Hartree/HF/ALDA/SEX/BSfxc
# | BSEmod= "retarded"               # [BSE] resonant/retarded/coupling
# | BSSmod= "d"                      # [BSS] (h)aydock/(d)iagonalization/(s)lepc/(i)nversion/(t)ddft`
# | DipComputed= "R V P"             # [DIP] [default R P V; extra P2 Spin Orb]
# | BSENGexx=  51              RL    # [BSK] Exchange components
# | BSENGBlk=  51              RL    # [BSK] Screened interaction block size [if -1 uses all the G-vectors of W(q,G,Gp)]
# | % KfnQP_E
# |  6.500000 | 1.000000 | 1.000000 |        # [EXTQP BSK BSS] E parameters  (c/v) eV|adim|adim
# | %
# | % BSEQptR
# |  1 | 1 |                             # [BSK] Transferred momenta range
# | %
# | % BSEBands
# |   5 | 10 |                           # [BSK] Bands range
# | %
# | % BEnRange
# |  0.000000 | 8.000000 |         eV    # [BSS] Energy range
# | %
# | % BDmRange
# |  0.025000 | 0.025000 |         eV    # [BSS] Damping range
# | %
# | BEnSteps=  800                   # [BSS] Energy steps
# | % BLongDir
# |  0.577350E-5 | 0.577350E-5 | 0.577350E-5 # [BSS] [cc] Electric Field
# | %
# | BSEprop= "abs jdos"              # [BSS] Can be any among abs/jdos/kerr/magn/dich/photolum/esrt
# | BSEdips= "none"                  # [BSS] Can be "trace/none" or "xy/xz/yz" to define off-diagonal rotation plane
# | #WRbsWF                        # [BSS] Write to disk excitonic the WFs
