#                                                                     
#   __   __     _        __  __       ____      U  ___  u             
#   \ \ / / U  /"\  U u |" \/ "| u U | __") u    \/"_ \/              
#    \ V /   \/ _ \/   \| |\/| |/   \|  _ \/     | | | |              
#   U_|"|_u  / ___ \    | |  | |     | |_) | .-,_| |_| |              
#     |_|   /_/   \_\   |_|  |_|     |____/   \_)-\___/               
# .-,//|(_   \\    >>  <<,-,,-.     _|| \\_        \\                 
#  \_) (__) (__)  (__)  (./  \.)   (__) (__)      (__)                
#                                                                     
#                                                                     
# Version 5.2.0 Revision 23130 Hash (prev commit) 3b61fa0e1           
#            Branch is phys-levels_degeneracy                         
#               MPI+SLK+SLEPC+HDF5_IO Build                           
#                http://www.yambo-code.eu                             
#
# Joint Density of states @ Q(1):  0.577350259     0.577350259     0.577350259    [q->0 direction]
#
# [GEN] GF Energies                               : Teter 93(XC)
# [GEN] Green`s Function                          : Retarded
#
# [GEN] Gauge                                     : Length
# [GEN] [r,Vnl] included                          : yes
#
# DIP band range                                  :   5  10
# DIP band range limits                           :   8   9
# DIP e/h energy range                            :  -1.00000000     -1.00000000    [eV]
# RL vectors in the sum                           :   3473
# [r,Vnl] included                                : yes
# Bands ordered                                   : yes
# Direct v evaluation                             : no
# Approach used                                   : G-space v
# Dipoles computed                                : R V P
# Wavefunctions                                   : Teter 93(XC)
#
#
# [K] Identifier                                  :   4797
# [K] Dimension                                   :   64
# [K] Bands                                       :   5  10
# [K] Exchange                                    : yes [res]
# [K] Correlation                                 : no [res]
# [K] Kernel`s coupling                           : no
# [K] Exchange                                    : no [cpl]
# [K] Correlation                                 : no [cpl]
# [K] W interaction is bare                       : no
# [K] ALDA kernel in R-space                      : yes
# [K] RL vectors                                  :   51 [exchange]
# [K] E/h energy range                            :  -1.00000000     -1.00000000    [eV]
# [K] Coupling range                              :   100.000000      100.000000    [o/o]
# [K] Kernel long-range exchange                  : BAR
#
#
#    E[1] [eV]          Im(jdos)           Re(jdos)           Im(jdos_o)         Re(jdos_o)
#
        4.000000           2.010294           19.26450           2.956014           21.39695
        4.010025           2.367075           20.05958           3.614198           22.52396
        4.020050           2.830596           20.98377           4.518477           23.85996
        4.030076           3.446816           22.06836           5.801034           25.45087
        4.040100           4.288137           23.35229           7.686927           27.33361
        4.050125           5.472899           24.88088           10.56958           29.48421
        4.060150           7.201095           26.69516           15.12853           31.64369
        4.070176           9.820776           28.79216           22.37692           32.79082
        4.080201           13.93788           30.98938           32.80973           29.97802
        4.090226           20.50470           32.50356           42.48130           18.66278
        4.100251           30.30253           30.91826           41.83007           1.870867
        4.110276           40.81401           21.71010           31.67159          -8.486146
        4.120301           42.99415           5.241920           21.50695          -10.68697
        4.130326           34.18233          -7.156417           14.58032          -9.343652
        4.140351           23.52352          -10.82787           10.23490          -7.152496
        4.150376           15.87715          -9.980268           7.481043          -5.016006
        4.160401           11.04316          -7.871586           5.673649          -3.154320
        4.170426           7.996737          -5.696104           4.441038          -1.580656
        4.180451           6.014648          -3.771576           3.570129          -0.255789
        4.190476           4.674586          -2.139077           2.935431           0.865918
        4.200501           3.734996          -0.765366           2.460303           1.824493
        4.210526           3.054758           0.395271           2.096396           2.652078
        4.220551           2.548454           1.384378           1.812121           3.373966
        4.230577           2.162541           2.235856           1.586239           4.009888
        4.240602           1.862309           2.976421           1.404080           4.575285
        4.250627           1.624582           3.626935           1.255279           5.082327
        4.260652           1.433450           4.203679           1.132358           5.540663
        4.270677           1.277706           4.719530           1.029801           5.958084
        4.280702           1.149317           5.184635           0.943494           6.340848
        4.290727           1.042392           5.607132           0.870308           6.694081
        4.300752           0.952539           5.993591           0.807836           7.021998
        4.310777           0.876435           6.349376           0.754198           7.328116
        4.320802           0.811525           6.678883           0.707914           7.615369
        4.330827           0.755827           6.985773           0.667804           7.886231
        4.340852           0.707780           7.273080           0.632920           8.142797
        4.350877           0.666140           7.543400           0.602490           8.386896
        4.360902           0.629912           7.798892           0.575887           8.620060
        4.370927           0.598292           8.041424           0.552591           8.843632
        4.380952           0.570619           8.272591           0.532175           9.058778
        4.390977           0.546353           8.493777           0.514279           9.266532
        4.401003           0.525046           8.706184           0.498604           9.467797
        4.411027           0.506325           8.910855           0.484898           9.663374
        4.421052           0.489876           9.108739           0.472944           9.853975
        4.431077           0.475439           9.300634           0.462563           10.04025
        4.441103           0.462788           9.487280           0.453600           10.22277
        4.451128           0.451736           9.669327           0.445922           10.40206
        4.461153           0.442123           9.847357           0.439416           10.57860
        4.471178           0.433809           10.02191           0.433985           10.75282
        4.481203           0.426678           10.19346           0.429547           10.92513
        4.491228           0.420629           10.36244           0.426028           11.09590
        4.501253           0.415574           10.52926           0.423368           11.26548
        4.511278           0.411439           10.69432           0.421516           11.43420
        4.521303           0.408160           10.85793           0.420427           11.60237
        4.531328           0.405681           11.02043           0.420062           11.77028
        4.541354           0.403957           11.18213           0.420393           11.93820
        4.551379           0.402947           11.34331           0.421390           12.10641
        4.561403           0.402617           11.50425           0.423036           12.27516
        4.571428           0.402940           11.66521           0.425312           12.44471
        4.581454           0.403893           11.82644           0.428208           12.61531
        4.591479           0.405457           11.98819           0.431714           12.78720
        4.601504           0.407617           12.15070           0.435827           12.96062
        4.611529           0.410365           12.31420           0.440545           13.13581
        4.621554           0.413692           12.47894           0.445872           13.31301
        4.631579           0.417595           12.64511           0.451812           13.49246
        4.641604           0.422076           12.81295           0.458375           13.67441
        4.651629           0.427136           12.98272           0.465573           13.85911
        4.661654           0.432782           13.15462           0.473421           14.04680
        4.671679           0.439024           13.32890           0.481940           14.23777
        4.681705           0.445875           13.50579           0.491150           14.43226
        4.691730           0.453351           13.68554           0.501079           14.63057
        4.701755           0.461470           13.86840           0.511756           14.83298
        4.711779           0.470255           14.05462           0.523215           15.03981
        4.721805           0.479732           14.24448           0.535496           15.25134
        4.731830           0.489933           14.43826           0.548641           15.46794
        4.741855           0.500891           14.63625           0.562698           15.68996
        4.751880           0.512645           14.83876           0.577722           15.91775
        4.761905           0.525237           15.04611           0.593773           16.15172
        4.771930           0.538717           15.25864           0.610918           16.39229
        4.781955           0.553140           15.47671           0.629230           16.63988
        4.791980           0.568563           15.70071           0.648793           16.89500
        4.802005           0.585057           15.93106           0.669699           17.15816
        4.812030           0.602697           16.16818           0.692051           17.42989
        4.822055           0.621566           16.41254           0.715961           17.71079
        4.832080           0.641757           16.66465           0.741558           18.00150
        4.842105           0.663376           16.92504           0.768983           18.30272
        4.852130           0.686537           17.19430           0.798394           18.61517
        4.862155           0.711375           17.47307           0.829973           18.93970
        4.872180           0.738033           17.76203           0.863918           19.27717
        4.882205           0.766678           18.06192           0.900455           19.62857
        4.892231           0.797495           18.37357           0.939839           19.99497
        4.902256           0.830693           18.69785           0.982358           20.37751
        4.912281           0.866510           19.03576           1.028339           20.77751
        4.922306           0.905215           19.38836           1.078156           21.19634
        4.932331           0.947114           19.75683           1.132236           21.63563
        4.942356           0.992557           20.14247           1.191063           22.09706
        4.952381           1.041950           20.54678           1.255206           22.58265
        4.962406           1.095752           20.97132           1.325312           23.09455
        4.972431           1.154499           21.41795           1.402137           23.63518
        4.982456           1.218814           21.88864           1.486559           24.20732
        4.992481           1.289419           22.38571           1.579610           24.81407
        5.002506           1.367160           22.91170           1.682500           25.45892
        5.012531           1.453046           23.46957           1.796675           26.14594
        5.022556           1.548259           24.06260           1.923844           26.87972
        5.032581           1.654218           24.69462           2.066060           27.66550
        5.042606           1.772618           25.36997           2.225802           28.50945
        5.052632           1.905520           26.09372           2.406085           29.41864
        5.062657           2.055426           26.87172           2.610604           30.40136
        5.072682           2.225416           27.71085           2.843928           31.46735
        5.082707           2.419317           28.61913           3.111762           32.62815
        5.092732           2.641904           29.60612           3.421279           33.89747
        5.102757           2.899266           30.68327           3.781676           35.29188
        5.112782           3.199176           31.86426           4.204773           36.83132
        5.122807           3.551749           33.16565           4.706052           38.54009
        5.132832           3.970324           34.60778           5.306070           40.44815
        5.142858           4.472783           36.21568           6.032577           42.59273
        5.152882           5.083528           38.02043           6.923685           45.02025
        5.162907           5.836652           40.06131           8.033003           47.78986
        5.172932           6.780702           42.38778           9.437372           50.97647
        5.182957           7.986782           45.06274           11.25005           54.67603
        5.192983           9.562108           48.16604           13.64277           59.01094
        5.203008           11.67367           51.79694           16.88436           64.13454
        5.213033           14.59090           56.07179           21.41060           70.22818
        5.223058           18.76422           61.10205           27.95344           77.46954
        5.233083           24.96743           66.90716           37.78103           85.90485
        5.243108           34.52164           73.11721           53.10908           95.00877
        5.253133           49.41061           78.07893           77.54581           102.2890
        5.263158           70.92921           76.95417           114.8595           99.59253
        5.273183           93.83193           62.25632           158.8757           69.39595
        5.283208           104.8711           36.41646           176.0663           5.886371
        5.293233           103.5339           12.95492           145.8459          -48.98209
        5.303258           96.89503          -7.965697           102.3708          -67.69749
        5.313283           81.25246          -25.38620           70.09470          -65.16415
        5.323308           60.97245          -31.26990           49.89652          -56.06598
        5.333333           45.11766          -27.63408           37.69943          -46.08588
        5.343359           35.62313          -20.39740           30.50511          -36.77132
        5.353384           31.19964          -12.60922           26.69061          -28.34225
        5.363409           30.84044          -5.541647           25.59345          -20.71093
        5.373434           33.98794          -0.482044           27.27773          -13.95154
        5.383459           38.99369           1.004380           32.38631          -8.908222
        5.393484           43.44876          -0.161169           41.19258          -8.374962
        5.403509           48.84735          -2.889418           49.63986          -16.78854
        5.413534           54.52506          -11.60042           48.06564          -31.10399
        5.423559           51.96817          -25.51378           37.13555          -39.33530
        5.433584           40.50745          -33.89051           26.31083          -39.64335
        5.443609           29.00621          -34.17455           18.83750          -36.59666
        5.453634           21.06314          -30.78395           14.04008          -32.86997
        5.463659           16.08583          -26.56415           10.90975          -29.34420
        5.473684           13.03121          -22.47053           8.785857          -26.21904
        5.483709           11.23459          -18.71062           7.285079          -23.48979
        5.493734           10.37102          -15.27356           6.185572          -21.10202
        5.503759           10.36388          -12.13084           5.355120          -18.99719
        5.513784           11.34677          -9.382541           4.711943          -17.12438
        5.523810           13.56860          -7.536479           4.203577          -15.44201
        5.533835           16.72531          -7.892294           3.795204          -13.91665
        5.543859           18.37310          -11.37540           3.463057          -12.52151
        5.553885           16.06533          -15.05431           3.190431          -11.23472
        5.563910           12.10461          -15.89508           2.965414          -10.03850
        5.573935           8.951748          -14.77355           2.779332          -8.918031
        5.583960           6.883110          -13.03939           2.625811          -7.860743
        5.593985           5.556106          -11.25983           2.500179          -6.855890
        5.604010           4.683508          -9.593110           2.399014          -5.893908
        5.614035           4.092440          -8.061137           2.319913          -4.966315
        5.624060           3.684178          -6.647420           2.261301          -4.065274
        5.634085           3.402073          -5.327430           2.222334          -3.183369
        5.644110           3.213347          -4.077025           2.202861          -2.313361
        5.654136           3.099444          -2.874113           2.203442          -1.448001
        5.664161           3.051126          -1.698332           2.225428          -0.579724
        5.674186           3.066174          -0.530158           2.271103           0.299556
        5.684210           3.148838           0.650078           2.343937           1.198748
        5.694235           3.310830           1.863480           2.448985           2.128169
        5.704261           3.574102           3.133151           2.593463           3.099721
        5.714286           3.976641           4.484659           2.787699           4.127769
        5.724311           4.583572           5.943824           3.046629           5.229906
        5.734335           5.507862           7.526378           3.392164           6.427920
        5.744361           6.946131           9.201527           3.857288           7.749394
        5.754386           9.216651           10.77391           4.492853           9.228705
        5.764411           12.65476           11.57329           5.379879           10.90797
        5.774436           16.75703           10.15598           6.651946           12.83421
        5.784461           18.76191           6.118788           8.536857           15.04491
        5.794487           17.13497           3.032829           11.43286           17.51449
        5.804512           14.94446           3.134710           16.02739           19.97567
        5.814537           14.51146           5.099919           23.33802           21.37981
        5.824562           16.43742           7.404751           33.81772           18.72283
        5.834587           21.05866           8.497857           43.35769           7.492600
        5.844612           27.71242           5.613881           42.41108          -8.982181
        5.854637           31.60256          -3.339643           32.15841          -18.82770
        5.864662           27.57514          -12.81479           22.05962          -20.60341
        5.874687           19.96612          -16.52761           15.20937          -18.92322
        5.884712           13.85097          -16.08245           10.91924          -16.42726
        5.894737           9.879650          -14.24641           8.205536          -13.99136
        5.904762           7.375980          -12.21486           6.431341          -11.82628
        5.914787           5.758582          -10.33657           5.230134          -9.941412
        5.924812           4.675714          -8.674749           4.391981          -8.295292
        5.934837           3.925950          -7.211794           3.793491          -6.840306
        5.944862           3.392453          -5.912882           3.359748          -5.534440
        5.954887           3.005343          -4.744096           3.043908          -4.343030
        5.964912           2.721447          -3.676632           2.816003          -3.237930
        5.974937           2.513334          -2.686882           2.656652          -2.195979
        5.984963           2.363218          -1.755518           2.553441          -1.197624
        5.994987           2.259504          -0.866423           2.498842          -0.225815
        6.005013           2.194744          -0.005693           2.489022           0.735158
        6.015038           2.164475           0.838978           2.523271           1.700309
        6.025063           2.166529           1.679052           2.603897           2.684904
        6.035088           2.200715           2.525688           2.736566           3.705176
        6.045113           2.268754           3.390389           2.931138           4.779501
        6.055138           2.374457           4.285369           3.203295           5.929048
        6.065163           2.524184           5.224321           3.577323           7.179269
        6.075188           2.727683           6.223104           4.091032           8.561121
        6.085213           2.999505           7.300658           4.804463           10.11197
        6.095238           3.361366           8.480116           5.815674           11.87433
        6.105263           3.846132           9.790112           7.290093           13.88687
        6.115288           4.504719           11.26606           9.513750           16.14932
        6.125314           5.418418           12.95042           12.97670           18.50395
        6.135339           6.721457           14.88883           18.40668           20.27460
        6.145363           8.642514           17.11150           26.18000           19.48203
        6.155388           11.57736           19.56714           33.67343           13.14944
        6.165414           16.17591           21.90743           34.76139           3.529306
        6.175439           23.20238           22.90200           30.68837          -1.595666
        6.185463           32.05341           19.72909           28.40043          -1.845677
        6.195488           37.77517           10.92918           30.44806          -1.967153
        6.205513           36.87373           2.718927           34.54900          -6.783331
        6.215539           35.34149          -0.849837           33.83563          -16.37427
        6.225564           37.07841          -4.729968           26.49537          -23.06504
        6.235589           37.49670          -13.34190           18.59228          -24.13719
        6.245614           31.17767          -21.79278           13.00284          -22.50809
        6.255639           22.33745          -24.47624           9.418495          -20.24677
        6.265665           15.52632          -23.30969           7.103940          -18.07538
        6.275690           11.08790          -20.98447           5.555563          -16.16766
        6.285715           8.240441          -18.61179           4.478407          -14.52908
        6.295739           6.359025          -16.49604           3.701688          -13.12314
        6.305765           5.066953          -14.67606           3.123808          -11.90876
        6.315790           4.146441          -13.11934           2.682299          -10.85024
        6.325814           3.469145          -11.78108           2.337237          -9.918695
        6.335839           2.956779          -10.62038           2.062247          -9.091146
        6.345864           2.559951          -9.603831           1.839416          -8.349610
        6.355890           2.246352          -8.704858           1.656218          -7.679822
        6.365915           1.994197          -7.902562           1.503689          -7.070404
        6.375940           1.788397          -7.180448           1.375283          -6.512238
        6.385965           1.618236          -6.525437           1.266125          -5.997897
        6.395990           1.475939          -5.927042           1.172524          -5.521330
        6.406015           1.355758          -5.376809           1.091648          -5.077528
        6.416040           1.253370          -4.867820           1.021289          -4.662308
        6.426065           1.165467          -4.394400           0.959706          -4.272173
        6.436090           1.089496          -3.951830           0.905514          -3.904145
        6.446115           1.023452          -3.536164           0.857597          -3.555724
        6.456141           0.965743          -3.144047           0.815043          -3.224705
        6.466166           0.915096          -2.772641           0.777113          -2.909230
        6.476190           0.870489          -2.419538           0.743194          -2.607682
        6.486216           0.831079          -2.082597           0.712773          -2.318618
        6.496241           0.796184          -1.760009           0.685427          -2.040792
        6.506266           0.765238          -1.450170           0.660797          -1.773098
        6.516291           0.737772          -1.151671           0.638580          -1.514552
        6.526316           0.713397          -0.863250           0.618517          -1.264278
        6.536341           0.691787          -0.583792           0.600391          -1.021483
        6.546366           0.672671          -0.312280           0.584013          -0.785454
        6.556391           0.655821          -0.047803           0.569223          -0.555545
        6.566416           0.641050           0.210490           0.555884          -0.331164
        6.576441           0.628202           0.463365           0.543874          -0.111770
        6.586466           0.617149           0.711536           0.533094           0.103128
        6.596491           0.607788           0.955705           0.523454           0.314012
        6.606516           0.600042           1.196502           0.514880           0.521304
        6.616541           0.593852           1.434547           0.507308           0.725410
        6.626566           0.589182           1.670429           0.500684           0.926705
        6.636591           0.586011           1.904756           0.494964           1.125569
        6.646616           0.584343           2.138103           0.490108           1.322339
        6.656641           0.584200           2.371055           0.486088           1.517356
        6.666667           0.585625           2.604216           0.482882           1.710940
        6.676692           0.588687           2.838207           0.480472           1.903409
        6.686717           0.593481           3.073675           0.478850           2.095076
        6.696742           0.600134           3.311311           0.478012           2.286245
        6.706767           0.608809           3.551857           0.477960           2.477236
        6.716792           0.619717           3.796122           0.478705           2.668355
        6.726818           0.633121           4.045001           0.480261           2.859914
        6.736842           0.649354           4.299476           0.482651           3.052235
        6.746867           0.668839           4.560707           0.485906           3.245672
        6.756892           0.692110           4.829975           0.490063           3.440548
        6.766917           0.719851           5.108780           0.495171           3.637244
        6.776942           0.752939           5.398878           0.501284           3.836126
        6.786967           0.792522           5.702379           0.508472           4.037616
        6.796992           0.840113           6.021788           0.516816           4.242150
        6.807017           0.897734           6.360157           0.526411           4.450178
        6.817043           0.968142           6.721247           0.537369           4.662226
        6.827068           1.055160           7.109726           0.549824           4.878849
        6.837093           1.164211           7.531462           0.563931           5.100645
        6.847118           1.303175           7.993879           0.579873           5.328294
        6.857143           1.483817           8.506411           0.597867           5.562539
        6.867168           1.724258           9.080944           0.618171           5.804217
        6.877193           2.053354           9.731972           0.641091           6.054264
        6.887218           2.518743           10.47546           0.666991           6.313752
        6.897243           3.201825           11.32316           0.696312           6.583895
        6.907269           4.244920           12.26185           0.729582           6.866068
        6.917294           5.891750           13.18503           0.767447           7.161881
        6.927318           8.487576           13.69011           0.810692           7.473152
        6.937343           12.09815           12.67436           0.860299           7.802109
        6.947368           15.05686           8.717610           0.917475           8.151273
        6.957394           14.26996           3.470536           0.983747           8.523676
        6.967419           10.76114           0.753309           1.061046           8.922905
        6.977444           7.564269           0.575944           1.151859           9.353313
        6.987469           5.461296           1.419737           1.259417           9.820184
        6.997494           4.178531           2.502413           1.387980           10.32997
        7.007519           3.402651           3.577034           1.543254           10.89065
        7.017544           2.938111           4.591400           1.733013           11.51218
        7.027569           2.675775           5.552150           1.968047           12.20710
        7.037593           2.557163           6.481569           2.263627           12.99127
        7.047619           2.553639           7.405612           2.642042           13.88517
        7.057644           2.656321           8.350838           3.136434           14.91479
        7.067669           2.872395           9.345165           3.797790           16.11328
        7.077694           3.226291           10.41899           4.707152           17.52148
        7.087719           3.765948           11.60608           5.997886           19.18529
        7.097744           4.576733           12.94208           7.897293           21.14132
        7.107769           5.808878           14.45499           10.80259           23.36353
        7.117795           7.728335           16.12874           15.39950           25.58584
        7.127820           10.79600           17.78188           22.70462           26.76501
        7.137845           15.69128           18.70100           33.18068           23.90903
        7.147870           22.69137           16.85313           42.75560           12.49777
        7.157895           28.96639           9.249595           41.87815          -4.209777
        7.167920           28.16445          -1.725337           31.64694          -14.32965
        7.177945           21.26982          -8.181312           21.53196          -16.36008
        7.187970           14.56219          -9.310115           14.66122          -14.91574
        7.197996           10.02332          -8.187182           10.35282          -12.65017
        7.208021           7.177531          -6.542648           7.621737          -10.44622
        7.218045           5.372375          -4.947453           5.828880          -8.517871
        7.228070           4.186637          -3.537736           4.606019          -6.876159
        7.238095           3.378304          -2.319110           3.742259          -5.481643
        7.248120           2.808419          -1.264246           3.113194          -4.288609
        7.258145           2.395047          -0.342126           2.642904          -3.257164
        7.268170           2.088164           0.474313           2.283382          -2.355154
        7.278195           1.856166           1.207002           2.003276          -1.557314
        7.288221           1.678460           1.873335           1.781506          -0.843902
        7.298246           1.541264           2.487075           1.603514          -0.199436
        7.308271           1.435145           3.059245           1.459005           0.388306
        7.318296           1.353559           3.598771           1.340561           0.929073
        7.328321           1.291923           4.113053           1.242723           1.430706
        7.338346           1.247050           4.608319           1.161422           1.899560
        7.348371           1.216780           5.090110           1.093555           2.340956
        7.358396           1.199773           5.563305           1.036758           2.759211
        7.368421           1.195372           6.032503           0.989196           3.157984
        7.378446           1.203557           6.502178           0.949421           3.540380
        7.388471           1.224969           6.976868           0.916298           3.909057
        7.398496           1.261007           7.461383           0.888922           4.266315
        7.408521           1.314033           7.961037           0.866575           4.614170
        7.418546           1.387709           8.481915           0.848680           4.954412
        7.428572           1.487584           9.031203           0.834778           5.288630
        7.438597           1.622052           9.617632           0.824505           5.618293
        7.448622           1.803997           10.25191           0.817577           5.944725
        7.458647           2.053667           10.94721           0.813778           6.269166
        7.468672           2.403831           11.71905           0.812945           6.592798
        7.478697           2.909336           12.58348           0.814972           6.916750
        7.488722           3.664873           13.54871           0.819795           7.242101
        7.498747           4.836382           14.58607           0.827396           7.569948
        7.508772           6.701207           15.53603           0.837798           7.901370
        7.518797           9.599519           15.84542           0.851064           8.237451
        7.528823           13.30419           14.18151           0.867303           8.579337
        7.538847           15.44478           9.551832           0.886669           8.928193
        7.548872           13.55247           4.803424           0.909364           9.285292
        7.558897           9.895038           3.001356           0.935650           9.651970
        7.568923           6.980360           3.287335           0.965856           10.02965
        7.578948           5.114945           4.286736           1.000376           10.41992
        7.588973           3.964799           5.411125           1.039706           10.82451
        7.598998           3.246249           6.488643           1.084444           11.24538
        7.609022           2.788790           7.487766           1.135318           11.68468
        7.619047           2.495486           8.417418           1.193236           12.14494
        7.629072           2.310935           9.295346           1.259295           12.62898
        7.639097           2.202759           10.13956           1.334865           13.14009
        7.649123           2.151823           10.96624           1.421650           13.68203
        7.659148           2.146995           11.78977           1.521799           14.25932
        7.669173           2.182323           12.62327           1.638032           14.87724
        7.679198           2.255540           13.47933           1.773866           15.54214
        7.689223           2.367367           14.37064           1.933861           16.26165
        7.699248           2.521357           15.31069           2.124066           17.04505
        7.709273           2.724170           16.31457           2.352600           17.90381
        7.719298           2.986383           17.39971           2.630581           18.85215
        7.729323           3.323924           18.58702           2.973558           19.90785
        7.739348           3.760605           19.90209           3.403797           21.09340
        7.749374           4.332372           21.37668           3.954024           22.43738
        7.759399           5.094718           23.05031           4.673812           23.97579
        7.769424           6.135854           24.97089           5.640797           25.75345
        7.779449           7.600823           27.19171           6.980951           27.82229
        7.789474           9.736333           29.75486           8.906233           30.23046
        7.799499           12.97181           32.63034           11.78383           32.98023
        7.809525           18.03990           35.51438           16.24976           35.88403
        7.819550           25.97698           37.23205           23.29249           38.11833
        7.829575           36.99817           34.56075           33.66792           37.14775
        7.839599           46.30439           23.36878           44.54457           28.38728
        7.849624           44.92458           8.287261           46.59536           12.87046
        7.859649           35.48481           0.539071           38.14459           2.425855
        7.869674           27.07076           0.668188           28.81923           0.904931
        7.879699           22.52936           4.238643           23.20180           3.891141
        7.889725           21.55215           8.758546           21.28041           8.275903
        7.899750           23.93688           13.07227           22.67461           12.74528
        7.909774           30.09593           15.68493           27.67230           16.11855
        7.919799           39.66181           13.15839           36.53193           15.68053
        7.929824           47.03041           1.645581           45.80694           6.853724
        7.939849           43.42101          -13.22058           45.86818          -8.652904
        7.949874           32.38184          -20.67644           35.74221          -18.89286
        7.959899           22.47869          -20.98055           24.93667          -20.74479
        7.969924           15.84754          -18.50296           17.39699          -18.71880
        7.979950           11.64982          -15.49414           12.61422          -15.75334
        7.989975           8.944208          -12.66578           9.558781          -12.85892
        8.000000           7.135783          -10.17075           7.538661          -10.28317
# 
# 09/18/2024 at 16:32 yambo @ baym [start]
# 09/18/2024 at 16:32              [end]
#
# .-Input file  yambo.in
# | optics                           # [R] Linear Response optical properties
# | bss                              # [R] BSE solver
# | bse                              # [R][BSE] Bethe Salpeter Equation.
# | BoseTemp= 0.000000         eV    # Bosonic Temperature
# | FFTGvecs=  3473            RL    # [FFT] Plane-waves
# | BS_nCPU_LinAlg_INV= 1            # [PARALLEL] CPUs for Linear Algebra (if -1 it is automatically set)
# | BS_nCPU_LinAlg_DIAGO= 1          # [PARALLEL] CPUs for Linear Algebra (if -1 it is automatically set)
# | BSKmod= "ALDA"                   # [BSE] IP/Hartree/HF/ALDA/SEX/BSfxc
# | BSEmod= "retarded"               # [BSE] resonant/retarded/coupling
# | BSSmod= "d"                      # [BSS] (h)aydock/(d)iagonalization/(s)lepc/(i)nversion/(t)ddft`
# | DipComputed= "R V P"             # [DIP] [default R P V; extra P2 Spin Orb]
# | BSENGexx=  51              RL    # [BSK] Exchange components
# | % BSEQptR
# |  1 | 1 |                             # [BSK] Transferred momenta range
# | %
# | % BSEBands
# |   5 | 10 |                           # [BSK] Bands range
# | %
# | % BEnRange
# |  4.000000 | 8.000000 |         eV    # [BSS] Energy range
# | %
# | % BDmRange
# |  0.025000 | 0.025000 |         eV    # [BSS] Damping range
# | %
# | BEnSteps=  400                   # [BSS] Energy steps
# | % BLongDir
# |  0.577350E-5 | 0.577350E-5 | 0.577350E-5 # [BSS] [cc] Electric Field
# | %
# | BSEprop= "abs jdos"              # [BSS] Can be any among abs/jdos/kerr/magn/dich/photolum/esrt
# | BSEdips= "none"                  # [BSS] Can be "trace/none" or "xy/xz/yz" to define off-diagonal rotation plane
# | #WRbsWF                        # [BSS] Write to disk excitonic the WFs
