#                                                           
#  __  __   ________   ___ __ __    _______   ______        
# /_/\/_/\ /_______/\ /__//_//_/\ /_______/\ /_____/\       
# \ \ \ \ \\::: _  \ \\::\| \| \ \\::: _  \ \\:::_ \ \      
#  \:\_\ \ \\::(_)  \ \\:.      \ \\::(_)  \/_\:\ \ \ \     
#   \::::_\/ \:: __  \ \\:.\-/\  \ \\::  _  \ \\:\ \ \ \    
#     \::\ \  \:.\ \  \ \\. \  \  \ \\::(_)  \ \\:\_\ \ \   
#      \__\/   \__\/\__\/ \__\/ \__\/ \_______\/ \_____\/   
#                                                           
#                                                           
#        Version 4.3.0 Revision 15314 Hash d80f847          
#                      MPI+SLK Build                        
#                http://www.yambo-code.org                  
#
# EELS @ Q(1)  [q->0 direction]: 0.577350  0.577350  0.577350
#
#
# - Energies      are  E < 03_QP/ndb.QP + E Fit
# - Wavefunctions are Teter 93(XC)
#
# - The Green`s function is Retarded -
# - Using the Velocity Gauge -
# - [r,Vnl] *is* included -
#
#   BSK|Identifier              :5318
#      |Dimension               :32
#      |Bands                   :7 - 10
#      |Exchange           [res]: yes
#      |Correlation        [res]: yes
#      |Kernel`s coupling       : no
#      |Exchange           [cpl]: no
#      |Correlation        [cpl]: no
#      |W interaction is bare   : no
#      |ALDA kernel in R-space  : no
#      |RL vectors    [exchange]:51
#      |RL vectors [correlation]:51
#      |E/h energy range    [ev]:-1.000000 - -1.000000
#      |Coupling range     [o/o]: 100.0000 -  100.0000
#    W |Interaction is diagonal : no
#      |Matrix size             :51
#      |Bands                   :1 - 60
#      |e/h energy range    [ev]:-1.000000 - -1.000000
#      |Poles              [o/o]: 100.0000
#      |RL vectors in the sum   :3473
#      |[r,Vnl] included        : yes
#      |Field direction         :0.1000E-4  0.000000  0.000000
#      |Coulomb Cutoff          :none
#      |xc-Kernel               :none
#   RIM|RL components      [col]:0
#      |Random points      [col]:0
#
#    E/ev[1]      EEL-Im[2]    EEL-Re[3]    EELo-Im[4]   EELo-Re[5]
#
    4.000       0.1430E-2    -.5543E-1    0.6861E-3    -.1633   
    4.010       0.1439E-2    -.5486E-1    0.6883E-3    -.1630   
    4.020       0.1448E-2    -.5428E-1    0.6905E-3    -.1628   
    4.030       0.1457E-2    -.5370E-1    0.6927E-3    -.1625   
    4.040       0.1466E-2    -.5311E-1    0.6949E-3    -.1622   
    4.050       0.1476E-2    -.5252E-1    0.6972E-3    -.1619   
    4.060       0.1486E-2    -.5193E-1    0.6994E-3    -.1616   
    4.070       0.1497E-2    -.5133E-1    0.7016E-3    -.1614   
    4.080       0.1508E-2    -.5073E-1    0.7038E-3    -.1611   
    4.090       0.1519E-2    -.5012E-1    0.7061E-3    -.1608   
    4.100       0.1532E-2    -.4951E-1    0.7083E-3    -.1605   
    4.110       0.1545E-2    -.4889E-1    0.7106E-3    -.1602   
    4.120       0.1559E-2    -.4827E-1    0.7128E-3    -.1599   
    4.130       0.1574E-2    -.4764E-1    0.7151E-3    -.1597   
    4.140       0.1590E-2    -.4701E-1    0.7173E-3    -.1594   
    4.150       0.1608E-2    -.4637E-1    0.7196E-3    -.1591   
    4.160       0.1627E-2    -.4572E-1    0.7218E-3    -.1588   
    4.170       0.1648E-2    -.4507E-1    0.7241E-3    -.1585   
    4.180       0.1672E-2    -.4441E-1    0.7264E-3    -.1582   
    4.190       0.1698E-2    -.4373E-1    0.7287E-3    -.1579   
    4.201       0.1728E-2    -.4305E-1    0.7310E-3    -.1576   
    4.211       0.1761E-2    -.4235E-1    0.7333E-3    -.1573   
    4.221       0.1800E-2    -.4164E-1    0.7355E-3    -.1570   
    4.231       0.1845E-2    -.4092E-1    0.7378E-3    -.1567   
    4.241       0.1898E-2    -.4018E-1    0.7402E-3    -.1564   
    4.251       0.1961E-2    -.3941E-1    0.7425E-3    -.1561   
    4.261       0.2038E-2    -.3863E-1    0.7448E-3    -.1559   
    4.271       0.2134E-2    -.3781E-1    0.7471E-3    -.1556   
    4.281       0.2254E-2    -.3696E-1    0.7494E-3    -.1553   
    4.291       0.2408E-2    -.3606E-1    0.7517E-3    -.1550   
    4.301       0.2613E-2    -.3511E-1    0.7541E-3    -.1546   
    4.311       0.2891E-2    -.3410E-1    0.7564E-3    -.1543   
    4.321       0.3282E-2    -.3300E-1    0.7588E-3    -.1540   
    4.331       0.3853E-2    -.3181E-1    0.7611E-3    -.1537   
    4.341       0.4720E-2    -.3054E-1    0.7635E-3    -.1534   
    4.351       0.6085E-2    -.2925E-1    0.7658E-3    -.1531   
    4.361       0.8256E-2    -.2823E-1    0.7682E-3    -.1528   
    4.371       0.1143E-1    -.2833E-1    0.7706E-3    -.1525   
    4.381       0.1454E-1    -.3097E-1    0.7729E-3    -.1522   
    4.391       0.1466E-1    -.3554E-1    0.7753E-3    -.1519   
    4.401       0.1164E-1    -.3835E-1    0.7777E-3    -.1516   
    4.411       0.8435E-2    -.3854E-1    0.7801E-3    -.1513   
    4.421       0.6224E-2    -.3753E-1    0.7825E-3    -.1510   
    4.431       0.4837E-2    -.3623E-1    0.7849E-3    -.1506   
    4.441       0.3961E-2    -.3492E-1    0.7873E-3    -.1503   
    4.451       0.3391E-2    -.3370E-1    0.7897E-3    -.1500   
    4.461       0.3005E-2    -.3256E-1    0.7921E-3    -.1497   
    4.471       0.2734E-2    -.3150E-1    0.7945E-3    -.1494   
    4.481       0.2540E-2    -.3050E-1    0.7970E-3    -.1491   
    4.491       0.2396E-2    -.2955E-1    0.7994E-3    -.1487   
    4.501       0.2287E-2    -.2864E-1    0.8018E-3    -.1484   
    4.511       0.2203E-2    -.2776E-1    0.8043E-3    -.1481   
    4.521       0.2138E-2    -.2690E-1    0.8067E-3    -.1478   
    4.531       0.2087E-2    -.2607E-1    0.8092E-3    -.1474   
    4.541       0.2047E-2    -.2525E-1    0.8117E-3    -.1471   
    4.551       0.2014E-2    -.2444E-1    0.8141E-3    -.1468   
    4.561       0.1988E-2    -.2364E-1    0.8166E-3    -.1465   
    4.571       0.1967E-2    -.2285E-1    0.8191E-3    -.1461   
    4.581       0.1950E-2    -.2207E-1    0.8216E-3    -.1458   
    4.591       0.1937E-2    -.2129E-1    0.8240E-3    -.1455   
    4.602       0.1927E-2    -.2052E-1    0.8265E-3    -.1451   
    4.612       0.1918E-2    -.1975E-1    0.8290E-3    -.1448   
    4.622       0.1912E-2    -.1899E-1    0.8315E-3    -.1445   
    4.632       0.1907E-2    -.1822E-1    0.8341E-3    -.1441   
    4.642       0.1904E-2    -.1746E-1    0.8366E-3    -.1438   
    4.652       0.1902E-2    -.1670E-1    0.8391E-3    -.1435   
    4.662       0.1901E-2    -.1594E-1    0.8416E-3    -.1431   
    4.672       0.1901E-2    -.1517E-1    0.8442E-3    -.1428   
    4.682       0.1901E-2    -.1441E-1    0.8467E-3    -.1425   
    4.692       0.1903E-2    -.1365E-1    0.8493E-3    -.1421   
    4.702       0.1905E-2    -.1289E-1    0.8518E-3    -.1418   
    4.712       0.1907E-2    -.1212E-1    0.8544E-3    -.1414   
    4.722       0.1910E-2    -.1136E-1    0.8570E-3    -.1411   
    4.732       0.1914E-2    -.1059E-1    0.8595E-3    -.1408   
    4.742       0.1918E-2    -.9824E-2    0.8621E-3    -.1404   
    4.752       0.1922E-2    -.9055E-2    0.8647E-3    -.1401   
    4.762       0.1926E-2    -.8284E-2    0.8673E-3    -.1397   
    4.772       0.1931E-2    -.7510E-2    0.8699E-3    -.1394   
    4.782       0.1936E-2    -.6735E-2    0.8725E-3    -.1390   
    4.792       0.1942E-2    -.5958E-2    0.8751E-3    -.1387   
    4.802       0.1947E-2    -.5178E-2    0.8777E-3    -.1383   
    4.812       0.1953E-2    -.4396E-2    0.8804E-3    -.1380   
    4.822       0.1959E-2    -.3612E-2    0.8830E-3    -.1376   
    4.832       0.1966E-2    -.2825E-2    0.8856E-3    -.1373   
    4.842       0.1972E-2    -.2036E-2    0.8883E-3    -.1369   
    4.852       0.1979E-2    -.1244E-2    0.8909E-3    -.1365   
    4.862       0.1985E-2    -.4495E-3    0.8936E-3    -.1362   
    4.872       0.1992E-2    0.3479E-3    0.8963E-3    -.1358   
    4.882       0.1999E-2    0.1148E-2    0.8989E-3    -.1355   
    4.892       0.2007E-2    0.1951E-2    0.9016E-3    -.1351   
    4.902       0.2014E-2    0.2757E-2    0.9043E-3    -.1347   
    4.912       0.2022E-2    0.3566E-2    0.9070E-3    -.1344   
    4.922       0.2029E-2    0.4378E-2    0.9097E-3    -.1340   
    4.932       0.2037E-2    0.5193E-2    0.9124E-3    -.1336   
    4.942       0.2045E-2    0.6011E-2    0.9151E-3    -.1333   
    4.952       0.2053E-2    0.6833E-2    0.9178E-3    -.1329   
    4.962       0.2062E-2    0.7658E-2    0.9206E-3    -.1325   
    4.972       0.2071E-2    0.8485E-2    0.9233E-3    -.1322   
    4.982       0.2081E-2    0.9316E-2    0.9261E-3    -.1318   
    4.992       0.2090E-2    0.1015E-1    0.9288E-3    -.1314   
    5.003       0.2099E-2    0.1098E-1    0.9316E-3    -.1311   
    5.013       0.2106E-2    0.1182E-1    0.9343E-3    -.1307   
    5.023       0.2113E-2    0.1267E-1    0.9371E-3    -.1303   
    5.033       0.2121E-2    0.1352E-1    0.9399E-3    -.1299   
    5.043       0.2130E-2    0.1437E-1    0.9427E-3    -.1296   
    5.053       0.2138E-2    0.1522E-1    0.9455E-3    -.1292   
    5.063       0.2147E-2    0.1608E-1    0.9483E-3    -.1288   
    5.073       0.2156E-2    0.1695E-1    0.9511E-3    -.1284   
    5.083       0.2165E-2    0.1781E-1    0.9539E-3    -.1280   
    5.093       0.2175E-2    0.1868E-1    0.9568E-3    -.1277   
    5.103       0.2184E-2    0.1956E-1    0.9596E-3    -.1273   
    5.113       0.2193E-2    0.2043E-1    0.9625E-3    -.1269   
    5.123       0.2203E-2    0.2131E-1    0.9653E-3    -.1265   
    5.133       0.2213E-2    0.2220E-1    0.9682E-3    -.1261   
    5.143       0.2223E-2    0.2309E-1    0.9710E-3    -.1257   
    5.153       0.2233E-2    0.2398E-1    0.9739E-3    -.1253   
    5.163       0.2243E-2    0.2488E-1    0.9768E-3    -.1249   
    5.173       0.2253E-2    0.2578E-1    0.9797E-3    -.1245   
    5.183       0.2263E-2    0.2669E-1    0.9826E-3    -.1242   
    5.193       0.2274E-2    0.2760E-1    0.9855E-3    -.1238   
    5.203       0.2284E-2    0.2851E-1    0.9885E-3    -.1234   
    5.213       0.2295E-2    0.2943E-1    0.9914E-3    -.1230   
    5.223       0.2305E-2    0.3035E-1    0.9943E-3    -.1226   
    5.233       0.2316E-2    0.3128E-1    0.9973E-3    -.1222   
    5.243       0.2327E-2    0.3221E-1    0.1000E-2    -.1218   
    5.253       0.2338E-2    0.3314E-1    0.1003E-2    -.1214   
    5.263       0.2349E-2    0.3408E-1    0.1006E-2    -.1210   
    5.273       0.2361E-2    0.3503E-1    0.1009E-2    -.1206   
    5.283       0.2372E-2    0.3598E-1    0.1012E-2    -.1202   
    5.293       0.2383E-2    0.3693E-1    0.1015E-2    -.1197   
    5.303       0.2395E-2    0.3789E-1    0.1018E-2    -.1193   
    5.313       0.2407E-2    0.3885E-1    0.1021E-2    -.1189   
    5.323       0.2419E-2    0.3982E-1    0.1024E-2    -.1185   
    5.333       0.2431E-2    0.4079E-1    0.1027E-2    -.1181   
    5.343       0.2443E-2    0.4177E-1    0.1030E-2    -.1177   
    5.353       0.2455E-2    0.4275E-1    0.1033E-2    -.1173   
    5.363       0.2467E-2    0.4373E-1    0.1037E-2    -.1169   
    5.373       0.2480E-2    0.4473E-1    0.1040E-2    -.1165   
    5.383       0.2493E-2    0.4572E-1    0.1043E-2    -.1160   
    5.393       0.2505E-2    0.4673E-1    0.1046E-2    -.1156   
    5.404       0.2518E-2    0.4773E-1    0.1049E-2    -.1152   
    5.414       0.2532E-2    0.4874E-1    0.1052E-2    -.1148   
    5.424       0.2545E-2    0.4976E-1    0.1055E-2    -.1144   
    5.434       0.2558E-2    0.5079E-1    0.1058E-2    -.1139   
    5.444       0.2572E-2    0.5181E-1    0.1061E-2    -.1135   
    5.454       0.2585E-2    0.5285E-1    0.1065E-2    -.1131   
    5.464       0.2599E-2    0.5389E-1    0.1068E-2    -.1127   
    5.474       0.2613E-2    0.5493E-1    0.1071E-2    -.1122   
    5.484       0.2628E-2    0.5598E-1    0.1074E-2    -.1118   
    5.494       0.2642E-2    0.5704E-1    0.1077E-2    -.1114   
    5.504       0.2657E-2    0.5810E-1    0.1081E-2    -.1109   
    5.514       0.2671E-2    0.5917E-1    0.1084E-2    -.1105   
    5.524       0.2686E-2    0.6024E-1    0.1087E-2    -.1101   
    5.534       0.2701E-2    0.6132E-1    0.1090E-2    -.1096   
    5.544       0.2717E-2    0.6241E-1    0.1094E-2    -.1092   
    5.554       0.2732E-2    0.6350E-1    0.1097E-2    -.1087   
    5.564       0.2748E-2    0.6460E-1    0.1100E-2    -.1083   
    5.574       0.2764E-2    0.6571E-1    0.1104E-2    -.1079   
    5.584       0.2780E-2    0.6682E-1    0.1107E-2    -.1074   
    5.594       0.2796E-2    0.6794E-1    0.1110E-2    -.1070   
    5.604       0.2813E-2    0.6906E-1    0.1114E-2    -.1065   
    5.614       0.2830E-2    0.7019E-1    0.1117E-2    -.1061   
    5.624       0.2847E-2    0.7133E-1    0.1120E-2    -.1056   
    5.634       0.2864E-2    0.7247E-1    0.1124E-2    -.1052   
    5.644       0.2882E-2    0.7363E-1    0.1127E-2    -.1047   
    5.654       0.2900E-2    0.7478E-1    0.1131E-2    -.1043   
    5.664       0.2918E-2    0.7595E-1    0.1134E-2    -.1038   
    5.674       0.2936E-2    0.7712E-1    0.1137E-2    -.1034   
    5.684       0.2955E-2    0.7830E-1    0.1141E-2    -.1029   
    5.694       0.2974E-2    0.7949E-1    0.1144E-2    -.1025   
    5.704       0.2993E-2    0.8069E-1    0.1148E-2    -.1020   
    5.714       0.3012E-2    0.8189E-1    0.1151E-2    -.1015   
    5.724       0.3032E-2    0.8310E-1    0.1155E-2    -.1011   
    5.734       0.3052E-2    0.8432E-1    0.1158E-2    -.1006   
    5.744       0.3073E-2    0.8555E-1    0.1162E-2    -.1001   
    5.754       0.3093E-2    0.8679E-1    0.1166E-2    -.9967E-1
    5.764       0.3115E-2    0.8803E-1    0.1169E-2    -.9921E-1
    5.774       0.3136E-2    0.8929E-1    0.1173E-2    -.9874E-1
    5.784       0.3158E-2    0.9055E-1    0.1176E-2    -.9827E-1
    5.794       0.3180E-2    0.9182E-1    0.1180E-2    -.9779E-1
    5.805       0.3203E-2    0.9310E-1    0.1184E-2    -.9732E-1
    5.815       0.3226E-2    0.9439E-1    0.1187E-2    -.9684E-1
    5.825       0.3250E-2    0.9568E-1    0.1191E-2    -.9637E-1
    5.835       0.3273E-2    0.9699E-1    0.1195E-2    -.9589E-1
    5.845       0.3298E-2    0.9831E-1    0.1199E-2    -.9541E-1
    5.855       0.3323E-2    0.9964E-1    0.1202E-2    -.9493E-1
    5.865       0.3348E-2    0.1010       0.1206E-2    -.9445E-1
    5.875       0.3374E-2    0.1023       0.1210E-2    -.9396E-1
    5.885       0.3400E-2    0.1037       0.1214E-2    -.9347E-1
    5.895       0.3427E-2    0.1050       0.1217E-2    -.9299E-1
    5.905       0.3454E-2    0.1064       0.1221E-2    -.9250E-1
    5.915       0.3482E-2    0.1078       0.1225E-2    -.9201E-1
    5.925       0.3511E-2    0.1092       0.1229E-2    -.9152E-1
    5.935       0.3540E-2    0.1106       0.1233E-2    -.9102E-1
    5.945       0.3570E-2    0.1121       0.1237E-2    -.9053E-1
    5.955       0.3600E-2    0.1135       0.1241E-2    -.9003E-1
    5.965       0.3632E-2    0.1149       0.1245E-2    -.8953E-1
    5.975       0.3663E-2    0.1164       0.1249E-2    -.8903E-1
    5.985       0.3696E-2    0.1179       0.1253E-2    -.8853E-1
    5.995       0.3729E-2    0.1194       0.1257E-2    -.8803E-1
    6.005       0.3764E-2    0.1209       0.1261E-2    -.8752E-1
    6.015       0.3799E-2    0.1224       0.1265E-2    -.8702E-1
    6.025       0.3834E-2    0.1239       0.1269E-2    -.8651E-1
    6.035       0.3871E-2    0.1255       0.1273E-2    -.8600E-1
    6.045       0.3909E-2    0.1270       0.1277E-2    -.8549E-1
    6.055       0.3948E-2    0.1286       0.1282E-2    -.8497E-1
    6.065       0.3987E-2    0.1302       0.1286E-2    -.8446E-1
    6.075       0.4028E-2    0.1318       0.1290E-2    -.8394E-1
    6.085       0.4070E-2    0.1334       0.1294E-2    -.8342E-1
    6.095       0.4113E-2    0.1350       0.1299E-2    -.8290E-1
    6.105       0.4157E-2    0.1367       0.1303E-2    -.8238E-1
    6.115       0.4202E-2    0.1384       0.1308E-2    -.8186E-1
    6.125       0.4249E-2    0.1401       0.1312E-2    -.8133E-1
    6.135       0.4297E-2    0.1418       0.1316E-2    -.8081E-1
    6.145       0.4347E-2    0.1435       0.1321E-2    -.8028E-1
    6.155       0.4398E-2    0.1453       0.1325E-2    -.7975E-1
    6.165       0.4451E-2    0.1470       0.1330E-2    -.7922E-1
    6.175       0.4505E-2    0.1488       0.1335E-2    -.7868E-1
    6.185       0.4561E-2    0.1507       0.1339E-2    -.7815E-1
    6.195       0.4619E-2    0.1525       0.1344E-2    -.7761E-1
    6.206       0.4679E-2    0.1544       0.1349E-2    -.7707E-1
    6.216       0.4741E-2    0.1562       0.1353E-2    -.7653E-1
    6.226       0.4805E-2    0.1582       0.1358E-2    -.7598E-1
    6.236       0.4872E-2    0.1601       0.1363E-2    -.7544E-1
    6.246       0.4940E-2    0.1621       0.1368E-2    -.7489E-1
    6.256       0.5012E-2    0.1641       0.1373E-2    -.7434E-1
    6.266       0.5085E-2    0.1661       0.1378E-2    -.7379E-1
    6.276       0.5162E-2    0.1681       0.1383E-2    -.7324E-1
    6.286       0.5242E-2    0.1702       0.1388E-2    -.7268E-1
    6.296       0.5325E-2    0.1723       0.1393E-2    -.7212E-1
    6.306       0.5411E-2    0.1745       0.1398E-2    -.7156E-1
    6.316       0.5500E-2    0.1767       0.1403E-2    -.7100E-1
    6.326       0.5594E-2    0.1789       0.1409E-2    -.7044E-1
    6.336       0.5691E-2    0.1811       0.1414E-2    -.6987E-1
    6.346       0.5793E-2    0.1834       0.1419E-2    -.6930E-1
    6.356       0.5899E-2    0.1858       0.1425E-2    -.6873E-1
    6.366       0.6010E-2    0.1882       0.1430E-2    -.6816E-1
    6.376       0.6126E-2    0.1906       0.1436E-2    -.6759E-1
    6.386       0.6248E-2    0.1931       0.1442E-2    -.6701E-1
    6.396       0.6375E-2    0.1956       0.1447E-2    -.6643E-1
    6.406       0.6509E-2    0.1982       0.1453E-2    -.6585E-1
    6.416       0.6649E-2    0.2008       0.1459E-2    -.6526E-1
    6.426       0.6797E-2    0.2035       0.1465E-2    -.6468E-1
    6.436       0.6952E-2    0.2062       0.1471E-2    -.6409E-1
    6.446       0.7116E-2    0.2091       0.1477E-2    -.6350E-1
    6.456       0.7289E-2    0.2119       0.1484E-2    -.6291E-1
    6.466       0.7472E-2    0.2149       0.1490E-2    -.6231E-1
    6.476       0.7665E-2    0.2179       0.1496E-2    -.6171E-1
    6.486       0.7870E-2    0.2210       0.1503E-2    -.6111E-1
    6.496       0.8087E-2    0.2242       0.1510E-2    -.6051E-1
    6.506       0.8317E-2    0.2275       0.1516E-2    -.5990E-1
    6.516       0.8562E-2    0.2309       0.1523E-2    -.5929E-1
    6.526       0.8824E-2    0.2343       0.1530E-2    -.5868E-1
    6.536       0.9102E-2    0.2379       0.1538E-2    -.5806E-1
    6.546       0.9400E-2    0.2416       0.1545E-2    -.5744E-1
    6.556       0.9719E-2    0.2454       0.1552E-2    -.5682E-1
    6.566       0.1006E-1    0.2494       0.1560E-2    -.5620E-1
    6.576       0.1043E-1    0.2534       0.1568E-2    -.5557E-1
    6.586       0.1082E-1    0.2577       0.1576E-2    -.5494E-1
    6.596       0.1125E-1    0.2621       0.1584E-2    -.5431E-1
    6.607       0.1171E-1    0.2666       0.1592E-2    -.5367E-1
    6.617       0.1222E-1    0.2714       0.1600E-2    -.5303E-1
    6.627       0.1276E-1    0.2764       0.1609E-2    -.5239E-1
    6.637       0.1335E-1    0.2816       0.1618E-2    -.5174E-1
    6.647       0.1400E-1    0.2870       0.1627E-2    -.5109E-1
    6.657       0.1471E-1    0.2927       0.1637E-2    -.5044E-1
    6.667       0.1549E-1    0.2987       0.1646E-2    -.4978E-1
    6.677       0.1635E-1    0.3050       0.1656E-2    -.4912E-1
    6.687       0.1731E-1    0.3117       0.1666E-2    -.4845E-1
    6.697       0.1836E-1    0.3187       0.1677E-2    -.4778E-1
    6.707       0.1954E-1    0.3262       0.1688E-2    -.4711E-1
    6.717       0.2087E-1    0.3342       0.1699E-2    -.4643E-1
    6.727       0.2235E-1    0.3427       0.1711E-2    -.4575E-1
    6.737       0.2404E-1    0.3518       0.1723E-2    -.4506E-1
    6.747       0.2595E-1    0.3616       0.1735E-2    -.4436E-1
    6.757       0.2814E-1    0.3722       0.1748E-2    -.4367E-1
    6.767       0.3066E-1    0.3836       0.1762E-2    -.4296E-1
    6.777       0.3358E-1    0.3961       0.1776E-2    -.4225E-1
    6.787       0.3699E-1    0.4098       0.1790E-2    -.4154E-1
    6.797       0.4102E-1    0.4248       0.1806E-2    -.4082E-1
    6.807       0.4580E-1    0.4415       0.1822E-2    -.4009E-1
    6.817       0.5156E-1    0.4600       0.1838E-2    -.3936E-1
    6.827       0.5857E-1    0.4808       0.1856E-2    -.3862E-1
    6.837       0.6721E-1    0.5043       0.1874E-2    -.3787E-1
    6.847       0.7803E-1    0.5312       0.1894E-2    -.3712E-1
    6.857       0.9182E-1    0.5620       0.1914E-2    -.3636E-1
    6.867       0.1098       0.5978       0.1936E-2    -.3558E-1
    6.877       0.1336       0.6398       0.1959E-2    -.3481E-1
    6.887       0.1663       0.6895       0.1983E-2    -.3402E-1
    6.897       0.2124       0.7486       0.2009E-2    -.3322E-1
    6.907       0.2798       0.8186       0.2037E-2    -.3241E-1
    6.917       0.3822       0.8990       0.2066E-2    -.3159E-1
    6.927       0.5436       0.9818       0.2098E-2    -.3075E-1
    6.937       0.8004        1.034       0.2132E-2    -.2991E-1
    6.947        1.177       0.9558       0.2169E-2    -.2905E-1
    6.957        1.555       0.5775       0.2209E-2    -.2817E-1
    6.967        1.584       -.3845E-1    0.2252E-2    -.2728E-1
    6.977        1.231       -.4523       0.2300E-2    -.2637E-1
    6.987       0.8526       -.5510       0.2352E-2    -.2544E-1
    6.997       0.5950       -.5024       0.2409E-2    -.2450E-1
    7.008       0.4428       -.4170       0.2472E-2    -.2352E-1
    7.018       0.3616       -.3376       0.2543E-2    -.2252E-1
    7.028       0.3242       -.2853       0.2621E-2    -.2150E-1
    7.038       0.2952       -.2697       0.2709E-2    -.2044E-1
    7.048       0.2449       -.2642       0.2809E-2    -.1934E-1
    7.058       0.1886       -.2406       0.2923E-2    -.1821E-1
    7.068       0.1450       -.2053       0.3053E-2    -.1702E-1
    7.078       0.1148       -.1688       0.3204E-2    -.1579E-1
    7.088       0.9382E-1    -.1353       0.3381E-2    -.1449E-1
    7.098       0.7877E-1    -.1056       0.3589E-2    -.1313E-1
    7.108       0.6763E-1    -.7941E-1    0.3837E-2    -.1168E-1
    7.118       0.5916E-1    -.5609E-1    0.4137E-2    -.1013E-1
    7.128       0.5260E-1    -.3518E-1    0.4504E-2    -.8472E-2
    7.138       0.4745E-1    -.1625E-1    0.4963E-2    -.6670E-2
    7.148       0.4341E-1    0.1070E-2    0.5546E-2    -.4699E-2
    7.158       0.4026E-1    0.1709E-1    0.6303E-2    -.2519E-2
    7.168       0.3788E-1    0.3208E-1    0.7314E-2    -.8309E-4
    7.178       0.3619E-1    0.4628E-1    0.8704E-2    0.2665E-2
    7.188       0.3522E-1    0.5992E-1    0.1068E-1    0.5782E-2
      7.1980       0.0350       0.0732       0.0136       0.0093
     7.20802      0.03584      0.08628      0.01812      0.01304
     7.21804      0.03800      0.09937      0.02521      0.01632
     7.22807      0.04219      0.11250      0.03581      0.01685
     7.23810      0.04953      0.12524      0.04787      0.01005
    7.248       0.6145E-1    0.1359       0.5247E-1    -.4415E-2
     7.25815      0.07793      0.14062      0.04631     -0.01512
     7.26817      0.09499      0.13617      0.03931     -0.01688
     7.27820      0.10840      0.12186      0.03757     -0.01506
     7.28822      0.10903      0.09805      0.04066     -0.01590
     7.29825      0.09125      0.08035      0.04271     -0.02310
     7.30827      0.06913      0.07810      0.03724     -0.03131
     7.31830      0.05199      0.08508      0.02828     -0.03351
     7.32832      0.04054      0.09530      0.02139     -0.03120
     7.33835      0.03317      0.10593      0.01740     -0.02746
     7.34837      0.02838      0.11604      0.01572     -0.02379
     7.35840      0.02518      0.12546      0.01576     -0.02117
     7.36842      0.02301      0.13428      0.01635     -0.02056
     7.37845      0.02155      0.14263      0.01531     -0.02138
     7.38847      0.02062      0.15064      0.01257     -0.02115
     7.39850      0.02012      0.15844      0.01000     -0.01943
      7.4085       0.0200       0.1661       0.0082      -0.0171
    7.419       0.2029E-1    0.1739       0.7096E-2    -.1469E-1
    7.429       0.2101E-1    0.1817       0.6384E-2    -.1236E-1
    7.439       0.2226E-1    0.1898       0.5952E-2    -.1013E-1
    7.449       0.2423E-1    0.1983       0.5729E-2    -.7971E-2
    7.459       0.2723E-1    0.2074       0.5687E-2    -.5857E-2
    7.469       0.3178E-1    0.2173       0.5835E-2    -.3759E-2
    7.479       0.3880E-1    0.2280       0.6225E-2    -.1659E-2
    7.489       0.4990E-1    0.2393       0.6970E-2    0.4191E-3
    7.499       0.6780E-1    0.2497       0.8256E-2    0.2326E-2
    7.509       0.9596E-1    0.2540       0.1023E-1    0.3569E-2
    7.519       0.1328       0.2391       0.1234E-1    0.3237E-2
    7.529       0.1556       0.1940       0.1272E-1    0.1493E-2
    7.539       0.1381       0.1452       0.1094E-1    0.7022E-3
    7.549       0.1009       0.1254       0.8921E-2    0.1697E-2
    7.559       0.7052E-1    0.1273       0.7564E-2    0.3603E-2
    7.569       0.5074E-1    0.1367       0.6811E-2    0.5803E-2
    7.579       0.3832E-1    0.1473       0.6465E-2    0.8090E-2
    7.589       0.3031E-1    0.1573       0.6398E-2    0.1042E-1
    7.599       0.2494E-1    0.1662       0.6549E-2    0.1283E-1
    7.609       0.2120E-1    0.1742       0.6899E-2    0.1533E-1
    7.619       0.1851E-1    0.1814       0.7462E-2    0.1800E-1
      7.6291       0.0165       0.1879       0.0083       0.0209
      7.6391       0.0150       0.1938       0.0095       0.0240
     7.64912      0.01377      0.19930      0.01114      0.02757
     7.65915      0.01281      0.20444      0.01358      0.03157
     7.66917      0.01204      0.20928      0.01723      0.03609
     7.67920      0.01140      0.21388      0.02287      0.04107
     7.68922      0.01087      0.21826      0.03185      0.04591
     7.69925      0.01042      0.22246      0.04609      0.04842
     7.70927      0.01004      0.22651      0.06604      0.04249
      7.7193       0.0097       0.2304       0.0826       0.0201
      7.7293       0.0094       0.2342       0.0783      -0.0100
      7.7393       0.0092       0.2379       0.0585      -0.0261
      7.7494       0.0090       0.2415       0.0402      -0.0281
      7.7594       0.0088       0.2451       0.0280      -0.0244
      7.7694       0.0086       0.2485       0.0204      -0.0194
      7.7794       0.0084       0.2519       0.0155      -0.0147
      7.7895       0.0083       0.2553       0.0123      -0.0104
    7.799       0.8177E-2    0.2586       0.1014E-1    -.6711E-2
    7.810       0.8067E-2    0.2618       0.8588E-2    -.3459E-2
    7.820       0.7967E-2    0.2650       0.7465E-2    -.5725E-3
    7.830       0.7878E-2    0.2682       0.6638E-2    0.2021E-2
    7.840       0.7796E-2    0.2713       0.6026E-2    0.4380E-2
    7.850       0.7723E-2    0.2744       0.5581E-2    0.6547E-2
    7.860       0.7656E-2    0.2775       0.5272E-2    0.8547E-2
    7.870       0.7596E-2    0.2805       0.5070E-2    0.1041E-1
    7.880       0.7541E-2    0.2836       0.4980E-2    0.1215E-1
    7.890       0.7491E-2    0.2866       0.5045E-2    0.1374E-1
    7.900       0.7446E-2    0.2896       0.5223E-2    0.1503E-1
    7.910       0.7405E-2    0.2926       0.5223E-2    0.1596E-1
    7.920       0.7369E-2    0.2955       0.4827E-2    0.1688E-1
    7.930       0.7336E-2    0.2985       0.4315E-2    0.1807E-1
    7.940       0.7306E-2    0.3014       0.3913E-2    0.1941E-1
    7.950       0.7279E-2    0.3043       0.3632E-2    0.2077E-1
    7.960       0.7256E-2    0.3072       0.3433E-2    0.2211E-1
    7.970       0.7235E-2    0.3101       0.3287E-2    0.2342E-1
    7.980       0.7217E-2    0.3130       0.3174E-2    0.2469E-1
    7.990       0.7202E-2    0.3159       0.3084E-2    0.2592E-1
    8.000       0.7188E-2    0.3188       0.3010E-2    0.2713E-1
# 
# 05/10/2018 at 21:17 YAMBO @ NewLaptop [start]
# 05/10/2018 at 21:17                   [end]
#  
# Timing   [Min/Max/Average]: 03s/03s/03s
#
# .-Input file : yambo.in
# | optics                         # [R OPT] Optics
# | bse                            # [R BSE] Bethe Salpeter Equation.
# | bsk                            # [R BSK] Bethe Salpeter Equation kernel
# | bss                            # [R BSS] Bethe Salpeter Equation solver
# | em1s                           # [R Xs] Static Inverse Dielectric Matrix
# | BoseTemp= 0.000000     eV      # Bosonic Temperature
# | FFTGvecs=  3473        RL      # [FFT] Plane-waves
# | Chimod= "hartree"              # [X] IP/Hartree/ALDA/LRC/BSfxc
# | BSEmod= "retarded"             # [BSE] resonant/retarded/coupling
# | BSKmod= "SEX"                  # [BSE] IP/Hartree/HF/ALDA/SEX/BSfxc
# | BSSmod= "d"                    # [BSS] (h)aydock/(d)iagonalization/(i)nversion/(t)ddft`
# | BSENGexx=  51          RL      # [BSK] Exchange components
# | BSENGBlk=  51          RL      # [BSK] Screened interaction block size
# | #WehCpl                        # [BSK] eh interaction included also in coupling
# | KfnQPdb= " E < 03_QP/ndb.QP"   # [EXTQP BSK BSS] Database
# | Gauge= "velocity"              # [BSE] Gauge (length|velocity)
# | % BEnRange
# |  4.000000 | 8.000000 | eV      # [BSS] Energy range
# | %
# | % BDmRange
# |   0.02500 |  0.02500 | eV      # [BSS] Damping range
# | %
# | BEnSteps=  400                 # [BSS] Energy steps
# | % BLongDir
# |  0.577350 | 0.577350 | 0.577350 |        # [BSS] [cc] Electric Field
# | %
# | % BSEBands
# |   7 | 10 |                     # [BSK] Bands range
# | %
# | % BndsRnXs
# |    1 |  60 |                   # [Xs] Polarization function bands
# | %
# | NGsBlkXs=  51          RL      # [Xs] Response block size
# | % DmRngeXs
# | 0.1000E-2 |0.1000E-2 | eV      # [Xs] Damping range
# | %
# | % LongDrXs
# | 0.1000E-4 | 0.000    | 0.000    |        # [Xs] [cc] Electric Field
# | %
