#                                                           
#  /$$     /$$ /$$$$$$  /$$      /$$ /$$$$$$$   /$$$$$$     
# |  $$   /$$//$$__  $$| $$$    /$$$| $$__  $$ /$$__  $$    
#  \  $$ /$$/| $$  \ $$| $$$$  /$$$$| $$  \ $$| $$  \ $$    
#   \  $$$$/ | $$$$$$$$| $$ $$/$$ $$| $$$$$$$ | $$  | $$    
#    \  $$/  | $$__  $$| $$  $$$| $$| $$__  $$| $$  | $$    
#     | $$   | $$  | $$| $$\  $ | $$| $$  \ $$| $$  | $$    
#     | $$   | $$  | $$| $$ \/  | $$| $$$$$$$/|  $$$$$$/    
#     |__/   |__/  |__/|__/     |__/|_______/  \______/     
#                                                           
#       Version 4.3.0 Revision 15341 Hash c146fb2           
#                     MPI+SLK Build                         
#               http://www.yambo-code.org                   
#
# Joint density of states @ Q(4) [iku] : 0.500000  0.250000  0.500000
#
# - Energies      are Teter 93(XC)
# - The Green`s function is Resonant -
#
#   BSK|Identifier              :932
#      |Dimension               :96
#      |Bands                   :3 - 10
#      |Exchange           [res]: yes
#      |Correlation        [res]: yes
#      |Kernel`s coupling       : no
#      |Exchange           [cpl]: no
#      |Correlation        [cpl]: no
#      |W interaction is bare   : no
#      |ALDA kernel in R-space  : no
#      |RL vectors    [exchange]:51
#      |RL vectors [correlation]:51
#      |E/h energy range    [ev]:-1.000000 - -1.000000
#      |Coupling range     [o/o]: 100.0000 -  100.0000
#    W |Interaction is diagonal : no
#      |Matrix size             :51
#      |Bands                   :1 - 60
#      |e/h energy range    [ev]:-1.000000 - -1.000000
#      |Poles              [o/o]: 100.0000
#      |RL vectors in the sum   :3473
#      |[r,Vnl] included        : yes
#      |Field direction         :0.1000E-4  0.000000  0.000000
#      |Coulomb Cutoff          :none
#      |xc-Kernel               :none
#   RIM|RL components      [col]:0
#      |Random points      [col]:0
#
#    E/ev[1]      jdos-Im[2]   jdos-Re[3]   jdoso-Im[4]  jdoso-Re[5]  jdos`-Im[6]  jdos`-Re[7]
#
   -10.00000      0.01088      1.91206      0.01025      1.86300
    -9.99000      0.01089      1.91315      0.01026      1.86402
    -9.98000      0.01090      1.91424      0.01027      1.86505
    -9.97000      0.01092      1.91533      0.01028      1.86607
    -9.96000      0.01093      1.91643      0.01029      1.86710
    -9.95000      0.01094      1.91752      0.01030      1.86813
    -9.94000      0.01096      1.91861      0.01032      1.86916
    -9.93000      0.01097      1.91971      0.01033      1.87020
    -9.92000      0.01098      1.92081      0.01034      1.87123
    -9.91000      0.01100      1.92191      0.01035      1.87226
    -9.90000      0.01101      1.92301      0.01036      1.87330
    -9.89000      0.01102      1.92411      0.01038      1.87434
    -9.88000      0.01103      1.92521      0.01039      1.87537
    -9.87000      0.01105      1.92632      0.01040      1.87641
    -9.86000      0.01106      1.92742      0.01041      1.87745
    -9.85000      0.01107      1.92853      0.01042      1.87850
    -9.84000      0.01109      1.92964      0.01043      1.87954
    -9.83000      0.01110      1.93074      0.01045      1.88058
    -9.82000      0.01111      1.93186      0.01046      1.88163
    -9.81000      0.01113      1.93297      0.01047      1.88267
    -9.80000      0.01114      1.93408      0.01048      1.88372
    -9.79000      0.01115      1.93520      0.01049      1.88477
    -9.78000      0.01117      1.93631      0.01051      1.88582
    -9.77000      0.01118      1.93743      0.01052      1.88687
    -9.76000      0.01119      1.93855      0.01053      1.88792
    -9.75000      0.01121      1.93967      0.01054      1.88898
    -9.74000      0.01122      1.94079      0.01056      1.89003
    -9.73000      0.01123      1.94191      0.01057      1.89109
    -9.72000      0.01125      1.94304      0.01058      1.89215
    -9.71000      0.01126      1.94416      0.01059      1.89320
    -9.70000      0.01128      1.94529      0.01060      1.89426
    -9.69000      0.01129      1.94642      0.01062      1.89532
    -9.68000      0.01130      1.94755      0.01063      1.89639
    -9.67000      0.01132      1.94868      0.01064      1.89745
    -9.66000      0.01133      1.94981      0.01065      1.89851
    -9.65000      0.01134      1.95094      0.01067      1.89958
    -9.64000      0.01136      1.95208      0.01068      1.90065
    -9.63000      0.01137      1.95321      0.01069      1.90172
    -9.62000      0.01138      1.95435      0.01070      1.90279
    -9.61000      0.01140      1.95549      0.01071      1.90386
    -9.60000      0.01141      1.95663      0.01073      1.90493
    -9.59000      0.01143      1.95777      0.01074      1.90600
    -9.58000      0.01144      1.95891      0.01075      1.90708
    -9.57000      0.01145      1.96006      0.01076      1.90815
    -9.56000      0.01147      1.96121      0.01078      1.90923
    -9.55000      0.01148      1.96235      0.01079      1.91031
    -9.54000      0.01150      1.96350      0.01080      1.91139
    -9.53000      0.01151      1.96465      0.01081      1.91247
    -9.52000      0.01152      1.96580      0.01083      1.91355
    -9.51000      0.01154      1.96696      0.01084      1.91463
    -9.50000      0.01155      1.96811      0.01085      1.91572
    -9.49000      0.01157      1.96927      0.01087      1.91680
    -9.48000      0.01158      1.97042      0.01088      1.91789
    -9.47000      0.01159      1.97158      0.01089      1.91898
    -9.46000      0.01161      1.97274      0.01090      1.92007
    -9.45000      0.01162      1.97390      0.01092      1.92116
    -9.44000      0.01164      1.97507      0.01093      1.92225
    -9.43000      0.01165      1.97623      0.01094      1.92335
    -9.42000      0.01167      1.97740      0.01096      1.92444
    -9.41000      0.01168      1.97857      0.01097      1.92554
    -9.40000      0.01169      1.97973      0.01098      1.92663
    -9.39000      0.01171      1.98090      0.01099      1.92773
    -9.38000      0.01172      1.98208      0.01101      1.92883
    -9.37000      0.01174      1.98325      0.01102      1.92993
    -9.36000      0.01175      1.98442      0.01103      1.93104
    -9.35000      0.01177      1.98560      0.01105      1.93214
    -9.34000      0.01178      1.98678      0.01106      1.93324
    -9.33000      0.01180      1.98796      0.01107      1.93435
    -9.32000      0.01181      1.98914      0.01108      1.93546
    -9.31000      0.01183      1.99032      0.01110      1.93657
    -9.30000      0.01184      1.99150      0.01111      1.93768
    -9.29000      0.01185      1.99268      0.01112      1.93879
    -9.28000      0.01187      1.99387      0.01114      1.93990
    -9.27000      0.01188      1.99506      0.01115      1.94102
    -9.26000      0.01190      1.99625      0.01116      1.94213
    -9.25000      0.01191      1.99744      0.01118      1.94325
    -9.24000      0.01193      1.99863      0.01119      1.94437
    -9.23000      0.01194      1.99982      0.01120      1.94549
    -9.22000      0.01196      2.00102      0.01122      1.94661
    -9.21000      0.01197      2.00221      0.01123      1.94773
    -9.20000      0.01199      2.00341      0.01124      1.94885
    -9.19000      0.01200      2.00461      0.01126      1.94998
    -9.18000      0.01202      2.00581      0.01127      1.95111
    -9.17000      0.01203      2.00702      0.01128      1.95223
    -9.16000      0.01205      2.00822      0.01130      1.95336
    -9.15000      0.01206      2.00943      0.01131      1.95449
    -9.14000      0.01208      2.01063      0.01132      1.95562
    -9.13000      0.01209      2.01184      0.01134      1.95676
    -9.12000      0.01211      2.01305      0.01135      1.95789
    -9.11000      0.01212      2.01426      0.01137      1.95903
    -9.10000      0.01214      2.01548      0.01138      1.96017
    -9.09000      0.01215      2.01669      0.01139      1.96130
    -9.08000      0.01217      2.01791      0.01141      1.96244
    -9.07000      0.01219      2.01912      0.01142      1.96358
    -9.06000      0.01220      2.02034      0.01143      1.96473
    -9.05000      0.01222      2.02156      0.01145      1.96587
    -9.04000      0.01223      2.02279      0.01146      1.96702
    -9.03000      0.01225      2.02401      0.01147      1.96816
    -9.02000      0.01226      2.02524      0.01149      1.96931
    -9.01000      0.01228      2.02646      0.01150      1.97046
    -9.00000      0.01229      2.02769      0.01152      1.97161
    -8.99000      0.01231      2.02892      0.01153      1.97276
    -8.98000      0.01232      2.03015      0.01154      1.97392
    -8.97000      0.01234      2.03139      0.01156      1.97507
    -8.96000      0.01236      2.03262      0.01157      1.97623
    -8.95000      0.01237      2.03386      0.01159      1.97739
    -8.94000      0.01239      2.03509      0.01160      1.97855
    -8.93000      0.01240      2.03633      0.01161      1.97971
    -8.92000      0.01242      2.03757      0.01163      1.98087
    -8.91000      0.01243      2.03882      0.01164      1.98203
    -8.90000      0.01245      2.04006      0.01166      1.98320
    -8.89000      0.01247      2.04131      0.01167      1.98436
    -8.88000      0.01248      2.04255      0.01169      1.98553
    -8.87000      0.01250      2.04380      0.01170      1.98670
    -8.86000      0.01251      2.04505      0.01171      1.98787
    -8.85000      0.01253      2.04631      0.01173      1.98904
    -8.84000      0.01255      2.04756      0.01174      1.99022
    -8.83000      0.01256      2.04881      0.01176      1.99139
    -8.82000      0.01258      2.05007      0.01177      1.99257
    -8.81000      0.01259      2.05133      0.01179      1.99375
    -8.80000      0.01261      2.05259      0.01180      1.99492
    -8.79000      0.01263      2.05385      0.01181      1.99610
    -8.78000      0.01264      2.05512      0.01183      1.99729
    -8.77000      0.01266      2.05638      0.01184      1.99847
    -8.76000      0.01268      2.05765      0.01186      1.99965
    -8.75000      0.01269      2.05892      0.01187      2.00084
    -8.74000      0.01271      2.06019      0.01189      2.00203
    -8.73000      0.01272      2.06146      0.01190      2.00322
    -8.72000      0.01274      2.06273      0.01192      2.00441
    -8.71000      0.01276      2.06401      0.01193      2.00560
    -8.70000      0.01277      2.06528      0.01195      2.00680
    -8.69000      0.01279      2.06656      0.01196      2.00799
    -8.68000      0.01281      2.06784      0.01197      2.00919
    -8.67000      0.01282      2.06912      0.01199      2.01039
    -8.66000      0.01284      2.07040      0.01200      2.01158
    -8.65000      0.01286      2.07169      0.01202      2.01279
    -8.64000      0.01287      2.07298      0.01203      2.01399
    -8.63000      0.01289      2.07426      0.01205      2.01519
    -8.62000      0.01291      2.07555      0.01206      2.01640
    -8.61000      0.01292      2.07685      0.01208      2.01761
    -8.60000      0.01294      2.07814      0.01209      2.01881
    -8.59000      0.01296      2.07943      0.01211      2.02002
    -8.58000      0.01297      2.08073      0.01212      2.02124
    -8.57000      0.01299      2.08203      0.01214      2.02245
    -8.56000      0.01301      2.08333      0.01215      2.02366
    -8.55000      0.01303      2.08463      0.01217      2.02488
    -8.54000      0.01304      2.08593      0.01218      2.02610
    -8.53000      0.01306      2.08724      0.01220      2.02732
    -8.52000      0.01308      2.08854      0.01221      2.02854
    -8.51000      0.01309      2.08985      0.01223      2.02976
    -8.50000      0.01311      2.09116      0.01224      2.03098
    -8.49000      0.01313      2.09247      0.01226      2.03221
    -8.48000      0.01315      2.09379      0.01228      2.03343
    -8.47000      0.01316      2.09510      0.01229      2.03466
    -8.46000      0.01318      2.09642      0.01231      2.03589
    -8.45000      0.01320      2.09774      0.01232      2.03712
    -8.44000      0.01322      2.09906      0.01234      2.03836
    -8.43000      0.01323      2.10038      0.01235      2.03959
    -8.42000      0.01325      2.10171      0.01237      2.04083
    -8.41000      0.01327      2.10303      0.01238      2.04206
    -8.40000      0.01329      2.10436      0.01240      2.04330
    -8.39000      0.01330      2.10569      0.01241      2.04454
    -8.38000      0.01332      2.10702      0.01243      2.04579
    -8.37000      0.01334      2.10835      0.01245      2.04703
    -8.36000      0.01336      2.10969      0.01246      2.04827
    -8.35000      0.01337      2.11102      0.01248      2.04952
    -8.34000      0.01339      2.11236      0.01249      2.05077
    -8.33000      0.01341      2.11370      0.01251      2.05202
    -8.32000      0.01343      2.11504      0.01252      2.05327
    -8.31000      0.01344      2.11639      0.01254      2.05452
    -8.30000      0.01346      2.11773      0.01256      2.05578
    -8.29000      0.01348      2.11908      0.01257      2.05703
    -8.28000      0.01350      2.12043      0.01259      2.05829
    -8.27000      0.01352      2.12178      0.01260      2.05955
    -8.26000      0.01353      2.12313      0.01262      2.06081
    -8.25000      0.01355      2.12449      0.01264      2.06208
    -8.24000      0.01357      2.12584      0.01265      2.06334
    -8.23000      0.01359      2.12720      0.01267      2.06461
    -8.22000      0.01361      2.12856      0.01268      2.06587
    -8.21000      0.01363      2.12992      0.01270      2.06714
    -8.20000      0.01364      2.13128      0.01272      2.06841
    -8.19000      0.01366      2.13265      0.01273      2.06969
    -8.18000      0.01368      2.13402      0.01275      2.07096
    -8.17000      0.01370      2.13539      0.01277      2.07224
    -8.16000      0.01372      2.13676      0.01278      2.07351
    -8.15000      0.01374      2.13813      0.01280      2.07479
    -8.14000      0.01375      2.13950      0.01281      2.07607
    -8.13000      0.01377      2.14088      0.01283      2.07736
    -8.12000      0.01379      2.14226      0.01285      2.07864
    -8.11000      0.01381      2.14364      0.01286      2.07993
    -8.10000      0.01383      2.14502      0.01288      2.08121
    -8.09000      0.01385      2.14640      0.01290      2.08250
    -8.08000      0.01387      2.14779      0.01291      2.08379
    -8.07000      0.01389      2.14918      0.01293      2.08508
    -8.06000      0.01390      2.15056      0.01295      2.08638
    -8.05000      0.01392      2.15196      0.01296      2.08767
    -8.04000      0.01394      2.15335      0.01298      2.08897
    -8.03000      0.01396      2.15474      0.01300      2.09027
    -8.02000      0.01398      2.15614      0.01301      2.09157
    -8.01000      0.01400      2.15754      0.01303      2.09287
    -8.00000      0.01402      2.15894      0.01305      2.09417
    -7.99000      0.01404      2.16034      0.01306      2.09548
    -7.98000      0.01406      2.16175      0.01308      2.09679
    -7.97000      0.01408      2.16315      0.01310      2.09810
    -7.96000      0.01409      2.16456      0.01311      2.09941
    -7.95000      0.01411      2.16597      0.01313      2.10072
    -7.94000      0.01413      2.16739      0.01315      2.10203
    -7.93000      0.01415      2.16880      0.01317      2.10335
    -7.92000      0.01417      2.17022      0.01318      2.10466
    -7.91000      0.01419      2.17163      0.01320      2.10598
    -7.90000      0.01421      2.17305      0.01322      2.10730
    -7.89000      0.01423      2.17448      0.01323      2.10863
    -7.88000      0.01425      2.17590      0.01325      2.10995
    -7.87000      0.01427      2.17733      0.01327      2.11128
    -7.86000      0.01429      2.17875      0.01329      2.11260
    -7.85000      0.01431      2.18018      0.01330      2.11393
    -7.84000      0.01433      2.18161      0.01332      2.11526
    -7.83000      0.01435      2.18305      0.01334      2.11660
    -7.82000      0.01437      2.18448      0.01336      2.11793
    -7.81000      0.01439      2.18592      0.01337      2.11927
    -7.80000      0.01441      2.18736      0.01339      2.12061
    -7.79000      0.01443      2.18880      0.01341      2.12195
    -7.78000      0.01445      2.19025      0.01343      2.12329
    -7.77000      0.01447      2.19169      0.01344      2.12463
    -7.76000      0.01449      2.19314      0.01346      2.12598
    -7.75000      0.01451      2.19459      0.01348      2.12732
    -7.74000      0.01453      2.19604      0.01350      2.12867
    -7.73000      0.01455      2.19750      0.01351      2.13002
    -7.72000      0.01457      2.19895      0.01353      2.13138
    -7.71000      0.01459      2.20041      0.01355      2.13273
    -7.70000      0.01461      2.20187      0.01357      2.13408
    -7.69000      0.01463      2.20333      0.01359      2.13544
    -7.68000      0.01465      2.20479      0.01360      2.13680
    -7.67000      0.01467      2.20626      0.01362      2.13816
    -7.66000      0.01469      2.20773      0.01364      2.13953
    -7.65000      0.01471      2.20920      0.01366      2.14089
    -7.64000      0.01473      2.21067      0.01368      2.14226
    -7.63000      0.01475      2.21215      0.01369      2.14363
    -7.62000      0.01477      2.21362      0.01371      2.14499
    -7.61000      0.01480      2.21510      0.01373      2.14637
    -7.60000      0.01482      2.21658      0.01375      2.14774
    -7.59000      0.01484      2.21806      0.01377      2.14912
    -7.58000      0.01486      2.21955      0.01379      2.15049
    -7.57000      0.01488      2.22103      0.01380      2.15187
    -7.56000      0.01490      2.22252      0.01382      2.15326
    -7.55000      0.01492      2.22401      0.01384      2.15464
    -7.54000      0.01494      2.22551      0.01386      2.15602
    -7.53000      0.01496      2.22700      0.01388      2.15741
    -7.52000      0.01498      2.22850      0.01390      2.15880
    -7.51000      0.01501      2.23000      0.01391      2.16019
    -7.50000      0.01503      2.23150      0.01393      2.16158
    -7.49000      0.01505      2.23300      0.01395      2.16297
    -7.48000      0.01507      2.23451      0.01397      2.16437
    -7.47000      0.01509      2.23602      0.01399      2.16577
    -7.46000      0.01511      2.23753      0.01401      2.16717
    -7.45000      0.01513      2.23904      0.01403      2.16857
    -7.44000      0.01516      2.24055      0.01405      2.16997
    -7.43000      0.01518      2.24207      0.01406      2.17138
    -7.42000      0.01520      2.24359      0.01408      2.17279
    -7.41000      0.01522      2.24511      0.01410      2.17420
    -7.40000      0.01524      2.24663      0.01412      2.17561
    -7.39000      0.01526      2.24816      0.01414      2.17702
    -7.38000      0.01529      2.24968      0.01416      2.17844
    -7.37000      0.01531      2.25121      0.01418      2.17985
    -7.36000      0.01533      2.25275      0.01420      2.18127
    -7.35000      0.01535      2.25428      0.01422      2.18269
    -7.34000      0.01537      2.25582      0.01424      2.18411
    -7.33000      0.01540      2.25735      0.01426      2.18554
    -7.32000      0.01542      2.25889      0.01428      2.18696
    -7.31000      0.01544      2.26044      0.01429      2.18839
    -7.30000      0.01546      2.26198      0.01431      2.18982
    -7.29000      0.01549      2.26353      0.01433      2.19125
    -7.28000      0.01551      2.26508      0.01435      2.19269
    -7.27000      0.01553      2.26663      0.01437      2.19413
    -7.26000      0.01555      2.26818      0.01439      2.19556
    -7.25000      0.01557      2.26974      0.01441      2.19700
    -7.24000      0.01560      2.27130      0.01443      2.19845
    -7.23000      0.01562      2.27286      0.01445      2.19989
    -7.22000      0.01564      2.27442      0.01447      2.20133
    -7.21000      0.01567      2.27599      0.01449      2.20278
    -7.20000      0.01569      2.27756      0.01451      2.20423
    -7.19000      0.01571      2.27913      0.01453      2.20569
    -7.18000      0.01573      2.28070      0.01455      2.20714
    -7.17000      0.01576      2.28227      0.01457      2.20860
    -7.16000      0.01578      2.28385      0.01459      2.21005
    -7.15000      0.01580      2.28543      0.01461      2.21151
    -7.14000      0.01583      2.28701      0.01463      2.21297
    -7.13000      0.01585      2.28859      0.01465      2.21444
    -7.12000      0.01587      2.29018      0.01467      2.21590
    -7.11000      0.01590      2.29177      0.01469      2.21737
    -7.10000      0.01592      2.29336      0.01471      2.21884
    -7.09000      0.01594      2.29495      0.01473      2.22031
    -7.08000      0.01597      2.29655      0.01475      2.22179
    -7.07000      0.01599      2.29814      0.01477      2.22326
    -7.06000      0.01601      2.29974      0.01479      2.22474
    -7.05000      0.01604      2.30134      0.01481      2.22622
    -7.04000      0.01606      2.30295      0.01483      2.22771
    -7.03000      0.01608      2.30456      0.01485      2.22919
    -7.02000      0.01611      2.30617      0.01488      2.23068
    -7.01000      0.01613      2.30778      0.01490      2.23216
    -7.00000      0.01615      2.30939      0.01492      2.23365
    -6.99000      0.01618      2.31101      0.01494      2.23515
    -6.98000      0.01620      2.31263      0.01496      2.23664
    -6.97000      0.01623      2.31425      0.01498      2.23814
    -6.96000      0.01625      2.31587      0.01500      2.23964
    -6.95000      0.01627      2.31750      0.01502      2.24114
    -6.94000      0.01630      2.31913      0.01504      2.24264
    -6.93000      0.01632      2.32076      0.01506      2.24415
    -6.92000      0.01635      2.32239      0.01508      2.24565
    -6.91000      0.01637      2.32403      0.01510      2.24716
    -6.90000      0.01640      2.32567      0.01513      2.24867
    -6.89000      0.01642      2.32731      0.01515      2.25019
    -6.88000      0.01645      2.32895      0.01517      2.25170
    -6.87000      0.01647      2.33059      0.01519      2.25322
    -6.86000      0.01649      2.33224      0.01521      2.25474
    -6.85000      0.01652      2.33389      0.01523      2.25626
    -6.84000      0.01654      2.33555      0.01525      2.25779
    -6.83000      0.01657      2.33720      0.01528      2.25931
    -6.82000      0.01659      2.33886      0.01530      2.26084
    -6.81000      0.01662      2.34052      0.01532      2.26237
    -6.80000      0.01664      2.34218      0.01534      2.26390
    -6.79000      0.01667      2.34385      0.01536      2.26544
    -6.78000      0.01669      2.34552      0.01538      2.26698
    -6.77000      0.01672      2.34719      0.01541      2.26852
    -6.76000      0.01674      2.34886      0.01543      2.27006
    -6.75000      0.01677      2.35053      0.01545      2.27160
    -6.74000      0.01680      2.35221      0.01547      2.27315
    -6.73000      0.01682      2.35389      0.01549      2.27470
    -6.72000      0.01685      2.35558      0.01551      2.27625
    -6.71000      0.01687      2.35726      0.01554      2.27780
    -6.70000      0.01690      2.35895      0.01556      2.27935
    -6.69000      0.01692      2.36064      0.01558      2.28091
    -6.68000      0.01695      2.36234      0.01560      2.28247
    -6.67000      0.01697      2.36403      0.01563      2.28403
    -6.66000      0.01700      2.36573      0.01565      2.28559
    -6.65000      0.01703      2.36743      0.01567      2.28716
    -6.64000      0.01705      2.36913      0.01569      2.28873
    -6.63000      0.01708      2.37084      0.01572      2.29030
    -6.62000      0.01710      2.37255      0.01574      2.29187
    -6.61000      0.01713      2.37426      0.01576      2.29344
    -6.60000      0.01716      2.37597      0.01578      2.29502
    -6.59000      0.01718      2.37769      0.01581      2.29660
    -6.58000      0.01721      2.37941      0.01583      2.29818
    -6.57000      0.01724      2.38113      0.01585      2.29976
    -6.56000      0.01726      2.38286      0.01587      2.30135
    -6.55000      0.01729      2.38458      0.01590      2.30294
    -6.54000      0.01732      2.38631      0.01592      2.30453
    -6.53000      0.01734      2.38805      0.01594      2.30612
    -6.52000      0.01737      2.38978      0.01597      2.30772
    -6.51000      0.01740      2.39152      0.01599      2.30932
    -6.50000      0.01742      2.39326      0.01601      2.31092
    -6.49000      0.01745      2.39500      0.01603      2.31252
    -6.48000      0.01748      2.39675      0.01606      2.31412
    -6.47000      0.01750      2.39850      0.01608      2.31573
    -6.46000      0.01753      2.40025      0.01610      2.31734
    -6.45000      0.01756      2.40201      0.01613      2.31895
    -6.44000      0.01759      2.40376      0.01615      2.32056
    -6.43000      0.01761      2.40552      0.01617      2.32218
    -6.42000      0.01764      2.40728      0.01620      2.32380
    -6.41000      0.01767      2.40905      0.01622      2.32542
    -6.40000      0.01769      2.41082      0.01625      2.32704
    -6.39000      0.01772      2.41259      0.01627      2.32867
    -6.38000      0.01775      2.41436      0.01629      2.33030
    -6.37000      0.01778      2.41614      0.01632      2.33193
    -6.36000      0.01781      2.41792      0.01634      2.33356
    -6.35000      0.01783      2.41970      0.01636      2.33519
    -6.34000      0.01786      2.42148      0.01639      2.33683
    -6.33000      0.01789      2.42327      0.01641      2.33847
    -6.32000      0.01792      2.42506      0.01644      2.34011
    -6.31000      0.01795      2.42685      0.01646      2.34176
    -6.30000      0.01797      2.42865      0.01648      2.34341
    -6.29000      0.01800      2.43045      0.01651      2.34505
    -6.28000      0.01803      2.43225      0.01653      2.34671
    -6.27000      0.01806      2.43405      0.01656      2.34836
    -6.26000      0.01809      2.43586      0.01658      2.35002
    -6.25000      0.01812      2.43767      0.01661      2.35168
    -6.24000      0.01814      2.43948      0.01663      2.35334
    -6.23000      0.01817      2.44130      0.01666      2.35500
    -6.22000      0.01820      2.44312      0.01668      2.35667
    -6.21000      0.01823      2.44494      0.01670      2.35834
    -6.20000      0.01826      2.44676      0.01673      2.36001
    -6.19000      0.01829      2.44859      0.01675      2.36168
    -6.18000      0.01832      2.45042      0.01678      2.36336
    -6.17000      0.01835      2.45225      0.01680      2.36504
    -6.16000      0.01838      2.45409      0.01683      2.36672
    -6.15000      0.01841      2.45593      0.01685      2.36840
    -6.14000      0.01844      2.45777      0.01688      2.37009
    -6.13000      0.01846      2.45962      0.01690      2.37178
    -6.12000      0.01849      2.46146      0.01693      2.37347
    -6.11000      0.01852      2.46331      0.01695      2.37517
    -6.10000      0.01855      2.46517      0.01698      2.37686
    -6.09000      0.01858      2.46702      0.01701      2.37856
    -6.08000      0.01861      2.46888      0.01703      2.38026
    -6.07000      0.01864      2.47075      0.01706      2.38197
    -6.06000      0.01867      2.47261      0.01708      2.38367
    -6.05000      0.01870      2.47448      0.01711      2.38538
    -6.04000      0.01873      2.47635      0.01713      2.38710
    -6.03000      0.01876      2.47823      0.01716      2.38881
    -6.02000      0.01879      2.48010      0.01718      2.39053
    -6.01000      0.01882      2.48198      0.01721      2.39225
    -6.00000      0.01885      2.48387      0.01724      2.39397
    -5.99000      0.01889      2.48575      0.01726      2.39569
    -5.98000      0.01892      2.48764      0.01729      2.39742
    -5.97000      0.01895      2.48954      0.01731      2.39915
    -5.96000      0.01898      2.49143      0.01734      2.40088
    -5.95000      0.01901      2.49333      0.01737      2.40262
    -5.94000      0.01904      2.49523      0.01739      2.40436
    -5.93000      0.01907      2.49714      0.01742      2.40610
    -5.92000      0.01910      2.49905      0.01745      2.40784
    -5.91000      0.01913      2.50096      0.01747      2.40959
    -5.90000      0.01916      2.50287      0.01750      2.41133
    -5.89000      0.01920      2.50479      0.01753      2.41308
    -5.88000      0.01923      2.50671      0.01755      2.41484
    -5.87000      0.01926      2.50864      0.01758      2.41659
    -5.86000      0.01929      2.51056      0.01761      2.41835
    -5.85000      0.01932      2.51249      0.01763      2.42011
    -5.84000      0.01935      2.51443      0.01766      2.42188
    -5.83000      0.01939      2.51636      0.01769      2.42365
    -5.82000      0.01942      2.51830      0.01771      2.42542
    -5.81000      0.01945      2.52025      0.01774      2.42719
    -5.80000      0.01948      2.52219      0.01777      2.42896
    -5.79000      0.01951      2.52414      0.01780      2.43074
    -5.78000      0.01955      2.52610      0.01782      2.43252
    -5.77000      0.01958      2.52805      0.01785      2.43431
    -5.76000      0.01961      2.53001      0.01788      2.43609
    -5.75000      0.01964      2.53197      0.01791      2.43788
    -5.74000      0.01968      2.53394      0.01793      2.43967
    -5.73000      0.01971      2.53591      0.01796      2.44147
    -5.72000      0.01974      2.53788      0.01799      2.44327
    -5.71000      0.01977      2.53985      0.01802      2.44507
    -5.70000      0.01981      2.54183      0.01804      2.44687
    -5.69000      0.01984      2.54382      0.01807      2.44867
    -5.68000      0.01987      2.54580      0.01810      2.45048
    -5.67000      0.01991      2.54779      0.01813      2.45229
    -5.66000      0.01994      2.54978      0.01816      2.45411
    -5.65000      0.01997      2.55178      0.01818      2.45592
    -5.64000      0.02001      2.55378      0.01821      2.45774
    -5.63000      0.02004      2.55578      0.01824      2.45957
    -5.62000      0.02007      2.55778      0.01827      2.46139
    -5.61000      0.02011      2.55979      0.01830      2.46322
    -5.60000      0.02014      2.56180      0.01833      2.46505
    -5.59000      0.02017      2.56382      0.01835      2.46688
    -5.58000      0.02021      2.56584      0.01838      2.46872
    -5.57000      0.02024      2.56786      0.01841      2.47056
    -5.56000      0.02028      2.56989      0.01844      2.47240
    -5.55000      0.02031      2.57191      0.01847      2.47425
    -5.54000      0.02035      2.57395      0.01850      2.47609
    -5.53000      0.02038      2.57598      0.01853      2.47795
    -5.52000      0.02041      2.57802      0.01856      2.47980
    -5.51000      0.02045      2.58007      0.01859      2.48166
    -5.50000      0.02048      2.58211      0.01861      2.48352
    -5.49000      0.02052      2.58416      0.01864      2.48538
    -5.48000      0.02055      2.58622      0.01867      2.48724
    -5.47000      0.02059      2.58827      0.01870      2.48911
    -5.46000      0.02062      2.59033      0.01873      2.49099
    -5.45000      0.02066      2.59240      0.01876      2.49286
    -5.44000      0.02069      2.59446      0.01879      2.49474
    -5.43000      0.02073      2.59653      0.01882      2.49662
    -5.42000      0.02077      2.59861      0.01885      2.49850
    -5.41000      0.02080      2.60069      0.01888      2.50039
    -5.40000      0.02084      2.60277      0.01891      2.50228
    -5.39000      0.02087      2.60485      0.01894      2.50417
    -5.38000      0.02091      2.60694      0.01897      2.50606
    -5.37000      0.02094      2.60904      0.01900      2.50796
    -5.36000      0.02098      2.61113      0.01903      2.50986
    -5.35000      0.02102      2.61323      0.01906      2.51177
    -5.34000      0.02105      2.61533      0.01909      2.51368
    -5.33000      0.02109      2.61744      0.01912      2.51559
    -5.32000      0.02113      2.61955      0.01915      2.51750
    -5.31000      0.02116      2.62167      0.01918      2.51942
    -5.30000      0.02120      2.62378      0.01921      2.52134
    -5.29000      0.02124      2.62590      0.01925      2.52326
    -5.28000      0.02127      2.62803      0.01928      2.52518
    -5.27000      0.02131      2.63016      0.01931      2.52711
    -5.26000      0.02135      2.63229      0.01934      2.52904
    -5.25000      0.02138      2.63443      0.01937      2.53098
    -5.24000      0.02142      2.63657      0.01940      2.53292
    -5.23000      0.02146      2.63871      0.01943      2.53486
    -5.22000      0.02150      2.64086      0.01946      2.53680
    -5.21000      0.02153      2.64301      0.01949      2.53875
    -5.20000      0.02157      2.64516      0.01953      2.54070
    -5.19000      0.02161      2.64732      0.01956      2.54266
    -5.18000      0.02165      2.64949      0.01959      2.54461
    -5.17000      0.02169      2.65165      0.01962      2.54657
    -5.16000      0.02172      2.65382      0.01965      2.54854
    -5.15000      0.02176      2.65600      0.01968      2.55050
    -5.14000      0.02180      2.65817      0.01972      2.55247
    -5.13000      0.02184      2.66036      0.01975      2.55445
    -5.12000      0.02188      2.66254      0.01978      2.55642
    -5.11000      0.02192      2.66473      0.01981      2.55840
    -5.10000      0.02196      2.66692      0.01984      2.56038
    -5.09000      0.02199      2.66912      0.01988      2.56237
    -5.08000      0.02203      2.67132      0.01991      2.56436
    -5.07000      0.02207      2.67353      0.01994      2.56635
    -5.06000      0.02211      2.67574      0.01997      2.56835
    -5.05000      0.02215      2.67795      0.02001      2.57035
    -5.04000      0.02219      2.68017      0.02004      2.57235
    -5.03000      0.02223      2.68239      0.02007      2.57435
    -5.02000      0.02227      2.68461      0.02011      2.57636
    -5.01000      0.02231      2.68684      0.02014      2.57837
    -5.00000      0.02235      2.68907      0.02017      2.58039
    -4.99000      0.02239      2.69131      0.02021      2.58241
    -4.98000      0.02243      2.69355      0.02024      2.58443
    -4.97000      0.02247      2.69580      0.02027      2.58645
    -4.96000      0.02251      2.69804      0.02031      2.58848
    -4.95000      0.02255      2.70030      0.02034      2.59051
    -4.94000      0.02259      2.70255      0.02037      2.59255
    -4.93000      0.02263      2.70482      0.02041      2.59459
    -4.92000      0.02267      2.70708      0.02044      2.59663
    -4.91000      0.02272      2.70935      0.02047      2.59868
    -4.90000      0.02276      2.71162      0.02051      2.60073
    -4.89000      0.02280      2.71390      0.02054      2.60278
    -4.88000      0.02284      2.71618      0.02058      2.60483
    -4.87000      0.02288      2.71847      0.02061      2.60689
    -4.86000      0.02292      2.72076      0.02064      2.60896
    -4.85000      0.02296      2.72305      0.02068      2.61102
    -4.84000      0.02301      2.72535      0.02071      2.61309
    -4.83000      0.02305      2.72765      0.02075      2.61516
    -4.82000      0.02309      2.72996      0.02078      2.61724
    -4.81000      0.02313      2.73227      0.02082      2.61932
    -4.80000      0.02317      2.73458      0.02085      2.62140
    -4.79000      0.02322      2.73690      0.02089      2.62349
    -4.78000      0.02326      2.73922      0.02092      2.62558
    -4.77000      0.02330      2.74155      0.02096      2.62767
    -4.76000      0.02335      2.74389      0.02099      2.62977
    -4.75000      0.02339      2.74622      0.02103      2.63187
    -4.74000      0.02343      2.74856      0.02106      2.63398
    -4.73000      0.02347      2.75091      0.02110      2.63608
    -4.72000      0.02352      2.75326      0.02114      2.63820
    -4.71000      0.02356      2.75561      0.02117      2.64031
    -4.70000      0.02360      2.75797      0.02121      2.64243
    -4.69000      0.02365      2.76033      0.02124      2.64455
    -4.68000      0.02369      2.76270      0.02128      2.64668
    -4.67000      0.02374      2.76507      0.02131      2.64881
    -4.66000      0.02378      2.76744      0.02135      2.65094
    -4.65000      0.02383      2.76982      0.02139      2.65308
    -4.64000      0.02387      2.77221      0.02142      2.65522
    -4.63000      0.02391      2.77459      0.02146      2.65736
    -4.62000      0.02396      2.77699      0.02150      2.65951
    -4.61000      0.02400      2.77939      0.02153      2.66166
    -4.60000      0.02405      2.78179      0.02157      2.66381
    -4.59000      0.02409      2.78419      0.02161      2.66597
    -4.58000      0.02414      2.78661      0.02164      2.66813
    -4.57000      0.02418      2.78902      0.02168      2.67030
    -4.56000      0.02423      2.79144      0.02172      2.67247
    -4.55000      0.02428      2.79387      0.02176      2.67464
    -4.54000      0.02432      2.79629      0.02179      2.67682
    -4.53000      0.02437      2.79873      0.02183      2.67900
    -4.52000      0.02441      2.80117      0.02187      2.68118
    -4.51000      0.02446      2.80361      0.02191      2.68337
    -4.50000      0.02451      2.80606      0.02194      2.68557
    -4.49000      0.02455      2.80851      0.02198      2.68776
    -4.48000      0.02460      2.81097      0.02202      2.68996
    -4.47000      0.02465      2.81343      0.02206      2.69216
    -4.46000      0.02469      2.81590      0.02210      2.69437
    -4.45000      0.02474      2.81837      0.02213      2.69658
    -4.44000      0.02479      2.82084      0.02217      2.69880
    -4.43000      0.02483      2.82332      0.02221      2.70102
    -4.42000      0.02488      2.82581      0.02225      2.70324
    -4.41000      0.02493      2.82830      0.02229      2.70547
    -4.40000      0.02498      2.83079      0.02233      2.70770
    -4.39000      0.02502      2.83329      0.02237      2.70993
    -4.38000      0.02507      2.83580      0.02241      2.71217
    -4.37000      0.02512      2.83831      0.02244      2.71441
    -4.36000      0.02517      2.84082      0.02248      2.71666
    -4.35000      0.02522      2.84334      0.02252      2.71891
    -4.34000      0.02527      2.84586      0.02256      2.72116
    -4.33000      0.02532      2.84839      0.02260      2.72342
    -4.32000      0.02536      2.85093      0.02264      2.72568
    -4.31000      0.02541      2.85346      0.02268      2.72795
    -4.30000      0.02546      2.85601      0.02272      2.73022
    -4.29000      0.02551      2.85856      0.02276      2.73249
    -4.28000      0.02556      2.86111      0.02280      2.73477
    -4.27000      0.02561      2.86367      0.02284      2.73705
    -4.26000      0.02566      2.86623      0.02288      2.73934
    -4.25000      0.02571      2.86880      0.02292      2.74163
    -4.24000      0.02576      2.87137      0.02296      2.74392
    -4.23000      0.02581      2.87395      0.02300      2.74622
    -4.22000      0.02586      2.87653      0.02304      2.74852
    -4.21000      0.02591      2.87912      0.02309      2.75083
    -4.20000      0.02596      2.88171      0.02313      2.75314
    -4.19000      0.02602      2.88431      0.02317      2.75545
    -4.18000      0.02607      2.88692      0.02321      2.75777
    -4.17000      0.02612      2.88952      0.02325      2.76009
    -4.16000      0.02617      2.89214      0.02329      2.76242
    -4.15000      0.02622      2.89476      0.02333      2.76475
    -4.14000      0.02627      2.89738      0.02338      2.76708
    -4.13000      0.02632      2.90001      0.02342      2.76942
    -4.12000      0.02638      2.90265      0.02346      2.77177
    -4.11000      0.02643      2.90529      0.02350      2.77411
    -4.10000      0.02648      2.90793      0.02354      2.77647
    -4.09000      0.02653      2.91058      0.02359      2.77882
    -4.08000      0.02659      2.91324      0.02363      2.78118
    -4.07000      0.02664      2.91590      0.02367      2.78355
    -4.06000      0.02669      2.91856      0.02371      2.78592
    -4.05000      0.02675      2.92123      0.02376      2.78829
    -4.04000      0.02680      2.92391      0.02380      2.79067
    -4.03000      0.02685      2.92659      0.02384      2.79305
    -4.02000      0.02691      2.92928      0.02388      2.79543
    -4.01000      0.02696      2.93197      0.02393      2.79782
    -4.00000      0.02702      2.93467      0.02397      2.80022
    -3.99000      0.02707      2.93738      0.02402      2.80262
    -3.98000      0.02713      2.94009      0.02406      2.80502
    -3.97000      0.02718      2.94280      0.02410      2.80743
    -3.96000      0.02724      2.94552      0.02415      2.80984
    -3.95000      0.02729      2.94825      0.02419      2.81226
    -3.94000      0.02735      2.95098      0.02423      2.81468
    -3.93000      0.02740      2.95371      0.02428      2.81710
    -3.92000      0.02746      2.95646      0.02432      2.81953
    -3.91000      0.02751      2.95920      0.02437      2.82197
    -3.90000      0.02757      2.96196      0.02441      2.82441
    -3.89000      0.02763      2.96472      0.02446      2.82685
    -3.88000      0.02768      2.96748      0.02450      2.82930
    -3.87000      0.02774      2.97025      0.02455      2.83175
    -3.86000      0.02780      2.97303      0.02459      2.83420
    -3.85000      0.02785      2.97581      0.02464      2.83667
    -3.84000      0.02791      2.97860      0.02468      2.83913
    -3.83000      0.02797      2.98139      0.02473      2.84160
    -3.82000      0.02802      2.98419      0.02477      2.84408
    -3.81000      0.02808      2.98699      0.02482      2.84656
    -3.80000      0.02814      2.98980      0.02487      2.84904
    -3.79000      0.02820      2.99262      0.02491      2.85153
    -3.78000      0.02826      2.99544      0.02496      2.85402
    -3.77000      0.02832      2.99827      0.02501      2.85652
    -3.76000      0.02837      3.00110      0.02505      2.85902
    -3.75000      0.02843      3.00395      0.02510      2.86153
    -3.74000      0.02849      3.00679      0.02515      2.86404
    -3.73000      0.02855      3.00964      0.02519      2.86656
    -3.72000      0.02861      3.01250      0.02524      2.86908
    -3.71000      0.02867      3.01536      0.02529      2.87160
    -3.70000      0.02873      3.01823      0.02533      2.87413
    -3.69000      0.02879      3.02111      0.02538      2.87667
    -3.68000      0.02885      3.02399      0.02543      2.87921
    -3.67000      0.02891      3.02688      0.02548      2.88175
    -3.66000      0.02897      3.02977      0.02552      2.88430
    -3.65000      0.02903      3.03267      0.02557      2.88686
    -3.64000      0.02910      3.03558      0.02562      2.88942
    -3.63000      0.02916      3.03849      0.02567      2.89198
    -3.62000      0.02922      3.04141      0.02572      2.89455
    -3.61000      0.02928      3.04433      0.02577      2.89712
    -3.60000      0.02934      3.04726      0.02581      2.89970
    -3.59000      0.02940      3.05020      0.02586      2.90228
    -3.58000      0.02947      3.05314      0.02591      2.90487
    -3.57000      0.02953      3.05609      0.02596      2.90747
    -3.56000      0.02959      3.05904      0.02601      2.91007
    -3.55000      0.02966      3.06201      0.02606      2.91267
    -3.54000      0.02972      3.06497      0.02611      2.91528
    -3.53000      0.02978      3.06795      0.02616      2.91789
    -3.52000      0.02985      3.07093      0.02621      2.92051
    -3.51000      0.02991      3.07392      0.02626      2.92313
    -3.50000      0.02997      3.07691      0.02631      2.92576
    -3.49000      0.03004      3.07991      0.02636      2.92839
    -3.48000      0.03010      3.08292      0.02641      2.93103
    -3.47000      0.03017      3.08593      0.02646      2.93367
    -3.46000      0.03023      3.08895      0.02651      2.93632
    -3.45000      0.03030      3.09197      0.02656      2.93897
    -3.44000      0.03036      3.09501      0.02662      2.94163
    -3.43000      0.03043      3.09804      0.02667      2.94430
    -3.42000      0.03050      3.10109      0.02672      2.94696
    -3.41000      0.03056      3.10414      0.02677      2.94964
    -3.40000      0.03063      3.10720      0.02682      2.95232
    -3.39000      0.03070      3.11027      0.02687      2.95500
    -3.38000      0.03076      3.11334      0.02693      2.95769
    -3.37000      0.03083      3.11642      0.02698      2.96039
    -3.36000      0.03090      3.11950      0.02703      2.96309
    -3.35000      0.03097      3.12260      0.02708      2.96579
    -3.34000      0.03103      3.12570      0.02714      2.96850
    -3.33000      0.03110      3.12880      0.02719      2.97122
    -3.32000      0.03117      3.13191      0.02724      2.97394
    -3.31000      0.03124      3.13503      0.02729      2.97666
    -3.30000      0.03131      3.13816      0.02735      2.97940
    -3.29000      0.03138      3.14129      0.02740      2.98213
    -3.28000      0.03145      3.14443      0.02746      2.98487
    -3.27000      0.03152      3.14758      0.02751      2.98762
    -3.26000      0.03159      3.15074      0.02756      2.99038
    -3.25000      0.03166      3.15390      0.02762      2.99313
    -3.24000      0.03173      3.15707      0.02767      2.99590
    -3.23000      0.03180      3.16024      0.02773      2.99867
    -3.22000      0.03187      3.16342      0.02778      3.00144
    -3.21000      0.03194      3.16661      0.02784      3.00422
    -3.20000      0.03201      3.16981      0.02789      3.00701
    -3.19000      0.03208      3.17302      0.02795      3.00980
    -3.18000      0.03216      3.17623      0.02800      3.01260
    -3.17000      0.03223      3.17944      0.02806      3.01540
    -3.16000      0.03230      3.18267      0.02811      3.01821
    -3.15000      0.03238      3.18590      0.02817      3.02102
    -3.14000      0.03245      3.18914      0.02823      3.02384
    -3.13000      0.03252      3.19239      0.02828      3.02666
    -3.12000      0.03260      3.19565      0.02834      3.02949
    -3.11000      0.03267      3.19891      0.02839      3.03233
    -3.10000      0.03274      3.20218      0.02845      3.03517
    -3.09000      0.03282      3.20546      0.02851      3.03802
    -3.08000      0.03289      3.20874      0.02857      3.04087
    -3.07000      0.03297      3.21203      0.02862      3.04373
    -3.06000      0.03304      3.21533      0.02868      3.04660
    -3.05000      0.03312      3.21864      0.02874      3.04947
    -3.04000      0.03320      3.22195      0.02880      3.05234
    -3.03000      0.03327      3.22528      0.02885      3.05522
    -3.02000      0.03335      3.22861      0.02891      3.05811
    -3.01000      0.03343      3.23194      0.02897      3.06101
    -3.00000      0.03350      3.23529      0.02903      3.06390
    -2.99000      0.03358      3.23864      0.02909      3.06681
    -2.98000      0.03366      3.24200      0.02915      3.06972
    -2.97000      0.03374      3.24537      0.02921      3.07264
    -2.96000      0.03381      3.24875      0.02927      3.07556
    -2.95000      0.03389      3.25213      0.02933      3.07849
    -2.94000      0.03397      3.25552      0.02939      3.08143
    -2.93000      0.03405      3.25892      0.02945      3.08437
    -2.92000      0.03413      3.26233      0.02951      3.08731
    -2.91000      0.03421      3.26575      0.02957      3.09027
    -2.90000      0.03429      3.26917      0.02963      3.09323
    -2.89000      0.03437      3.27260      0.02969      3.09619
    -2.88000      0.03445      3.27604      0.02975      3.09916
    -2.87000      0.03453      3.27949      0.02981      3.10214
    -2.86000      0.03461      3.28295      0.02987      3.10512
    -2.85000      0.03470      3.28641      0.02993      3.10811
    -2.84000      0.03478      3.28989      0.03000      3.11111
    -2.83000      0.03486      3.29337      0.03006      3.11411
    -2.82000      0.03494      3.29686      0.03012      3.11712
    -2.81000      0.03503      3.30035      0.03018      3.12013
    -2.80000      0.03511      3.30386      0.03024      3.12315
    -2.79000      0.03519      3.30737      0.03031      3.12618
    -2.78000      0.03528      3.31090      0.03037      3.12921
    -2.77000      0.03536      3.31443      0.03043      3.13225
    -2.76000      0.03545      3.31797      0.03050      3.13530
    -2.75000      0.03553      3.32151      0.03056      3.13835
    -2.74000      0.03562      3.32507      0.03062      3.14141
    -2.73000      0.03570      3.32863      0.03069      3.14448
    -2.72000      0.03579      3.33221      0.03075      3.14755
    -2.71000      0.03587      3.33579      0.03082      3.15062
    -2.70000      0.03596      3.33938      0.03088      3.15371
    -2.69000      0.03605      3.34298      0.03095      3.15680
    -2.68000      0.03614      3.34659      0.03101      3.15990
    -2.67000      0.03622      3.35020      0.03108      3.16300
    -2.66000      0.03631      3.35383      0.03114      3.16611
    -2.65000      0.03640      3.35746      0.03121      3.16923
    -2.64000      0.03649      3.36111      0.03127      3.17235
    -2.63000      0.03658      3.36476      0.03134      3.17548
    -2.62000      0.03667      3.36842      0.03141      3.17862
    -2.61000      0.03676      3.37209      0.03147      3.18176
    -2.60000      0.03685      3.37577      0.03154      3.18491
    -2.59000      0.03694      3.37946      0.03161      3.18807
    -2.58000      0.03703      3.38316      0.03168      3.19123
    -2.57000      0.03712      3.38686      0.03174      3.19440
    -2.56000      0.03721      3.39058      0.03181      3.19758
    -2.55000      0.03731      3.39430      0.03188      3.20076
    -2.54000      0.03740      3.39804      0.03195      3.20395
    -2.53000      0.03749      3.40178      0.03202      3.20715
    -2.52000      0.03758      3.40553      0.03208      3.21035
    -2.51000      0.03768      3.40929      0.03215      3.21356
    -2.50000      0.03777      3.41306      0.03222      3.21678
    -2.49000      0.03787      3.41684      0.03229      3.22001
    -2.48000      0.03796      3.42064      0.03236      3.22324
    -2.47000      0.03806      3.42443      0.03243      3.22648
    -2.46000      0.03815      3.42824      0.03250      3.22972
    -2.45000      0.03825      3.43206      0.03257      3.23298
    -2.44000      0.03835      3.43589      0.03264      3.23624
    -2.43000      0.03844      3.43973      0.03271      3.23950
    -2.42000      0.03854      3.44358      0.03278      3.24278
    -2.41000      0.03864      3.44743      0.03286      3.24606
    -2.40000      0.03874      3.45130      0.03293      3.24935
    -2.39000      0.03883      3.45518      0.03300      3.25264
    -2.38000      0.03893      3.45906      0.03307      3.25595
    -2.37000      0.03903      3.46296      0.03314      3.25926
    -2.36000      0.03913      3.46687      0.03322      3.26257
    -2.35000      0.03923      3.47079      0.03329      3.26590
    -2.34000      0.03933      3.47471      0.03336      3.26923
    -2.33000      0.03943      3.47865      0.03344      3.27257
    -2.32000      0.03954      3.48260      0.03351      3.27591
    -2.31000      0.03964      3.48655      0.03358      3.27927
    -2.30000      0.03974      3.49052      0.03366      3.28263
    -2.29000      0.03984      3.49450      0.03373      3.28600
    -2.28000      0.03995      3.49849      0.03381      3.28938
    -2.27000      0.04005      3.50249      0.03388      3.29276
    -2.26000      0.04015      3.50649      0.03396      3.29615
    -2.25000      0.04026      3.51051      0.03403      3.29955
    -2.24000      0.04036      3.51454      0.03411      3.30296
    -2.23000      0.04047      3.51858      0.03418      3.30637
    -2.22000      0.04058      3.52263      0.03426      3.30979
    -2.21000      0.04068      3.52670      0.03434      3.31322
    -2.20000      0.04079      3.53077      0.03441      3.31665
    -2.19000      0.04090      3.53485      0.03449      3.32010
    -2.18000      0.04101      3.53894      0.03457      3.32355
    -2.17000      0.04111      3.54305      0.03465      3.32701
    -2.16000      0.04122      3.54716      0.03472      3.33048
    -2.15000      0.04133      3.55129      0.03480      3.33395
    -2.14000      0.04144      3.55543      0.03488      3.33744
    -2.13000      0.04155      3.55958      0.03496      3.34093
    -2.12000      0.04166      3.56373      0.03504      3.34443
    -2.11000      0.04178      3.56791      0.03512      3.34793
    -2.10000      0.04189      3.57209      0.03520      3.35145
    -2.09000      0.04200      3.57628      0.03528      3.35497
    -2.08000      0.04211      3.58048      0.03536      3.35850
    -2.07000      0.04223      3.58470      0.03544      3.36204
    -2.06000      0.04234      3.58893      0.03552      3.36559
    -2.05000      0.04245      3.59316      0.03560      3.36914
    -2.04000      0.04257      3.59741      0.03568      3.37271
    -2.03000      0.04269      3.60167      0.03576      3.37628
    -2.02000      0.04280      3.60595      0.03584      3.37986
    -2.01000      0.04292      3.61023      0.03593      3.38345
    -2.00000      0.04303      3.61453      0.03601      3.38704
    -1.99000      0.04315      3.61883      0.03609      3.39064
    -1.98000      0.04327      3.62315      0.03618      3.39426
    -1.97000      0.04339      3.62748      0.03626      3.39788
    -1.96000      0.04351      3.63183      0.03634      3.40151
    -1.95000      0.04363      3.63618      0.03643      3.40514
    -1.94000      0.04375      3.64055      0.03651      3.40879
    -1.93000      0.04387      3.64493      0.03660      3.41244
    -1.92000      0.04399      3.64932      0.03668      3.41611
    -1.91000      0.04411      3.65372      0.03677      3.41978
    -1.90000      0.04424      3.65814      0.03685      3.42346
    -1.89000      0.04436      3.66257      0.03694      3.42714
    -1.88000      0.04448      3.66701      0.03702      3.43084
    -1.87000      0.04461      3.67146      0.03711      3.43455
    -1.86000      0.04473      3.67592      0.03720      3.43826
    -1.85000      0.04486      3.68040      0.03729      3.44199
    -1.84000      0.04499      3.68489      0.03737      3.44572
    -1.83000      0.04511      3.68939      0.03746      3.44946
    -1.82000      0.04524      3.69391      0.03755      3.45321
    -1.81000      0.04537      3.69844      0.03764      3.45697
    -1.80000      0.04550      3.70298      0.03773      3.46073
    -1.79000      0.04563      3.70753      0.03782      3.46451
    -1.78000      0.04576      3.71210      0.03791      3.46829
    -1.77000      0.04589      3.71668      0.03800      3.47209
    -1.76000      0.04602      3.72127      0.03809      3.47589
    -1.75000      0.04615      3.72588      0.03818      3.47970
    -1.74000      0.04628      3.73050      0.03827      3.48352
    -1.73000      0.04642      3.73513      0.03836      3.48735
    -1.72000      0.04655      3.73978      0.03845      3.49119
    -1.71000      0.04668      3.74444      0.03854      3.49504
    -1.70000      0.04682      3.74911      0.03863      3.49890
    -1.69000      0.04695      3.75380      0.03873      3.50277
    -1.68000      0.04709      3.75850      0.03882      3.50664
    -1.67000      0.04723      3.76321      0.03891      3.51053
    -1.66000      0.04737      3.76794      0.03901      3.51442
    -1.65000      0.04750      3.77268      0.03910      3.51833
    -1.64000      0.04764      3.77743      0.03920      3.52224
    -1.63000      0.04778      3.78220      0.03929      3.52617
    -1.62000      0.04792      3.78699      0.03939      3.53010
    -1.61000      0.04807      3.79178      0.03948      3.53404
    -1.60000      0.04821      3.79660      0.03958      3.53799
    -1.59000      0.04835      3.80142      0.03967      3.54195
    -1.58000      0.04849      3.80626      0.03977      3.54592
    -1.57000      0.04864      3.81111      0.03987      3.54990
    -1.56000      0.04878      3.81598      0.03997      3.55389
    -1.55000      0.04893      3.82086      0.04006      3.55789
    -1.54000      0.04907      3.82576      0.04016      3.56191
    -1.53000      0.04922      3.83068      0.04026      3.56592
    -1.52000      0.04937      3.83560      0.04036      3.56995
    -1.51000      0.04952      3.84054      0.04046      3.57399
    -1.50000      0.04967      3.84550      0.04056      3.57804
    -1.49000      0.04982      3.85047      0.04066      3.58210
    -1.48000      0.04997      3.85546      0.04076      3.58617
    -1.47000      0.05012      3.86046      0.04086      3.59025
    -1.46000      0.05027      3.86548      0.04096      3.59434
    -1.45000      0.05043      3.87051      0.04106      3.59844
    -1.44000      0.05058      3.87556      0.04117      3.60255
    -1.43000      0.05074      3.88062      0.04127      3.60667
    -1.42000      0.05089      3.88570      0.04137      3.61080
    -1.41000      0.05105      3.89079      0.04147      3.61494
    -1.40000      0.05121      3.89590      0.04158      3.61909
    -1.39000      0.05136      3.90103      0.04168      3.62326
    -1.38000      0.05152      3.90617      0.04179      3.62743
    -1.37000      0.05168      3.91133      0.04189      3.63161
    -1.36000      0.05184      3.91650      0.04200      3.63580
    -1.35000      0.05201      3.92169      0.04210      3.64001
    -1.34000      0.05217      3.92690      0.04221      3.64422
    -1.33000      0.05233      3.93212      0.04232      3.64845
    -1.32000      0.05250      3.93736      0.04242      3.65268
    -1.31000      0.05266      3.94262      0.04253      3.65693
    -1.30000      0.05283      3.94788      0.04264      3.66118
    -1.29000      0.05300      3.95317      0.04275      3.66545
    -1.28000      0.05316      3.95848      0.04286      3.66973
    -1.27000      0.05333      3.96380      0.04297      3.67402
    -1.26000      0.05350      3.96914      0.04308      3.67832
    -1.25000      0.05367      3.97449      0.04319      3.68263
    -1.24000      0.05384      3.97987      0.04330      3.68696
    -1.23000      0.05402      3.98526      0.04341      3.69129
    -1.22000      0.05419      3.99066      0.04352      3.69564
    -1.21000      0.05437      3.99609      0.04363      3.69999
    -1.20000      0.05454      4.00153      0.04375      3.70436
    -1.19000      0.05472      4.00699      0.04386      3.70874
    -1.18000      0.05490      4.01247      0.04397      3.71313
    -1.17000      0.05507      4.01796      0.04409      3.71753
    -1.16000      0.05525      4.02348      0.04420      3.72194
    -1.15000      0.05543      4.02901      0.04432      3.72637
    -1.14000      0.05562      4.03455      0.04443      3.73080
    -1.13000      0.05580      4.04012      0.04455      3.73525
    -1.12000      0.05598      4.04571      0.04466      3.73971
    -1.11000      0.05617      4.05131      0.04478      3.74418
    -1.10000      0.05635      4.05693      0.04490      3.74866
    -1.09000      0.05654      4.06257      0.04502      3.75315
    -1.08000      0.05673      4.06823      0.04513      3.75766
    -1.07000      0.05692      4.07391      0.04525      3.76218
    -1.06000      0.05711      4.07961      0.04537      3.76671
    -1.05000      0.05730      4.08533      0.04549      3.77125
    -1.04000      0.05749      4.09106      0.04561      3.77580
    -1.03000      0.05768      4.09682      0.04573      3.78037
    -1.02000      0.05788      4.10259      0.04586      3.78495
    -1.01000      0.05807      4.10839      0.04598      3.78954
    -1.00000      0.05827      4.11420      0.04610      3.79414
    -0.99000      0.05847      4.12003      0.04622      3.79875
    -0.98000      0.05867      4.12589      0.04635      3.80338
    -0.97000      0.05887      4.13176      0.04647      3.80802
    -0.96000      0.05907      4.13765      0.04659      3.81267
    -0.95000      0.05927      4.14356      0.04672      3.81733
    -0.94000      0.05948      4.14950      0.04685      3.82201
    -0.93000      0.05968      4.15545      0.04697      3.82670
    -0.92000      0.05989      4.16142      0.04710      3.83140
    -0.91000      0.06010      4.16742      0.04723      3.83611
    -0.90000      0.06031      4.17344      0.04735      3.84084
    -0.89000      0.06052      4.17947      0.04748      3.84558
    -0.88000      0.06073      4.18553      0.04761      3.85034
    -0.87000      0.06094      4.19161      0.04774      3.85510
    -0.86000      0.06115      4.19771      0.04787      3.85988
    -0.85000      0.06137      4.20383      0.04800      3.86467
    -0.84000      0.06159      4.20997      0.04813      3.86947
    -0.83000      0.06181      4.21614      0.04827      3.87429
    -0.82000      0.06203      4.22233      0.04840      3.87913
    -0.81000      0.06225      4.22854      0.04853      3.88397
    -0.80000      0.06247      4.23477      0.04866      3.88883
    -0.79000      0.06269      4.24102      0.04880      3.89370
    -0.78000      0.06292      4.24730      0.04893      3.89858
    -0.77000      0.06314      4.25360      0.04907      3.90348
    -0.76000      0.06337      4.25991      0.04920      3.90839
    -0.75000      0.06360      4.26626      0.04934      3.91332
    -0.74000      0.06383      4.27263      0.04948      3.91826
    -0.73000      0.06407      4.27902      0.04962      3.92321
    -0.72000      0.06430      4.28543      0.04975      3.92817
    -0.71000      0.06453      4.29187      0.04989      3.93316
    -0.70000      0.06477      4.29832      0.05003      3.93815
    -0.69000      0.06501      4.30481      0.05017      3.94316
    -0.68000      0.06525      4.31132      0.05031      3.94818
    -0.67000      0.06549      4.31785      0.05046      3.95322
    -0.66000      0.06574      4.32441      0.05060      3.95827
    -0.65000      0.06598      4.33099      0.05074      3.96333
    -0.64000      0.06623      4.33759      0.05089      3.96841
    -0.63000      0.06648      4.34422      0.05103      3.97351
    -0.62000      0.06672      4.35088      0.05117      3.97861
    -0.61000      0.06698      4.35756      0.05132      3.98374
    -0.60000      0.06723      4.36426      0.05147      3.98887
    -0.59000      0.06748      4.37099      0.05161      3.99403
    -0.58000      0.06774      4.37775      0.05176      3.99919
    -0.57000      0.06800      4.38453      0.05191      4.00437
    -0.56000      0.06826      4.39133      0.05206      4.00957
    -0.55000      0.06852      4.39817      0.05221      4.01478
    -0.54000      0.06878      4.40503      0.05236      4.02001
    -0.53000      0.06905      4.41191      0.05251      4.02525
    -0.52000      0.06932      4.41882      0.05266      4.03050
    -0.51000      0.06959      4.42576      0.05281      4.03577
    -0.50000      0.06986      4.43273      0.05297      4.04106
    -0.49000      0.07013      4.43972      0.05312      4.04636
    -0.48000      0.07040      4.44674      0.05327      4.05168
    -0.47000      0.07068      4.45379      0.05343      4.05701
    -0.46000      0.07096      4.46086      0.05359      4.06236
    -0.45000      0.07124      4.46797      0.05374      4.06772
    -0.44000      0.07152      4.47510      0.05390      4.07311
    -0.43000      0.07181      4.48226      0.05406      4.07850
    -0.42000      0.07209      4.48945      0.05422      4.08391
    -0.41000      0.07238      4.49666      0.05438      4.08934
    -0.40000      0.07267      4.50391      0.05454      4.09478
    -0.39000      0.07297      4.51119      0.05470      4.10024
    -0.38000      0.07326      4.51849      0.05486      4.10571
    -0.37000      0.07356      4.52582      0.05502      4.11121
    -0.36000      0.07386      4.53319      0.05519      4.11671
    -0.35000      0.07416      4.54058      0.05535      4.12224
    -0.34000      0.07446      4.54800      0.05552      4.12778
    -0.33000      0.07477      4.55546      0.05568      4.13334
    -0.32000      0.07508      4.56294      0.05585      4.13891
    -0.31000      0.07539      4.57046      0.05602      4.14450
    -0.30000      0.07570      4.57800      0.05619      4.15011
    -0.29000      0.07601      4.58558      0.05635      4.15574
    -0.28000      0.07633      4.59319      0.05653      4.16138
    -0.27000      0.07665      4.60083      0.05670      4.16704
    -0.26000      0.07697      4.60851      0.05687      4.17271
    -0.25000      0.07730      4.61621      0.05704      4.17840
    -0.24000      0.07763      4.62395      0.05721      4.18411
    -0.23000      0.07795      4.63172      0.05739      4.18984
    -0.22000      0.07829      4.63952      0.05756      4.19558
    -0.21000      0.07862      4.64736      0.05774      4.20134
    -0.20000      0.07896      4.65523      0.05792      4.20712
    -0.19000      0.07930      4.66313      0.05809      4.21292
    -0.18000      0.07964      4.67107      0.05827      4.21874
    -0.17000      0.07999      4.67905      0.05845      4.22457
    -0.16000      0.08033      4.68705      0.05863      4.23042
    -0.15000      0.08069      4.69510      0.05881      4.23629
    -0.14000      0.08104      4.70317      0.05900      4.24218
    -0.13000      0.08140      4.71128      0.05918      4.24808
    -0.12000      0.08175      4.71943      0.05936      4.25401
    -0.11000      0.08212      4.72762      0.05955      4.25995
    -0.10000      0.08248      4.73583      0.05973      4.26591
    -0.09000      0.08285      4.74409      0.05992      4.27189
    -0.08000      0.08322      4.75238      0.06011      4.27789
    -0.07000      0.08359      4.76071      0.06030      4.28391
    -0.06000      0.08397      4.76908      0.06049      4.28994
    -0.05000      0.08435      4.77749      0.06068      4.29600
    -0.04000      0.08473      4.78593      0.06087      4.30207
    -0.03000      0.08512      4.79441      0.06106      4.30817
    -0.02000      0.08551      4.80293      0.06126      4.31428
     -0.0100       0.0859       4.8115       0.0615       4.3204
     0.00000      0.08630      4.82009      0.06165      4.32656
      0.0100       0.0867       4.8287       0.0618       4.3327
     0.02000      0.08710      4.83741      0.06204      4.33893
     0.03000      0.08751      4.84613      0.06224      4.34513
     0.04000      0.08792      4.85489      0.06244      4.35137
     0.05000      0.08833      4.86369      0.06264      4.35762
     0.06000      0.08875      4.87253      0.06284      4.36389
     0.07000      0.08917      4.88142      0.06305      4.37018
     0.08000      0.08959      4.89034      0.06325      4.37649
     0.09000      0.09002      4.89931      0.06345      4.38282
     0.10000      0.09045      4.90832      0.06366      4.38917
     0.11000      0.09089      4.91737      0.06387      4.39554
     0.12000      0.09133      4.92647      0.06408      4.40194
     0.13000      0.09177      4.93561      0.06429      4.40835
     0.14000      0.09222      4.94480      0.06450      4.41479
     0.15000      0.09267      4.95403      0.06471      4.42125
     0.16000      0.09312      4.96331      0.06492      4.42772
     0.17000      0.09358      4.97263      0.06514      4.43422
     0.18000      0.09404      4.98200      0.06535      4.44074
     0.19000      0.09451      4.99141      0.06557      4.44728
     0.20000      0.09498      5.00087      0.06578      4.45385
     0.21000      0.09546      5.01037      0.06600      4.46043
     0.22000      0.09594      5.01993      0.06622      4.46704
     0.23000      0.09643      5.02953      0.06644      4.47367
     0.24000      0.09692      5.03919      0.06667      4.48032
     0.25000      0.09741      5.04889      0.06689      4.48700
     0.26000      0.09791      5.05864      0.06711      4.49369
     0.27000      0.09841      5.06844      0.06734      4.50041
     0.28000      0.09892      5.07829      0.06757      4.50715
     0.29000      0.09943      5.08819      0.06780      4.51392
     0.30000      0.09995      5.09814      0.06802      4.52070
     0.31000      0.10048      5.10815      0.06826      4.52751
     0.32000      0.10100      5.11820      0.06849      4.53434
     0.33000      0.10154      5.12831      0.06872      4.54120
     0.34000      0.10208      5.13847      0.06896      4.54808
     0.35000      0.10262      5.14869      0.06919      4.55498
     0.36000      0.10317      5.15896      0.06943      4.56191
     0.37000      0.10373      5.16929      0.06967      4.56886
     0.38000      0.10429      5.17967      0.06991      4.57583
     0.39000      0.10485      5.19011      0.07015      4.58283
     0.40000      0.10542      5.20060      0.07039      4.58985
     0.41000      0.10600      5.21116      0.07064      4.59690
     0.42000      0.10658      5.22176      0.07088      4.60397
     0.43000      0.10717      5.23243      0.07113      4.61107
     0.44000      0.10777      5.24316      0.07138      4.61819
     0.45000      0.10837      5.25395      0.07163      4.62534
     0.46000      0.10898      5.26479      0.07188      4.63251
     0.47000      0.10959      5.27570      0.07213      4.63970
     0.48000      0.11022      5.28667      0.07239      4.64692
     0.49000      0.11084      5.29770      0.07264      4.65417
     0.50000      0.11148      5.30879      0.07290      4.66144
     0.51000      0.11212      5.31995      0.07316      4.66874
     0.52000      0.11277      5.33117      0.07342      4.67606
     0.53000      0.11342      5.34246      0.07368      4.68341
     0.54000      0.11408      5.35381      0.07394      4.69079
     0.55000      0.11475      5.36522      0.07421      4.69819
     0.56000      0.11543      5.37671      0.07447      4.70562
     0.57000      0.11611      5.38826      0.07474      4.71307
     0.58000      0.11681      5.39988      0.07501      4.72055
     0.59000      0.11751      5.41157      0.07528      4.72807
     0.60000      0.11821      5.42333      0.07555      4.73560
     0.61000      0.11893      5.43516      0.07583      4.74316
     0.62000      0.11965      5.44706      0.07610      4.75076
     0.63000      0.12038      5.45903      0.07638      4.75837
     0.64000      0.12112      5.47108      0.07666      4.76602
     0.65000      0.12187      5.48320      0.07694      4.77369
     0.66000      0.12263      5.49540      0.07722      4.78140
     0.67000      0.12340      5.50767      0.07750      4.78913
     0.68000      0.12417      5.52002      0.07779      4.79689
     0.69000      0.12496      5.53244      0.07808      4.80467
     0.70000      0.12575      5.54494      0.07837      4.81249
     0.71000      0.12656      5.55753      0.07866      4.82034
     0.72000      0.12737      5.57019      0.07895      4.82821
     0.73000      0.12819      5.58294      0.07925      4.83611
     0.74000      0.12903      5.59576      0.07954      4.84405
     0.75000      0.12987      5.60868      0.07984      4.85201
     0.76000      0.13072      5.62167      0.08014      4.86000
     0.77000      0.13159      5.63475      0.08044      4.86802
     0.78000      0.13246      5.64791      0.08075      4.87608
     0.79000      0.13335      5.66117      0.08105      4.88416
     0.80000      0.13425      5.67451      0.08136      4.89228
     0.81000      0.13516      5.68794      0.08167      4.90042
     0.82000      0.13608      5.70146      0.08198      4.90860
     0.83000      0.13701      5.71508      0.08229      4.91681
     0.84000      0.13796      5.72879      0.08261      4.92504
     0.85000      0.13891      5.74259      0.08293      4.93331
     0.86000      0.13988      5.75648      0.08324      4.94161
     0.87000      0.14087      5.77047      0.08357      4.94995
     0.88000      0.14186      5.78457      0.08389      4.95831
     0.89000      0.14287      5.79876      0.08421      4.96671
     0.90000      0.14389      5.81305      0.08454      4.97514
     0.91000      0.14493      5.82745      0.08487      4.98361
     0.92000      0.14598      5.84194      0.08520      4.99210
     0.93000      0.14705      5.85655      0.08554      5.00063
     0.94000      0.14813      5.87125      0.08587      5.00920
     0.95000      0.14922      5.88607      0.08621      5.01779
     0.96000      0.15033      5.90100      0.08655      5.02643
     0.97000      0.15146      5.91603      0.08689      5.03509
     0.98000      0.15260      5.93118      0.08724      5.04379
     0.99000      0.15376      5.94644      0.08759      5.05252
     1.00000      0.15494      5.96182      0.08793      5.06129
     1.01000      0.15613      5.97732      0.08829      5.07009
     1.02000      0.15734      5.99293      0.08864      5.07893
     1.03000      0.15857      6.00867      0.08900      5.08781
     1.04000      0.15982      6.02453      0.08936      5.09671
     1.05000      0.16108      6.04050      0.08972      5.10566
     1.06000      0.16237      6.05661      0.09008      5.11464
     1.07000      0.16367      6.07285      0.09045      5.12366
     1.08000      0.16500      6.08921      0.09081      5.13271
     1.09000      0.16634      6.10571      0.09118      5.14181
     1.10000      0.16771      6.12234      0.09156      5.15094
     1.11000      0.16909      6.13911      0.09193      5.16010
     1.12000      0.17050      6.15601      0.09231      5.16931
     1.13000      0.17193      6.17306      0.09269      5.17855
     1.14000      0.17339      6.19025      0.09308      5.18783
     1.15000      0.17486      6.20758      0.09346      5.19714
     1.16000      0.17637      6.22506      0.09385      5.20650
     1.17000      0.17789      6.24269      0.09424      5.21590
     1.18000      0.17944      6.26047      0.09464      5.22533
     1.19000      0.18102      6.27841      0.09503      5.23481
     1.20000      0.18263      6.29650      0.09543      5.24432
     1.21000      0.18426      6.31475      0.09583      5.25387
     1.22000      0.18591      6.33316      0.09624      5.26347
     1.23000      0.18760      6.35174      0.09665      5.27310
     1.24000      0.18932      6.37049      0.09706      5.28278
     1.25000      0.19107      6.38941      0.09747      5.29250
     1.26000      0.19284      6.40850      0.09789      5.30226
     1.27000      0.19465      6.42776      0.09831      5.31206
     1.28000      0.19649      6.44721      0.09873      5.32190
     1.29000      0.19837      6.46684      0.09916      5.33178
     1.30000      0.20028      6.48666      0.09959      5.34171
    1.310000     0.202220     6.506662     0.100017     5.351679
    1.320000     0.204200     6.526861     0.100452     5.361691
    1.330000     0.206217     6.547256     0.100890     5.371749
    1.340000     0.208272     6.567850     0.101331     5.381851
    1.350000     0.210366     6.588651     0.101775     5.391994
    1.360000     0.212499     6.609656     0.102223     5.402180
    1.370000     0.214675     6.630875     0.102674     5.412416
    1.380000     0.216892     6.652306     0.103128     5.422694
    1.390000     0.219154     6.673961     0.103585     5.433019
    1.400000     0.221460     6.695838     0.104046     5.443390
    1.410000     0.223812     6.717943     0.104510     5.453806
    1.420000     0.226212     6.740283     0.104977     5.464268
    1.430000     0.228661     6.762860     0.105448     5.474778
    1.440000     0.231160     6.785677     0.105923     5.485333
    1.450000     0.233711     6.808743     0.106401     5.495939
    1.460000     0.236316     6.832062     0.106883     5.506591
    1.470000     0.238976     6.855638     0.107368     5.517292
    1.480000     0.241692     6.879478     0.107857     5.528041
    1.490000     0.244468     6.903583     0.108350     5.538837
    1.500000     0.247303     6.927965     0.108846     5.549685
    1.510000     0.250201     6.952626     0.109346     5.560582
    1.520001     0.253164     6.977578     0.109850     5.571531
    1.530001     0.256193     7.002817     0.110358     5.582526
    1.540001     0.259290     7.028358     0.110870     5.593579
    1.550001     0.262458     7.054201     0.111385     5.604675
    1.560001     0.265699     7.080360     0.111905     5.615826
    1.570001     0.269016     7.106833     0.112429     5.627030
    1.580001     0.272412     7.133636     0.112957     5.638285
    1.590001     0.275887     7.160777     0.113489     5.649594
    1.600001     0.279447     7.188255     0.114025     5.660954
    1.610000     0.283093     7.216086     0.114565     5.672369
    1.620000     0.286828     7.244274     0.115109     5.683839
    1.630000     0.290656     7.272830     0.115658     5.695366
    1.640000     0.294580     7.301760     0.116212     5.706942
    1.650000     0.298604     7.331079     0.116769     5.718576
    1.660000     0.302731     7.360791     0.117331     5.730268
    1.670000     0.306964     7.390907     0.117898     5.742014
    1.680000     0.311308     7.421438     0.118469     5.753815
    1.690000     0.315768     7.452394     0.119045     5.765673
    1.700000     0.320347     7.483788     0.119625     5.777596
    1.710000     0.325049     7.515632     0.120210     5.789570
    1.720000     0.329880     7.547935     0.120800     5.801603
    1.730000     0.334845     7.580708     0.121395     5.813700
    1.740000     0.339949     7.613971     0.121994     5.825849
    1.750000     0.345198     7.647725     0.122599     5.838064
    1.760000     0.350597     7.681998     0.123209     5.850337
    1.770000     0.356153     7.716794     0.123823     5.862669
    1.780000     0.361871     7.752131     0.124443     5.875068
    1.790000     0.367760     7.788022     0.125068     5.887527
    1.800000     0.373825     7.824489     0.125698     5.900048
    1.810000     0.380075     7.861546     0.126333     5.912632
    1.820000     0.386517     7.899208     0.126974     5.925277
    1.830000     0.393161     7.937495     0.127621     5.937988
    1.840000     0.400014     7.976424     0.128272     5.950763
    1.850000     0.407086     8.016019     0.128930     5.963605
    1.860000     0.414387     8.056293     0.129593     5.976512
    1.870000     0.421928     8.097273     0.130261     5.989485
    1.880000     0.429719     8.138983     0.130936     6.002529
    1.890001     0.437773     8.181452     0.131616     6.015636
    1.900001     0.446102     8.224686     0.132302     6.028812
    1.910001     0.454718     8.268723     0.132994     6.042058
    1.920001     0.463636     8.313584     0.133692     6.055368
    1.930001     0.472871     8.359304     0.134397     6.068756
    1.940001     0.482439     8.405903     0.135107     6.082209
    1.950001     0.492356     8.453422     0.135824     6.095734
    1.960001     0.502641     8.501881     0.136547     6.109332
    1.970001     0.513312     8.551325     0.137277     6.122999
    1.980000     0.524390     8.601779     0.138013     6.136745
    1.990000     0.535896     8.653288     0.138756     6.150560
    2.000000     0.547853     8.705887     0.139506     6.164449
    2.010000     0.560287     8.759616     0.140262     6.178417
    2.020000     0.573224     8.814517     0.141025     6.192455
    2.030000     0.586692     8.870641     0.141795     6.206575
    2.040000     0.600720     8.928024     0.142572     6.220770
    2.050000     0.615343     8.986727     0.143357     6.235041
    2.060000     0.630595     9.046792     0.144148     6.249393
    2.070000     0.646513     9.108285     0.144947     6.263823
    2.080000     0.663138     9.171250     0.145754     6.278331
    2.090000     0.680514     9.235762     0.146568     6.292922
    2.100000     0.698686     9.301879     0.147389     6.307594
    2.110000     0.717706     9.369673     0.148218     6.322348
    2.120000     0.737629     9.439212     0.149055     6.337185
    2.130000     0.758514     9.510572     0.149901     6.352108
    2.140000     0.780424     9.583833     0.150754     6.367112
    2.150000     0.803430     9.659084     0.151615     6.382203
    2.160000     0.827607     9.736420     0.152484     6.397381
    2.170000     0.853036     9.815923     0.153362     6.412642
    2.180000     0.879806     9.897709     0.154249     6.427997
    2.190000     0.908018     9.981875     0.155144     6.443439
     2.20000      0.93777     10.06854      0.15605      6.45897
     2.21000      0.96919     10.15782      0.15696      6.47459
     2.22000      1.00240     10.24986      0.15788      6.49030
     2.23000      1.03753     10.34479      0.15881      6.50610
     2.24000      1.07475     10.44274      0.15975      6.52200
     2.25000      1.11422     10.54388      0.16070      6.53799
     2.26000      1.15612     10.64838      0.16166      6.55408
     2.27000      1.20066     10.75640      0.16263      6.57026
     2.28000      1.24807     10.86814      0.16361      6.58654
     2.29000      1.29860     10.98378      0.16460      6.60292
     2.30000      1.35253     11.10355      0.16559      6.61939
     2.31000      1.41016     11.22765      0.16660      6.63597
     2.32000      1.47185     11.35635      0.16762      6.65264
     2.33000      1.53797     11.48988      0.16865      6.66942
     2.34000      1.60896     11.62851      0.16969      6.68630
     2.35000      1.68530     11.77251      0.17074      6.70329
     2.36000      1.76755     11.92219      0.17180      6.72038
     2.37000      1.85629     12.07785      0.17288      6.73757
     2.38000      1.95224     12.23981      0.17396      6.75488
     2.39000      2.05617     12.40841      0.17506      6.77229
     2.40000      2.16897     12.58397      0.17616      6.78981
     2.41000      2.29163     12.76687      0.17728      6.80744
     2.42000      2.42532     12.95741      0.17842      6.82519
     2.43000      2.57133     13.15595      0.17956      6.84305
     2.44000      2.73116     13.36279      0.18071      6.86102
     2.45000      2.90653     13.57819      0.18188      6.87911
     2.46000      3.09939     13.80234      0.18306      6.89731
     2.47000      3.31201     14.03537      0.18426      6.91563
     2.48000      3.54697     14.27723      0.18547      6.93407
     2.49000      3.80726     14.52770      0.18669      6.95264
     2.50000      4.09631     14.78626      0.18792      6.97132
     2.51000      4.41804     15.05206      0.18917      6.99013
     2.52000      4.77693     15.32365      0.19043      7.00906
     2.53000      5.17809     15.59897      0.19171      7.02812
     2.54000      5.62724     15.87496      0.19300      7.04731
     2.55000      6.13074     16.14731      0.19431      7.06662
     2.56000      6.69551     16.41010      0.19563      7.08607
     2.57000      7.32881     16.65524      0.19696      7.10565
     2.58000      8.03789     16.87201      0.19832      7.12536
     2.59000      8.82933     17.04634      0.19968      7.14521
     2.60000      9.70807     17.16036      0.20107      7.16519
     2.61000     10.67590     17.19193      0.20247      7.18531
     2.62000     11.72964     17.11483      0.20388      7.20557
     2.63000     12.85840     16.89972      0.20532      7.22598
     2.64000     14.04178     16.51634      0.20677      7.24652
     2.65000     15.24787     15.93715      0.20823      7.26721
     2.66000     16.43332     15.14228      0.20972      7.28805
     2.67000     17.54585     14.12467      0.21122      7.30904
     2.68000     18.52950     12.89391      0.21274      7.33017
     2.69000     19.33134     11.47740      0.21428      7.35146
     2.70000     19.90829      9.91800      0.21584      7.37290
     2.71000     20.23161      8.26912      0.21742      7.39450
     2.72000     20.28895      6.58885      0.21902      7.41626
     2.73000     20.08375      4.93440      0.22064      7.43817
     2.74000     19.63296      3.35802      0.22228      7.46025
     2.75000     18.96430      1.90428      0.22394      7.48249
     2.76000     18.11345      0.60849      0.22562      7.50490
     2.77000     17.12148     -0.50421      0.22732      7.52747
     2.78000     16.03239     -1.41955      0.22904      7.55021
     2.79000     14.89031     -2.13447      0.23079      7.57313
     2.80000     13.73629     -2.65657      0.23256      7.59622
     2.81000     12.60542     -3.00232      0.23435      7.61949
     2.82000     11.52483     -3.19433      0.23616      7.64294
     2.83000     10.51301     -3.25806      0.23800      7.66656
    2.840000     9.580486    -3.219065     0.239868     7.690369
    2.850000     8.731240    -3.100882     0.241757     7.714369
    2.860000     7.964476    -2.923907     0.243671     7.738554
    2.870000     7.276256    -2.705013     0.245611     7.762930
    2.880000     6.660833    -2.457670     0.247578     7.787499
    2.890000     6.111631    -2.192313     0.249572     7.812265
    2.900000     5.621896    -1.916861     0.251592     7.837234
    2.910000     5.185101    -1.637183     0.253641     7.862399
    2.920000     4.795180    -1.357555     0.255719     7.887772
    2.930000     4.446621    -1.081015     0.257825     7.913348
    2.940000     4.134492    -0.809672     0.259961     7.939139
    2.950000     3.854444    -0.544940     0.262128     7.965141
    2.960000     3.602646    -0.287708     0.264325     7.991357
     2.97000      3.37576     -0.03849      0.26655      8.01779
    2.980000     3.170884     0.202476     0.268816     8.044456
    2.990001     2.985454     0.435172     0.271110     8.071342
    3.000001     2.817294     0.659659     0.273437     8.098454
    3.010001     2.664470     0.876160     0.275799     8.125802
    3.020001     2.525305     1.084932     0.278196     8.153382
    3.030000     2.398332     1.286285     0.280628     8.181202
    3.040000     2.282273     1.480546     0.283097     8.209262
    3.050000     2.176008     1.668060     0.285604     8.237573
    3.060000     2.078552     1.849169     0.288148     8.266129
    3.070000     1.989039     2.024217     0.290731     8.294941
    3.080000     1.906708     2.193540     0.293354     8.324013
    3.090000     1.830881     2.357463     0.296018     8.353340
    3.100000     1.760966     2.516299     0.298723     8.382939
    3.110000     1.696432     2.670348     0.301471     8.412804
    3.120000     1.636811     2.819895     0.304262     8.442943
    3.130000     1.581683     2.965216     0.307098     8.473363
    3.140000     1.530677     3.106566     0.309979     8.504061
    3.150000     1.483461     3.244194     0.312906     8.535048
    3.160000     1.439735     3.378330     0.315881     8.566323
    3.170000     1.399236     3.509198     0.318905     8.597897
    3.180000     1.361722     3.637005     0.321978     8.629771
    3.190000     1.326981     3.761950     0.325103     8.661954
    3.200000     1.294820     3.884222     0.328280     8.694444
    3.210000     1.265066     4.003999     0.331510     8.727255
    3.220000     1.237565     4.121449     0.334795     8.760382
    3.230000     1.212177     4.236736     0.338136     8.793837
    3.240000     1.188776     4.350015     0.341534     8.827625
    3.250000     1.167251     4.461433     0.344992     8.861753
    3.260000     1.147503     4.571128     0.348510     8.896222
    3.270000     1.129439     4.679238     0.352089     8.931041
    3.280000     1.112983     4.785892     0.355732     8.966215
    3.290000     1.098061     4.891211     0.359440     9.001751
    3.300000     1.084613     4.995324     0.363215     9.037659
    3.310000     1.072585     5.098337     0.367058     9.073940
    3.320000     1.061930     5.200371     0.370972     9.110602
    3.330000     1.052609     5.301532     0.374958     9.147653
    3.340000     1.044589     5.401932     0.379017     9.185098
    3.350001     1.037843     5.501677     0.383153     9.222953
    3.360001     1.032353     5.600863     0.387366     9.261209
    3.370001     1.028105     5.699593     0.391660     9.299889
    3.380001     1.025091     5.797971     0.396036     9.338996
    3.390001     1.023311     5.896099     0.400497     9.378531
    3.400001     1.022771     5.994073     0.405044     9.418512
    3.410001     1.023482     6.091997     0.409681     9.458945
    3.420001     1.025464     6.189969     0.414410     9.499834
    3.430001     1.028744     6.288089     0.419233     9.541199
    3.440001     1.033353     6.386461     0.424153     9.583027
    3.450001     1.039335     6.485188     0.429174     9.625355
    3.460001     1.046741     6.584376     0.434297     9.668179
    3.470001     1.055629     6.684129     0.439526     9.711506
    3.480000     1.066072     6.784564     0.444865     9.755352
    3.490000     1.078149     6.885788     0.450316     9.799731
    3.500000     1.091957     6.987918     0.455882     9.844644
    3.510000     1.107604     7.091073     0.461568     9.890111
    3.520000     1.125214     7.195379     0.467377     9.936136
    3.530000     1.144930     7.300963     0.473313     9.982734
     3.54000      1.16691      7.40795      0.47938     10.02992
     3.55000      1.19135      7.51649      0.48558     10.07770
     3.56000      1.21845      7.62670      0.49192     10.12611
     3.57000      1.24845      7.73874      0.49841     10.17513
     3.58000      1.28163      7.85275      0.50504     10.22479
     3.59000      1.31830      7.96888      0.51183     10.27511
     3.60000      1.35881      8.08728      0.51877     10.32610
     3.61000      1.40359      8.20810      0.52588     10.37776
     3.62000      1.45310      8.33148      0.53316     10.43014
     3.63000      1.50786      8.45753      0.54061     10.48322
     3.64000      1.56852      8.58643      0.54825     10.53705
     3.65000      1.63577      8.71821      0.55607     10.59161
     3.66000      1.71045      8.85298      0.56408     10.64696
     3.67000      1.79348      8.99072      0.57230     10.70308
     3.68000      1.88598      9.13141      0.58073     10.76002
     3.69000      1.98919      9.27485      0.58937     10.81778
     3.70000      2.10458      9.42082      0.59823     10.87639
     3.71000      2.23378      9.56879      0.60733     10.93587
     3.72000      2.37874      9.71809      0.61667     10.99624
     3.73000      2.54158      9.86763      0.62625     11.05752
     3.74000      2.72479     10.01596      0.63610     11.11975
     3.75000      2.93099     10.16092      0.64622     11.18293
     3.76000      3.16316     10.29969      0.65661     11.24711
     3.77000      3.42426     10.42833      0.66730     11.31229
     3.78000      3.71732     10.54167      0.67829     11.37853
     3.79000      4.04479     10.63289      0.68960     11.44583
     3.80000      4.40841     10.69334      0.70123     11.51424
     3.81000      4.80802     10.71222      0.71321     11.58377
     3.82000      5.24091     10.67670      0.72554     11.65448
     3.83000      5.70002     10.57243      0.73824     11.72637
     3.84000      6.17300     10.38466      0.75133     11.79951
     3.85000      6.64046     10.10070      0.76483     11.87391
     3.86000      7.07640      9.71293      0.77875     11.94963
     3.87000      7.44919      9.22300      0.79311     12.02668
     3.88000      7.72621      8.64460      0.80793     12.10514
     3.89000      7.87938      8.00509      0.82323     12.18501
     3.90000      7.89203      7.34206      0.83904     12.26637
     3.91000      7.76307      6.69782      0.85538     12.34925
     3.92000      7.50745      6.11123      0.87226     12.43369
     3.93000      7.15197      5.61086      0.88974     12.51977
     3.94000      6.72928      5.21243      0.90782     12.60750
     3.95000      6.27114      4.91878      0.92654     12.69700
     3.96000      5.80470      4.72342      0.94593     12.78826
     3.97000      5.34994      4.61397      0.96603     12.88138
     3.98000      4.92031      4.57589      0.98687     12.97641
     3.99000      4.52326      4.59467      1.00850     13.07344
     4.00000      4.16217      4.65722      1.03095     13.17249
     4.01000      3.83728      4.75253      1.05427     13.27371
     4.02000      3.54722      4.87162      1.07850     13.37710
     4.03000      3.28946      5.00753      1.10370     13.48280
     4.04000      3.06114      5.15483      1.12993     13.59085
     4.05000      2.85918      5.30952      1.15724     13.70139
     4.06000      2.68072      5.46858      1.18569     13.81446
     4.07000      2.52298      5.62986      1.21537     13.93020
     4.08000      2.38354      5.79176      1.24632     14.04870
     4.09000      2.26018      5.95324      1.27865     14.17008
     4.10000      2.15101      6.11350      1.31243     14.29444
     4.11000      2.05429      6.27211      1.34776     14.42192
     4.12000      1.96858      6.42872      1.38473     14.55264
     4.13000      1.89260      6.58322      1.42346     14.68676
     4.14000      1.82526      6.73552      1.46405     14.82438
     4.15000      1.76558      6.88567      1.50666     14.96571
     4.16000      1.71275      7.03371      1.55140     15.11086
     4.17000      1.66604      7.17977      1.59844     15.26006
     4.18000      1.62484      7.32396      1.64793     15.41343
     4.19000      1.58861      7.46646      1.70006     15.57122
     4.20000      1.55688      7.60739      1.75503     15.73359
     4.21000      1.52925      7.74694      1.81307     15.90081
     4.22000      1.50536      7.88526      1.87438     16.07306
     4.23000      1.48491      8.02255      1.93927     16.25062
     4.24000      1.46763      8.15892      2.00799     16.43373
     4.25000      1.45330      8.29460      2.08090     16.62269
     4.26000      1.44172      8.42969      2.15831     16.81775
     4.27000      1.43271      8.56441      2.24065     17.01929
     4.28000      1.42612      8.69887      2.32834     17.22761
     4.29000      1.42184      8.83323      2.42185     17.44300
     4.30000      1.41976      8.96767      2.52175     17.66594
     4.31000      1.41979      9.10230      2.62861     17.89671
     4.32000      1.42185      9.23730      2.74315     18.13581
     4.33000      1.42589      9.37279      2.86608     18.38361
     4.34000      1.43186      9.50896      2.99831     18.64063
     4.35000      1.43974      9.64589      3.14074     18.90725
     4.36000      1.44951      9.78378      3.29452     19.18406
     4.37000      1.46115      9.92274      3.46082     19.47145
     4.38000      1.47467     10.06294      3.64110     19.77004
     4.39000      1.49009     10.20451      3.83689     20.08022
     4.40000      1.50744     10.34762      4.05008     20.40259
     4.41000      1.52674     10.49239      4.28265     20.73748
     4.42000      1.54806     10.63902      4.53707     21.08540
     4.43000      1.57144     10.78763      4.81596     21.44655
     4.44000      1.59697     10.93841      5.12253     21.82122
     4.45000      1.62473     11.09150      5.46028     22.20926
     4.46000      1.65482     11.24712      5.83342     22.61049
     4.47000      1.68735     11.40539      6.24655     23.02411
     4.48000      1.72246     11.56655      6.70521     23.44903
     4.49000      1.76029     11.73075      7.21541     23.88316
     4.50000      1.80101     11.89825      7.78430     24.32369
     4.51000      1.84481     12.06919      8.41952     24.76623
     4.52000      1.89192     12.24387      9.12992     25.20491
     4.53000      1.94254     12.42244      9.92457     25.63125
     4.54000      1.99698     12.60521     10.81344     26.03408
     4.55000      2.05552     12.79238     11.80572     26.39827
     4.56000      2.11852     12.98427     12.91004     26.70439
     4.57000      2.18633     13.18108     14.13169     26.92751
     4.58000      2.25943     13.38319     15.47191     27.03737
     4.59000      2.33826     13.59081     16.92346     26.99847
     4.60000      2.42340     13.80433     18.46913     26.77198
     4.61000      2.51546     14.02400     20.07685     26.31965
     4.62000      2.61517     14.25023     21.70016     25.60926
     4.63000      2.72333     14.48329     23.27794     24.62238
     4.64000      2.84081     14.72350     24.74106     23.36106
     4.65000      2.96873     14.97124     26.02268     21.85005
     4.66000      3.10821     15.22675     27.06712     20.13537
     4.67000      3.26069     15.49041     27.83821     18.27366
     4.68000      3.42767     15.76232     28.31776     16.32412
     4.69000      3.61101     16.04278     28.50031     14.33982
     4.70000      3.81272     16.33172     28.38558     12.37091
     4.71000      4.03525     16.62915     27.97655     10.46731
     4.72000      4.28126     16.93466     27.28410      8.68548
     4.73000      4.55397     17.24777     26.33378      7.08399
     4.74000      4.85688     17.56735     25.17134      5.71746
     4.75000      5.19417     17.89200     23.85889      4.62423
     4.76000      5.57035     18.21930     22.46788      3.82113
     4.77000      5.99069     18.54613     21.06678      3.30148
     4.78000      6.46069     18.86780     19.71448      3.04090
     4.79000      6.98650     19.17816     18.45433      3.00377
     4.80000      7.57405     19.46868     17.31575      3.15050
     4.81000      8.22925     19.72828     16.31490      3.44247
     4.82000      8.95642     19.94241     15.45934      3.84470
     4.83000      9.75803     20.09289     14.75003      4.32732
     4.84000     10.63196     20.15749     14.18499      4.86500
     4.85000     11.57038     20.11059     13.76030      5.43680
     4.86000     12.55603     19.92465     13.47214      6.02437
     4.87000     13.56099     19.57322     13.31686      6.61160
     4.88000     14.54414     19.03617     13.29165      7.18249
     4.89000     15.45353     18.30558     13.39413      7.72085
     4.90000     16.22985     17.39271     13.62175      8.20837
     4.91000     16.81608     16.33125     13.97082      8.62437
     4.92000     17.16727     15.17781     14.43450      8.94452
     4.93000     17.26133     14.00394     15.00083      9.14134
     4.94000     17.10404     12.88633     15.64939      9.18490
     4.95000     16.72816     11.89245     16.34889      9.04570
     4.96000     16.18645     11.07193     17.05424      8.69963
     4.97000     15.54056     10.45043     17.70749      8.13464
     4.98000     14.85156     10.03169     18.24105      7.35896
     4.99000     14.17158      9.80164     18.58769      6.40643
     5.00000     13.54123      9.73534     18.69270      5.33784
     5.01000     12.98886      9.80247     18.52709      4.23354
     5.02000     12.53200      9.97160     18.09475      3.17891
     5.03000     12.18024     10.21241     17.43123      2.24958
     5.04000     11.93679     10.49673     16.59353      1.49801
     5.05000     11.80044     10.79828     15.64751      0.95008
     5.06000     11.76590     11.09254     14.65476      0.60682
     5.07000     11.82395     11.35612     13.66626      0.45207
     5.08000     11.96067     11.56719     12.71826      0.45984
     5.09000     12.15650     11.70621     11.83436      0.60096
     5.10000     12.38575     11.75817     11.02674      0.84733
     5.11000     12.61678     11.71547     10.30031      1.17407
     5.12000     12.81466     11.58120      9.65425      1.56067
     5.13000     12.94527     11.37153      9.08513      1.99058
     5.14000     12.98155     11.11525      8.58748      2.45124
     5.15000     12.90893     10.85042      8.15557      2.93295
     5.16000     12.72855     10.61758      7.78333      3.42886
     5.17000     12.45658     10.45284      7.46530      3.93378
     5.18000     12.11968     10.38194      7.19635      4.44436
     5.19000     11.74924     10.41826      6.97213      4.95813
     5.20000     11.37544     10.56361      6.78877      5.47379
     5.21000     11.02395     10.81123      6.64314      5.99038
     5.22000     10.71393     11.14962      6.53260      6.50777
     5.23000     10.45870     11.56523      6.45515      7.02586
     5.24000     10.26646     12.04505      6.40923      7.54512
     5.25000     10.14199     12.57723      6.39381      8.06590
     5.26000     10.08780     13.15217      6.40831      8.58902
     5.27000     10.10531     13.76181      6.45259      9.11504
     5.28000     10.19564     14.40014      6.52699      9.64489
     5.29000     10.36014     15.06204      6.63225     10.17917
     5.30000     10.60094     15.74371      6.76964     10.71881
     5.31000     10.92094     16.44134      6.94085     11.26429
     5.32000     11.32440     17.15168      7.14819     11.81632
     5.33000     11.81656     17.87058      7.39443     12.37507
     5.34000     12.40431     18.59346      7.68312     12.94078
     5.35000     13.09546     19.31389      8.01833     13.51295
     5.36000     13.89949     20.02379      8.40509     14.09089
     5.37000     14.82650     20.71193      8.84914     14.67293
     5.38000     15.88689     21.36335      9.35707     15.25642
     5.39000     17.09121     21.95885      9.93665     15.83764
     5.40000     18.44742     22.47339     10.59625     16.41077
     5.41000     19.96045     22.87620     11.34544     16.96806
     5.42000     21.62776     23.13032     12.19389     17.49844
     5.43000     23.43805     23.19439     13.15180     17.98739
     5.44000     25.36586     23.02537     14.22796     18.41544
     5.45000     27.37194     22.58381     15.42953     18.75797
     5.46000     29.40136     21.84079     16.75859     18.98404
     5.47000     31.39058     20.78387     18.21089     19.05704
     5.48000     33.27299     19.42163     19.77066     18.93565
     5.49000     34.99104     17.78028     21.40903     18.57714
     5.50000     36.49992     15.89800     23.07945     17.94298
     5.51000     37.76910     13.81364     24.71979     17.00569
     5.52000     38.77398     11.56396     26.25426     15.75760
     5.53000     39.48985      9.18344     27.60382     14.21510
     5.54000     39.88866      6.71529     28.69484     12.42083
     5.55000     39.94665      4.21605     29.47009     10.43660
     5.56000     39.65582      1.75876     29.89186      8.33750
     5.57000     39.03423     -0.57979     29.94275      6.20213
     5.58000     38.12773     -2.73092     29.62331      4.11150
     5.59000     37.00092     -4.64998     28.95216      2.14422
     5.60000     35.72398     -6.31827     27.96818      0.37526
     5.61000     34.35890     -7.74129     26.72986     -1.13373
     5.62000     32.95436     -8.93729     25.31198     -2.34039
     5.63000     31.54461     -9.93015     23.79470     -3.22866
     5.64000     30.15536    -10.74305     22.25482     -3.80647
     5.65000     28.80624    -11.39956     20.75554     -4.10142
     5.66000     27.51337    -11.92449     19.34455     -4.15212
     5.67000     26.28605    -12.34585     18.05214     -4.00127
     5.68000     25.12526    -12.69259     16.89559     -3.69019
     5.69000     24.02087    -12.99086     15.88113     -3.25550
     5.70000     22.95462    -13.25840     15.00882     -2.72828
     5.71000     21.90347    -13.50130     14.27414     -2.13345
     5.72000     20.84728    -13.71293     13.67120     -1.49108
     5.73000     19.77323    -13.87728     13.19325     -0.81657
     5.74000     18.68019    -13.97420     12.83438     -0.12231
     5.75000     17.57808    -13.98556     12.58962      0.58166
     5.76000     16.48417    -13.89996     12.45528      1.28706
     5.77000     15.41967    -13.71470     12.42919      1.98583
     5.78000     14.40402    -13.43526     12.51052      2.67027
     5.79000     13.45330    -13.07315     12.69958      3.33132
     5.80000     12.57765    -12.64286     12.99749      3.95883
     5.81000     11.78279    -12.15973     13.40534      4.53996
     5.82000     11.06973    -11.63789     13.92362      5.05948
     5.83000     10.43710    -11.08985     14.55034      5.49865
     5.84000      9.88135    -10.52560     15.28012      5.83613
     5.85000      9.39846     -9.95337     16.10160      6.04837
     5.86000      8.98391     -9.37921     16.99668      6.11198
     5.87000      8.63371     -8.80813     17.93904      6.00639
     5.88000      8.34417     -8.24367     18.89603      5.71737
     5.89000      8.11248     -7.68906     19.83057      5.23967
     5.90000      7.93639     -7.14680     20.70627      4.57718
     5.91000      7.81455     -6.61971     21.48961      3.74133
     5.92000      7.74621     -6.11060     22.15152      2.74664
     5.93000      7.73126     -5.62318     22.66370      1.60968
     5.94000      7.76995     -5.16186     22.99570      0.34958
     5.95000      7.86261     -4.73266     23.11370     -1.00476
     5.96000      8.00925     -4.34302     22.98574     -2.41030
     5.97000      8.20864     -4.00262     22.59161     -3.80659
     5.98000      8.45762     -3.72298     21.93290     -5.12365
     5.99000      8.74947     -3.51767     21.03829     -6.29250
     6.00000      9.07279     -3.40097     19.95921     -7.25996
     6.01000      9.40971     -3.38637     18.76073     -7.99563
     6.02000      9.73558     -3.48343     17.50807     -8.49438
     6.03000     10.01940     -3.69404     16.25858     -8.77077
     6.04000     10.22731     -4.00882     15.05514     -8.85226
     6.05000     10.32768     -4.40476     13.92697     -8.77173
     6.06000     10.29814     -4.84681     12.88993     -8.56217
     6.07000     10.13100     -5.29255     11.95104     -8.25361
     6.08000      9.83520     -5.70043     11.11001     -7.87140
     6.09000      9.43385     -6.03674     10.36309     -7.43626
    6.100000     8.958057    -6.280708     9.703741    -6.964190
    6.110001     8.440531    -6.424773     9.124842    -6.467541
    6.120000     7.910313    -6.472354     8.619075    -5.955550
    6.130001     7.389692    -6.434014     8.179229    -5.434707
    6.140000     6.894244    -6.323699     7.798998    -4.909908
    6.150001     6.433006    -6.155915     7.472554    -4.384246
    6.160000     6.010510    -5.944199     7.195047    -3.860034
    6.170001     5.627640    -5.700038     6.962209    -3.338430
    6.180000     5.283404    -5.432962     6.770636    -2.820327
    6.190001     4.975328    -5.150336     6.617482    -2.305843
    6.200000     4.700562    -4.857928     6.500637    -1.795114
    6.210001     4.455877    -4.559913     6.418507    -1.287767
    6.220000     4.238264    -4.259519     6.370128    -0.783605
    6.230001     4.044755    -3.958887     6.355054    -0.282087
    6.240000     3.872778    -3.659666     6.373389     0.217004
    6.250000     3.719924    -3.362824     6.425792     0.714092
    6.260000     3.584166    -3.069114     6.513455     1.209134
    6.270000     3.463640    -2.778828     6.638185     1.702140
    6.280000     3.356817    -2.492241     6.802340     2.192426
    6.290000     3.262299    -2.209280     7.008982     2.679115
    6.300000     3.178944    -1.929946     7.261722     3.160312
    6.310000     3.105721    -1.653980     7.564961     3.633502
    6.320000     3.041796    -1.381246     7.923549     4.094607
    6.330000     2.986418    -1.111383     8.343061     4.538207
    6.340000     2.938991    -0.844181     8.829082     4.956483
    6.350000     2.898981    -0.579237     9.387381     5.339197
     6.36000      2.86598     -0.31630     10.02255      5.67256
     6.37000      2.83961     -0.05494     10.73761      5.93913
     6.38000      2.81963      0.20511     11.53161      6.11701
     6.39000      2.80580      0.46428     12.39824      6.18040
     6.40000      2.79799      0.72286     13.32209      6.10045
     6.41000      2.79610      0.98129     14.27679      5.84816
     6.42000      2.80010      1.23985     15.22163      5.39925
     6.43000      2.80999      1.49901     16.10271      4.74076
     6.44000      2.82586      1.75904     16.85571      3.87951
     6.45000      2.84783      2.02043     17.41576      2.84745
     6.46000      2.87608      2.28351     17.72933      1.70365
     6.47000      2.91084      2.54863     17.76783      0.52741
     6.48000      2.95244      2.81628     17.53529     -0.59601
     6.49000      3.00123      3.08677     17.06765     -1.59008
     6.50000      3.05766      3.36061     16.42326     -2.40097
     6.51000      3.12226      3.63811     15.67012     -3.00141
     6.52000      3.19566      3.91980     14.87292     -3.38945
     6.53000      3.27857      4.20599     14.08609     -3.58092
     6.54000      3.37185      4.49719     13.34977     -3.60219
     6.55000      3.47645      4.79372     12.69148     -3.48340
     6.56000      3.59353      5.09606     12.12757     -3.25418
     6.57000      3.72436      5.40445     11.66720     -2.94149
     6.58000      3.87050      5.71931     11.31425     -2.56858
     6.59000      4.03363      6.04076     11.07012     -2.15558
     6.60000      4.21582      6.36903     10.93479     -1.71974
     6.61000      4.41932      6.70398     10.90808     -1.27683
     6.62000      4.64687      7.04549     10.98989     -0.84178
     6.63000      4.90144      7.39290     11.18036     -0.43020
     6.64000      5.18660      7.74541     11.47949     -0.05900
     6.65000      5.50622      8.10143     11.88611      0.25217
     6.66000      5.86486      8.45889     12.39680      0.48060
     6.67000      6.26733      8.81448     13.00331      0.59985
     6.68000      6.71908      9.16392     13.69061      0.58060
     6.69000      7.22555      9.50103     14.43307      0.39250
    6.700        7.792        9.818        15.19       0.8119E-2
     6.71000      8.42444     10.10344     15.91707     -0.59066
     6.72000      9.12535     10.34454     16.54281     -1.40545
     6.73000      9.89592     10.52430     17.00148     -2.41344
     6.74000     10.73324     10.62313     17.23215     -3.56519
     6.75000     11.62798     10.61931     17.19423     -4.78719
     6.76000     12.56367     10.49103     16.87803     -5.99477
     6.77000     13.51452     10.21955     16.30709     -7.10645
     6.78000     14.44703      9.79302     15.53121     -8.05978
     6.79000     15.32150      9.21076     14.61458     -8.81792
     6.80000     16.09785      8.48519     13.62164     -9.37077
     6.81000     16.74018      7.64234     12.60870     -9.72852
     6.82000     17.22233      6.71806     11.61795     -9.91442
     6.83000     17.52951      5.75474     10.67810     -9.95722
     6.84000     17.65925      4.79721      9.80581     -9.88623
     6.85000     17.62130      3.88933      9.00826     -9.72812
     6.86000     17.43766      3.07212      8.28686     -9.50567
     6.87000     17.14206      2.37870      7.63861     -9.23729
     6.88000     16.77767      1.83098      7.05876     -8.93760
     6.89000     16.39208      1.43576      6.54111     -8.61766
     6.90000     16.03203      1.18500      6.07954     -8.28594
     6.91000     15.73805      1.05742      5.66778     -7.94853
     6.92000     15.54199      1.02223      5.30025     -7.61005
     6.93000     15.46556      1.04235      4.97163     -7.27359
     6.94000     15.52042      1.07703      4.67741     -6.94149
     6.95000     15.70819      1.08343      4.41336     -6.61515
     6.96000     16.01982      1.01792      4.17601     -6.29565
     6.97000     16.43456      0.83770      3.96211     -5.98346
     6.98000     16.91803      0.50387      3.76903     -5.67898
    6.990        17.42       -.1395E-1     3.594       -5.382   
     7.00000     17.88431     -0.73065      3.43598     -5.09311
     7.01000     18.23646     -1.63930      3.29216     -4.81150
     7.02000     18.41109     -2.70568      3.16134     -4.53719
     7.03000     18.35585     -3.87031      3.04213     -4.26982
     7.04000     18.04473     -5.05535      2.93338     -4.00916
     7.05000     17.48377     -6.17996      2.83401     -3.75478
     7.06000     16.70894     -7.17389      2.74314     -3.50644
     7.07000     15.77569     -7.98978      2.65995     -3.26372
     7.08000     14.74700     -8.60559      2.58378     -3.02636
     7.09000     13.68109     -9.02271      2.51396     -2.79394
     7.10000     12.62579     -9.25841      2.44999     -2.56624
     7.11000     11.61470     -9.33905      2.39136     -2.34286
     7.12000     10.66934     -9.29366      2.33766     -2.12358
    7.130001     9.800314    -9.150049     2.288499    -1.908049
    7.139999     9.011343    -8.932775     2.243564    -1.696053
    7.150000     8.300704    -8.662126     2.202543    -1.487262
    7.159999     7.664213    -8.354458     2.165182    -1.281489
    7.170000     7.095763    -8.022299     2.131241    -1.078426
    7.179999     6.589044    -7.675326     2.100521    -0.877902
    7.190000     6.137404    -7.320542     2.072832    -0.679625
    7.200001     5.734782    -6.963190     2.048020    -0.483413
    7.210000     5.375577    -6.607062     2.025940    -0.289084
     7.22000      5.05459     -6.25463      2.00647     -0.09638
     7.23000      4.76742     -5.90778      1.98950      0.09485
    7.240001     4.510005    -5.567546     1.974927     0.284856
    7.250000     4.278948    -5.234711     1.962687     0.473754
    7.260001     4.071156    -4.909533     1.952702     0.661799
    7.270000     3.884066    -4.592223     1.944923     0.849108
    7.280001     3.715330    -4.282609     1.939300     1.035919
    7.290000     3.563012    -3.980616     1.935802     1.222348
    7.300001     3.425341    -3.685870     1.934405     1.408628
    7.310000     3.300856    -3.398151     1.935098     1.594874
    7.320001     3.188212    -3.116997     1.937876     1.781322
    7.330000     3.086302    -2.842120     1.942744     1.968077
    7.340001     2.994097    -2.573038     1.949720     2.155379
    7.350000     2.910760    -2.309444     1.958832     2.343343
    7.360001     2.835504    -2.050856     1.970116     2.532207
    7.370000     2.767687    -1.796977     1.983616     2.722089
    7.380001     2.706707    -1.547333     1.999395     2.913232
    7.390000     2.652076    -1.301644     2.017519     3.105767
    7.400001     2.603333    -1.059465     2.038073     3.299945
    7.410000     2.560106    -0.820527     2.061149     3.495899
    7.420001     2.522047    -0.584409     2.086862     3.693897
    7.430000     2.488878    -0.350861     2.115330     3.894085
    7.440001     2.460340    -0.119481     2.146703     4.096746
    7.450000     2.436229     0.109971     2.181132     4.302036
    7.460001     2.416361     0.337870     2.218807     4.510261
    7.470000     2.400596     0.564445     2.259919     4.721592
    7.480000     2.388810     0.790068     2.304708     4.936355
    7.490000     2.380922     1.014956     2.353419     5.154743
    7.500000     2.376862     1.239469     2.406348     5.377110
    7.510000     2.376598     1.463822     2.463805     5.603671
    7.520000     2.380116     1.688367     2.526165     5.834805
    7.529999     2.387429     1.913320     2.593817     6.070751
    7.540000     2.398576     2.139042     2.667236     6.311927
    7.549999     2.413622     2.365745     2.746912     6.558589
    7.560000     2.432658     2.593788     2.833451     6.811192
    7.570001     2.455802     2.823437     2.927493     7.070059
    7.580000     2.483197     3.054951     3.029764     7.335547
    7.590001     2.515034     3.288707     3.141133     7.608130
    7.600000     2.551515     3.524946     3.262520     7.888137
    7.610001     2.592907     3.764062     3.395044     8.176054
    7.620000     2.639489     4.006306     3.539906     8.472192
    7.630001     2.691617     4.252093     3.698560     8.777043
    7.640000     2.749669     4.501686     3.872573     9.090855
    7.650001     2.814111     4.755524     4.063854     9.414044
    7.660000     2.885445     5.013883     4.274469     9.746736
     7.67000      2.96428      5.27722      4.50693     10.08916
     7.68000      3.05128      5.54581      4.76398     10.44117
     7.69000      3.14725      5.82013      5.04893     10.80260
     7.70000      3.25304      6.10046      5.36540     11.17275
     7.71000      3.36971      6.38724      5.71774     11.55074
     7.72000      3.49839      6.68073      6.11071     11.93482
     7.73000      3.64048      6.98133      6.54993     12.32269
     7.74000      3.79748      7.28919      7.04145     12.71075
     7.75000      3.97122      7.60459      7.59224     13.09416
     7.76000      4.16368      7.92750      8.20951     13.46600
     7.77000      4.37729      8.25791      8.90111     13.81714
     7.78000      4.61468      8.59541      9.67429     14.13512
     7.79000      4.87903      8.93947     10.53584     14.40396
     7.80000      5.17380      9.28894     11.48977     14.60306
     7.81000      5.50307      9.64230     12.53666     14.70722
     7.82000      5.87126      9.99707     13.66997     14.68665
     7.83000      6.28344     10.34996     14.87438     14.50848
     7.84000      6.74486     10.69612     16.12145     14.13996
     7.85000      7.26127     11.02922     17.36915     13.55347
     7.86000      7.83797     11.34051     18.56106     12.73410
     7.87000      8.48001     11.61883     19.63268     11.68626
     7.88000      9.19049     11.84970     20.51951     10.43959
     7.89000      9.97021     12.01550     21.17052      9.04653
     7.90000     10.81509     12.09531     21.55751      7.57545
     7.91000     11.71518     12.06601     21.67977      6.09554
     7.92000     12.65163     11.90423     21.55878      4.66584
     7.93000     13.59656     11.58953     21.22767      3.32666
     7.94000     14.51214     11.10887     20.72023      2.10260
     7.95000     15.35353     10.46121     20.06497      1.00865
     7.96000     16.07404      9.66042     19.28506      0.05678
     7.97000     16.63057      8.73696     18.40359     -0.73945
     7.98000     16.99073      7.73473     17.44682     -1.36763
     7.99000     17.13684      6.70760     16.44658     -1.81957
     8.00000     17.06878      5.71229     15.43659     -2.09577
     8.01000     16.80390      4.80353     14.44947     -2.20571
     8.02000     16.37501      4.02682     13.51178     -2.16663
     8.03000     15.82628      3.41480     12.64322     -2.00010
     8.04000     15.20687      2.98365     11.85539     -1.72882
     8.05000     14.56516      2.73421     11.15400     -1.37437
     8.06000     13.94299      2.65445     10.53947     -0.95546
     8.07000     13.37370      2.72406     10.00960     -0.48783
     8.08000     12.88083      2.91871      9.55997      0.01632
     8.09000     12.48000      3.21328      9.18578      0.54733
     8.10000     12.18020      3.58409      8.88183      1.09831
     8.11000     11.98618      4.00942      8.64354      1.66398
     8.12000     11.89968      4.46991      8.46675      2.24097
     8.13000     11.92074      4.94760      8.34817      2.82670
     8.14000     12.04806      5.42572      8.28528      3.41982
     8.15000     12.27897      5.88742      8.27646      4.01922
     8.16000     12.60900      6.31577      8.32094      4.62458
     8.17000     13.03062      6.69314      8.41883      5.23541
     8.18000     13.53236      7.00232      8.57119      5.85167
     8.19000     14.09718      7.22760      8.77993      6.47283
     8.20000     14.70263      7.35776      9.04802      7.09847
     8.21000     15.32119      7.38908      9.37928      7.72735
     8.22000     15.92422      7.32857      9.77879      8.35786
     8.23000     16.48652      7.19532     10.25245      8.98703
     8.24000     16.99322      7.01862     10.80752      9.61092
     8.25000     17.44406      6.83276     11.45196     10.22335
     8.26000     17.85554      6.66913     12.19497     10.81611
     8.27000     18.25760      6.54885     13.04583     11.37753
     8.28000     18.68823      6.47748     14.01425     11.89235
     8.29000     19.18569      6.44359     15.10843     12.34031
     8.30000     19.78224      6.42017     16.33384     12.69572
     8.31000     20.49950      6.36795     17.69170     12.92723
     8.32000     21.34427      6.23959     19.17463     12.99789
     8.33000     22.30709      5.98435     20.76512     12.86720
     8.34000     23.35976      5.55396     22.43041     12.49467
     8.35000     24.45700      4.90894     24.12262     11.84532
     8.36000     25.53857      4.02657     25.77742     10.89761
     8.37000     26.53794      2.90593     27.32073      9.65019
     8.38000     27.39160      1.57086     28.67553      8.12866
     8.39000     28.05103      0.06397     29.77568      6.38493
     8.40000     28.48809     -1.56189     30.57643      4.49381
     8.41000     28.69465     -3.25734     31.06462      2.53909
     8.42000     28.67414     -4.98216     31.25975      0.60013
     8.43000     28.43178     -6.70752     31.20735     -1.26594
     8.44000     27.96844     -8.40738     30.96402     -3.03105
     8.45000     27.28116    -10.05230     30.57986     -4.69823
     8.46000     26.37068    -11.60264     30.08437     -6.28923
     8.47000     25.24904    -13.01257     29.48010     -7.83054
     8.48000     23.94604    -14.23562     28.74748     -9.33483
     8.49000     22.50694    -15.23607     27.85689    -10.79218
     8.50000     20.98800    -15.99443     26.78634    -12.16702
     8.51000     19.44573    -16.51105     25.53397    -13.40896
     8.52000     17.93105    -16.80257     24.12474    -14.46594
     8.53000     16.48247    -16.89716     22.60454    -15.29990
     8.54000     15.12660    -16.82821     21.03111    -15.89358
     8.55000     13.87744    -16.62949     19.46053    -16.25192
     8.56000     12.74056    -16.33205     17.94057    -16.39643
     8.57000     11.71420    -15.96243     16.50478    -16.35845
     8.58000     10.79315    -15.54253     15.17439    -16.17254
     8.59000      9.96926    -15.08938     13.95858    -15.87187
     8.60000      9.23396    -14.61632     12.85912    -15.48586
     8.61000      8.57803    -14.13309     11.87163    -15.03882
     8.62000      7.99308    -13.64710     10.98922    -14.55044
     8.63000      7.47094    -13.16339     10.20284    -14.03568
     8.64000      7.00459    -12.68575      9.50351    -13.50611
     8.65000      6.58744    -12.21648      8.88195    -12.96998
     8.66000      6.21392    -11.75724      8.32983    -12.43345
     8.67000      5.87914    -11.30901      7.83953    -11.90085
     8.68000      5.57866    -10.87209      7.40398    -11.37490
     8.69000      5.30884    -10.44674      7.01728    -10.85763
     8.70000      5.06634    -10.03264      6.67399    -10.34998
    8.710000     4.848439    -9.629639     6.369635    -9.852631
    8.720001     4.652636    -9.237138     6.100142    -9.365570
    8.730000     4.476900    -8.854738     5.862204    -8.888786
    8.740001     4.319374    -8.481747     5.652841    -8.421745
    8.750000     4.178564    -8.117664     5.469657    -7.964081
    8.760001     4.053098    -7.761743     5.310525    -7.515023
    8.770000     3.941899    -7.413475     5.173780    -7.074035
    8.780001     3.843985    -7.072102     5.057987    -6.640233
    8.790000     3.758606    -6.737118     4.962056    -6.213017
    8.800001     3.685094    -6.407790     4.885118    -5.791499
    8.809999     3.622977    -6.083629     4.826605    -5.375068
    8.820001     3.571859    -5.763934     4.786142    -4.962871
    8.830000     3.531505    -5.448236     4.763627    -4.554356
    8.840000     3.501776    -5.135882     4.759174    -4.148751
    8.849999     3.482671    -4.826440     4.773141    -3.745618
    8.860001     3.474299    -4.519295     4.806149    -3.344331
    8.870000     3.476900    -4.214063     4.859066    -2.944664
    8.880000     3.490851    -3.910198     4.933067    -2.546256
    8.889999     3.516672    -3.607387     5.029597    -2.149235
    8.900001     3.555047    -3.305185     5.150470    -1.753744
    8.910000     3.606818    -3.003409     5.297771    -1.360529
    8.920000     3.673050    -2.701782     5.474023    -0.970593
    8.929999     3.754986    -2.400340     5.681966    -0.585820
    8.940001     3.854154    -2.099103     5.924743    -0.208681
    8.950000     3.972286    -1.798521     6.205523     0.157016
    8.960000     4.111469    -1.499146     6.527595     0.506347
    8.969999     4.274011    -1.202145     6.893650     0.832455
    8.980000     4.462612    -0.909033     7.305634     1.126756
    8.990000     4.680135    -0.622232     7.763458     1.378339
    9.000000     4.929762    -0.344925     8.264380     1.574412
     9.01000      5.21458     -0.08166      8.80102      1.70067
    9.020000     5.537620     0.161667     9.360598     1.742932
    9.030001     5.901122     0.377245     9.923246     1.689514
     9.04000      6.30595      0.55521     10.46247      1.53483
     9.05000      6.75088      0.68365     10.94755      1.28315
     9.06000      7.23085      0.74873     11.34766      0.95177
     9.07000      7.73604      0.73581     11.63890      0.57088
     9.08000      8.25000      0.63119     11.81033      0.18030
     9.09000      8.74953      0.42514     11.86794     -0.17807
     9.10000      9.20506      0.11576     11.83369     -0.46785
     9.11000      9.58442     -0.28754     11.74070     -0.66477
     9.12000      9.85787     -0.76167     11.62665     -0.75866
     9.13000     10.00536     -1.27176     11.52768     -0.75260
     9.14000     10.02172     -1.77588     11.47475     -0.65952
     9.15000      9.91866     -2.23345     11.49208     -0.49877
     9.16000      9.72200     -2.61218     11.59733     -0.29345
     9.17000      9.46562     -2.89318     11.80250     -0.06868
     9.18000      9.18504     -3.07111     12.11446      0.14869
     9.19000      8.91191     -3.15222     12.53549      0.33033
     9.20000      8.67173     -3.15039     13.06220      0.44582
     9.21000      8.48287     -3.08385     13.68467      0.46307
     9.22000      8.35756     -2.97265     14.38359      0.34925
     9.23000      8.30271     -2.83732     15.12886      0.07337
     9.24000      8.32103     -2.69840     15.87728     -0.38903
     9.25000      8.41136     -2.57633     16.57412     -1.05011
     9.26000      8.56845     -2.49169     17.15661     -1.90257
     9.27000      8.78234     -2.46480     17.56301     -2.91594
     9.28000      9.03708     -2.51481     17.74285     -4.03539
     9.29000      9.31011     -2.65769     17.66830     -5.18925
     9.30000      9.57189     -2.90302     17.34017     -6.29905
     9.31000      9.78806     -3.25050     16.78749     -7.29440
     9.32000      9.92335     -3.68653     16.06063     -8.12251
     9.33000      9.94803     -4.18397     15.21981     -8.75481
     9.34000      9.84434     -4.70457     14.32502     -9.18508
     9.35000      9.61074     -5.20621     13.42717     -9.42513
     9.36000      9.26200     -5.65029     12.56560     -9.49747
     9.37000      8.82465     -6.00890     11.76655     -9.42943
     9.38000      8.33081     -6.26722     11.04607     -9.24854
     9.39000      7.81138     -6.42315     10.41169     -8.97978
    9.400001     7.292389    -6.483762     9.865763    -8.644521
    9.410000     6.792987    -6.461582     9.407304    -8.260274
    9.420001     6.325345    -6.371168     9.033379    -7.840801
    9.430000     5.896355    -6.226842     8.740755    -7.397116
    9.440001     5.508497    -6.041310     8.526127    -6.937641
    9.450000     5.161749    -5.825319     8.387005    -6.469368
    9.460001     4.854177    -5.587367     8.321614    -5.997912
    9.470000     4.583158    -5.334183     8.329350    -5.528644
    9.480000     4.345517    -5.070721     8.410626    -5.066631
    9.490000     4.138202    -4.800786     8.566892    -4.617767
    9.500001     3.958172    -4.526966     8.800566    -4.188737
    9.510000     3.802767    -4.251242     9.114616    -3.788201
    9.520000     3.669518    -3.974799     9.512422    -3.426913
    9.530000     3.556357    -3.698537     9.996634    -3.118916
     9.54000      3.46144     -3.42284     10.56858     -2.88173
     9.55000      3.38329     -3.14802     11.22602     -2.73718
     9.56000      3.32060     -2.87401     11.96169     -2.71103
     9.57000      3.27239     -2.60078     12.75966     -2.83213
     9.58000      3.23784     -2.32802     13.59326     -3.12981
     9.59000      3.21638     -2.05552     14.42178     -3.62911
     9.60000      3.20758     -1.78284     15.19118     -4.34446
     9.61000      3.21125     -1.50969     15.83649     -5.27109
     9.62000      3.22734     -1.23556     16.29122     -6.37955
     9.63000      3.25597     -0.96011     16.49911     -7.61281
     9.64000      3.29748     -0.68281     16.42773     -8.89356
     9.65000      3.35233     -0.40334     16.07686    -10.13582
     9.66000      3.42123     -0.12119     15.47830    -11.26253
     9.67000      3.50507      0.16392     14.68760    -12.21704
     9.68000      3.60497      0.45241     13.77029    -12.97034
     9.69000      3.72231      0.74445     12.79015    -13.51807
     9.70000      3.85876      1.04028     11.79984    -13.87493
     9.71000      4.01627      1.33980     10.83869    -14.06615
     9.72000      4.19722      1.64293      9.93174    -14.12123
     9.73000      4.40428      1.94910      9.09332    -14.06901
     9.74000      4.64073      2.25756      8.32887    -13.93531
     9.75000      4.91022      2.56693      7.63863    -13.74178
     9.76000      5.21690      2.87514      7.01931    -13.50596
     9.77000      5.56566      3.17936      6.46548    -13.24142
     9.78000      5.96167      3.47537      5.97131    -12.95866
     9.79000      6.41080      3.75756      5.53042    -12.66540
     9.80000      6.91890      4.01807      5.13702    -12.36752
     9.81000      7.49195      4.24666      4.78546    -12.06906
     9.82000      8.13479      4.42968      4.47086    -11.77313
     9.83000      8.85083      4.54983      4.18868    -11.48169
     9.84000      9.63961      4.58554      3.93510    -11.19623
     9.85000     10.49564      4.51119      3.70660    -10.91757
     9.86000     11.40462      4.29806      3.50028    -10.64633
     9.87000     12.34166      3.91676      3.31347    -10.38270
     9.88000     13.26783      3.34205      3.14396    -10.12685
     9.89000     14.13090      2.55887      2.98975     -9.87862
     9.90000     14.86757      1.57089      2.84916     -9.63797
     9.91000     15.41256      0.40585      2.72068     -9.40460
     9.92000     15.70995     -0.88118      2.60304     -9.17832
     9.93000     15.72673     -2.21481      2.49506     -8.95877
     9.94000     15.46116     -3.51013      2.39581     -8.74574
     9.95000     14.94332     -4.69017      2.30436     -8.53886
     9.96000     14.22734     -5.69728      2.22000     -8.33788
     9.97000     13.37812     -6.50092      2.14201     -8.14244
     9.98000     12.45969     -7.09512      2.06983     -7.95232
     9.99000     11.52559     -7.49339      2.00291     -7.76717
    10.00000     10.61625     -7.72022      1.94080     -7.58680
# 
# 04/09/2018 at 16:10 YAMBO @ narro [start]
# 04/09/2018 at 16:10               [end]
#  
# Timing   [Min/Max/Average]: 11s/11s/11s
#
# .-Input file : yambo.in
# | optics                         # [R OPT] Optics
# | bse                            # [R BSE] Bethe Salpeter Equation.
# | bsk                            # [R BSK] Bethe Salpeter Equation kernel
# | bss                            # [R BSS] Bethe Salpeter Equation solver
# | em1s                           # [R Xs] Static Inverse Dielectric Matrix
# | BoseTemp= 0.000000     eV      # Bosonic Temperature
# | FFTGvecs=  3473        RL      # [FFT] Plane-waves
# | Chimod= "hartree"              # [X] IP/Hartree/ALDA/LRC/BSfxc
# | BSEmod= "resonant"             # [BSE] resonant/retarded/coupling
# | Lkind= "full"                  # [BSE] Lbar (default) / full
# | BSKmod= "SEX"                  # [BSE] IP/Hartree/HF/ALDA/SEX/BSfxc
# | BSSmod= "d"                    # [BSS] (h)aydock/(d)iagonalization/(i)nversion/(t)ddft`
# | BSENGexx=  51          RL      # [BSK] Exchange components
# | BSENGBlk=  51          RL      # [BSK] Screened interaction block size
# | #WehCpl                        # [BSK] eh interaction included also in coupling
# | % BEnRange
# | -10.00000 | 10.00000 | eV      # [BSS] Energy range
# | %
# | % BDmRange
# |   0.10000 |  0.10000 | eV      # [BSS] Damping range
# | %
# | BEnSteps= 2001                 # [BSS] Energy steps
# | % BLongDir
# | 0.5774E-5 |0.5774E-5 |0.5774E-5 |        # [BSS] [cc] Electric Field
# | %
# | % BSEQptR
# |   1 |  4 |                     # [BSK] Transferred momenta range
# | %
# | % BSEBands
# |   3 | 10 |                     # [BSK] Bands range
# | %
# | % BndsRnXs
# |    1 |  60 |                   # [Xs] Polarization function bands
# | %
# | NGsBlkXs=  51          RL      # [Xs] Response block size
# | % DmRngeXs
# | 0.1000E-2 |0.1000E-2 | eV      # [Xs] Damping range
# | %
# | % LongDrXs
# | 0.1000E-4 | 0.000    | 0.000    |        # [Xs] [cc] Electric Field
# | %
