#                                                           
#   __   __     _        __  __       ____      U  ___  u   
#   \ \ / / U  /"\  U u |" \/ "| u U | __") u    \/"_ \/    
#    \ V /   \/ _ \/   \| |\/| |/   \|  _ \/     | | | |    
#   U_|"|_u  / ___ \    | |  | |     | |_) | .-,_| |_| |    
#     |_|   /_/   \_\   |_|  |_|     |____/   \_)-\___/     
# .-,//|(_   \\    >>  <<,-,,-.     _|| \\_        \\       
#  \_) (__) (__)  (__)  (./  \.)   (__) (__)      (__)      
#                                                           
#                                                           
#        Version 4.3.0 Revision 15341 Hash c146fb2          
#                      MPI+SLK Build                        
#                http://www.yambo-code.org                  
#
# Joint density of states @ Q(2) [iku] : 0.500000  0.250000  0.000000
#
# - Energies      are Teter 93(XC)
# - The Green`s function is Resonant -
#
#   BSK|Identifier              :6838
#      |Dimension               :96
#      |Bands                   :3 - 10
#      |Exchange           [res]: yes
#      |Correlation        [res]: yes
#      |Kernel`s coupling       : no
#      |Exchange           [cpl]: no
#      |Correlation        [cpl]: no
#      |W interaction is bare   : no
#      |ALDA kernel in R-space  : no
#      |RL vectors    [exchange]:51
#      |RL vectors [correlation]:51
#      |E/h energy range    [ev]:-1.000000 - -1.000000
#      |Coupling range     [o/o]: 100.0000 -  100.0000
#    W |Interaction is diagonal : no
#      |Matrix size             :51
#      |Bands                   :1 - 60
#      |e/h energy range    [ev]:-1.000000 - -1.000000
#      |Poles              [o/o]: 100.0000
#      |RL vectors in the sum   :3473
#      |[r,Vnl] included        : yes
#      |Field direction         :0.1000E-4  0.000000  0.000000
#      |Coulomb Cutoff          :none
#      |xc-Kernel               :none
#   RIM|RL components      [col]:0
#      |Random points      [col]:0
#
#    E/ev[1]      jdos-Im[2]   jdos-Re[3]   jdoso-Im[4]  jdoso-Re[5]  jdos`-Im[6]  jdos`-Re[7]
#
   -10.00000      0.01092      1.91497      0.01025      1.86297
    -9.99000      0.01093      1.91606      0.01026      1.86399
    -9.98000      0.01094      1.91715      0.01027      1.86502
    -9.97000      0.01095      1.91825      0.01028      1.86605
    -9.96000      0.01097      1.91935      0.01029      1.86708
    -9.95000      0.01098      1.92044      0.01030      1.86811
    -9.94000      0.01099      1.92154      0.01032      1.86914
    -9.93000      0.01101      1.92264      0.01033      1.87017
    -9.92000      0.01102      1.92374      0.01034      1.87120
    -9.91000      0.01103      1.92484      0.01035      1.87224
    -9.90000      0.01105      1.92595      0.01036      1.87327
    -9.89000      0.01106      1.92705      0.01037      1.87431
    -9.88000      0.01107      1.92816      0.01039      1.87535
    -9.87000      0.01109      1.92927      0.01040      1.87639
    -9.86000      0.01110      1.93038      0.01041      1.87743
    -9.85000      0.01111      1.93149      0.01042      1.87847
    -9.84000      0.01113      1.93260      0.01043      1.87951
    -9.83000      0.01114      1.93371      0.01045      1.88055
    -9.82000      0.01115      1.93483      0.01046      1.88160
    -9.81000      0.01117      1.93594      0.01047      1.88265
    -9.80000      0.01118      1.93706      0.01048      1.88369
    -9.79000      0.01119      1.93818      0.01049      1.88474
    -9.78000      0.01121      1.93930      0.01051      1.88579
    -9.77000      0.01122      1.94042      0.01052      1.88684
    -9.76000      0.01123      1.94154      0.01053      1.88790
    -9.75000      0.01125      1.94267      0.01054      1.88895
    -9.74000      0.01126      1.94379      0.01055      1.89000
    -9.73000      0.01127      1.94492      0.01057      1.89106
    -9.72000      0.01129      1.94605      0.01058      1.89212
    -9.71000      0.01130      1.94718      0.01059      1.89318
    -9.70000      0.01131      1.94831      0.01060      1.89424
    -9.69000      0.01133      1.94944      0.01062      1.89530
    -9.68000      0.01134      1.95057      0.01063      1.89636
    -9.67000      0.01136      1.95171      0.01064      1.89742
    -9.66000      0.01137      1.95284      0.01065      1.89849
    -9.65000      0.01138      1.95398      0.01066      1.89955
    -9.64000      0.01140      1.95512      0.01068      1.90062
    -9.63000      0.01141      1.95626      0.01069      1.90169
    -9.62000      0.01143      1.95740      0.01070      1.90276
    -9.61000      0.01144      1.95855      0.01071      1.90383
    -9.60000      0.01145      1.95969      0.01073      1.90490
    -9.59000      0.01147      1.96084      0.01074      1.90597
    -9.58000      0.01148      1.96198      0.01075      1.90705
    -9.57000      0.01149      1.96313      0.01076      1.90812
    -9.56000      0.01151      1.96428      0.01078      1.90920
    -9.55000      0.01152      1.96543      0.01079      1.91028
    -9.54000      0.01154      1.96659      0.01080      1.91136
    -9.53000      0.01155      1.96774      0.01081      1.91244
    -9.52000      0.01157      1.96890      0.01083      1.91352
    -9.51000      0.01158      1.97005      0.01084      1.91460
    -9.50000      0.01159      1.97121      0.01085      1.91569
    -9.49000      0.01161      1.97237      0.01087      1.91677
    -9.48000      0.01162      1.97353      0.01088      1.91786
    -9.47000      0.01164      1.97469      0.01089      1.91895
    -9.46000      0.01165      1.97586      0.01090      1.92004
    -9.45000      0.01166      1.97703      0.01092      1.92113
    -9.44000      0.01168      1.97819      0.01093      1.92222
    -9.43000      0.01169      1.97936      0.01094      1.92332
    -9.42000      0.01171      1.98053      0.01095      1.92441
    -9.41000      0.01172      1.98170      0.01097      1.92551
    -9.40000      0.01174      1.98288      0.01098      1.92660
    -9.39000      0.01175      1.98405      0.01099      1.92770
    -9.38000      0.01177      1.98523      0.01101      1.92880
    -9.37000      0.01178      1.98640      0.01102      1.92990
    -9.36000      0.01180      1.98758      0.01103      1.93101
    -9.35000      0.01181      1.98876      0.01105      1.93211
    -9.34000      0.01182      1.98994      0.01106      1.93322
    -9.33000      0.01184      1.99113      0.01107      1.93432
    -9.32000      0.01185      1.99231      0.01108      1.93543
    -9.31000      0.01187      1.99350      0.01110      1.93654
    -9.30000      0.01188      1.99468      0.01111      1.93765
    -9.29000      0.01190      1.99587      0.01112      1.93876
    -9.28000      0.01191      1.99706      0.01114      1.93987
    -9.27000      0.01193      1.99826      0.01115      1.94099
    -9.26000      0.01194      1.99945      0.01116      1.94210
    -9.25000      0.01196      2.00064      0.01118      1.94322
    -9.24000      0.01197      2.00184      0.01119      1.94434
    -9.23000      0.01199      2.00304      0.01120      1.94546
    -9.22000      0.01200      2.00424      0.01122      1.94658
    -9.21000      0.01202      2.00544      0.01123      1.94770
    -9.20000      0.01203      2.00664      0.01124      1.94883
    -9.19000      0.01205      2.00784      0.01126      1.94995
    -9.18000      0.01206      2.00905      0.01127      1.95108
    -9.17000      0.01208      2.01026      0.01128      1.95220
    -9.16000      0.01209      2.01146      0.01130      1.95333
    -9.15000      0.01211      2.01268      0.01131      1.95446
    -9.14000      0.01212      2.01389      0.01132      1.95559
    -9.13000      0.01214      2.01510      0.01134      1.95673
    -9.12000      0.01215      2.01631      0.01135      1.95786
    -9.11000      0.01217      2.01753      0.01136      1.95900
    -9.10000      0.01218      2.01875      0.01138      1.96014
    -9.09000      0.01220      2.01997      0.01139      1.96127
    -9.08000      0.01221      2.02119      0.01141      1.96241
    -9.07000      0.01223      2.02241      0.01142      1.96355
    -9.06000      0.01225      2.02363      0.01143      1.96470
    -9.05000      0.01226      2.02486      0.01145      1.96584
    -9.04000      0.01228      2.02609      0.01146      1.96699
    -9.03000      0.01229      2.02731      0.01147      1.96813
    -9.02000      0.01231      2.02854      0.01149      1.96928
    -9.01000      0.01232      2.02977      0.01150      1.97043
    -9.00000      0.01234      2.03101      0.01152      1.97158
    -8.99000      0.01235      2.03224      0.01153      1.97273
    -8.98000      0.01237      2.03348      0.01154      1.97389
    -8.97000      0.01239      2.03472      0.01156      1.97504
    -8.96000      0.01240      2.03596      0.01157      1.97620
    -8.95000      0.01242      2.03720      0.01159      1.97736
    -8.94000      0.01243      2.03844      0.01160      1.97852
    -8.93000      0.01245      2.03968      0.01161      1.97968
    -8.92000      0.01247      2.04093      0.01163      1.98084
    -8.91000      0.01248      2.04218      0.01164      1.98200
    -8.90000      0.01250      2.04343      0.01166      1.98317
    -8.89000      0.01251      2.04468      0.01167      1.98433
    -8.88000      0.01253      2.04593      0.01168      1.98550
    -8.87000      0.01255      2.04718      0.01170      1.98667
    -8.86000      0.01256      2.04844      0.01171      1.98784
    -8.85000      0.01258      2.04969      0.01173      1.98901
    -8.84000      0.01259      2.05095      0.01174      1.99018
    -8.83000      0.01261      2.05221      0.01176      1.99136
    -8.82000      0.01263      2.05347      0.01177      1.99254
    -8.81000      0.01264      2.05474      0.01178      1.99371
    -8.80000      0.01266      2.05600      0.01180      1.99489
    -8.79000      0.01267      2.05727      0.01181      1.99607
    -8.78000      0.01269      2.05854      0.01183      1.99725
    -8.77000      0.01271      2.05981      0.01184      1.99844
    -8.76000      0.01272      2.06108      0.01186      1.99962
    -8.75000      0.01274      2.06235      0.01187      2.00081
    -8.74000      0.01276      2.06363      0.01189      2.00200
    -8.73000      0.01277      2.06490      0.01190      2.00319
    -8.72000      0.01279      2.06618      0.01192      2.00438
    -8.71000      0.01281      2.06746      0.01193      2.00557
    -8.70000      0.01282      2.06874      0.01194      2.00676
    -8.69000      0.01284      2.07002      0.01196      2.00796
    -8.68000      0.01286      2.07131      0.01197      2.00915
    -8.67000      0.01287      2.07259      0.01199      2.01035
    -8.66000      0.01289      2.07388      0.01200      2.01155
    -8.65000      0.01291      2.07517      0.01202      2.01275
    -8.64000      0.01292      2.07646      0.01203      2.01396
    -8.63000      0.01294      2.07776      0.01205      2.01516
    -8.62000      0.01296      2.07905      0.01206      2.01637
    -8.61000      0.01297      2.08035      0.01208      2.01757
    -8.60000      0.01299      2.08165      0.01209      2.01878
    -8.59000      0.01301      2.08295      0.01211      2.01999
    -8.58000      0.01303      2.08425      0.01212      2.02120
    -8.57000      0.01304      2.08555      0.01214      2.02242
    -8.56000      0.01306      2.08686      0.01215      2.02363
    -8.55000      0.01308      2.08816      0.01217      2.02485
    -8.54000      0.01309      2.08947      0.01218      2.02606
    -8.53000      0.01311      2.09078      0.01220      2.02728
    -8.52000      0.01313      2.09209      0.01221      2.02850
    -8.51000      0.01315      2.09341      0.01223      2.02973
    -8.50000      0.01316      2.09472      0.01224      2.03095
    -8.49000      0.01318      2.09604      0.01226      2.03217
    -8.48000      0.01320      2.09736      0.01227      2.03340
    -8.47000      0.01321      2.09868      0.01229      2.03463
    -8.46000      0.01323      2.10000      0.01231      2.03586
    -8.45000      0.01325      2.10132      0.01232      2.03709
    -8.44000      0.01327      2.10265      0.01234      2.03832
    -8.43000      0.01328      2.10398      0.01235      2.03956
    -8.42000      0.01330      2.10531      0.01237      2.04079
    -8.41000      0.01332      2.10664      0.01238      2.04203
    -8.40000      0.01334      2.10797      0.01240      2.04327
    -8.39000      0.01336      2.10931      0.01241      2.04451
    -8.38000      0.01337      2.11064      0.01243      2.04575
    -8.37000      0.01339      2.11198      0.01245      2.04699
    -8.36000      0.01341      2.11332      0.01246      2.04824
    -8.35000      0.01343      2.11466      0.01248      2.04949
    -8.34000      0.01344      2.11600      0.01249      2.05074
    -8.33000      0.01346      2.11735      0.01251      2.05199
    -8.32000      0.01348      2.11870      0.01252      2.05324
    -8.31000      0.01350      2.12005      0.01254      2.05449
    -8.30000      0.01352      2.12140      0.01256      2.05575
    -8.29000      0.01353      2.12275      0.01257      2.05700
    -8.28000      0.01355      2.12410      0.01259      2.05826
    -8.27000      0.01357      2.12546      0.01260      2.05952
    -8.26000      0.01359      2.12682      0.01262      2.06078
    -8.25000      0.01361      2.12818      0.01264      2.06204
    -8.24000      0.01363      2.12954      0.01265      2.06331
    -8.23000      0.01364      2.13090      0.01267      2.06457
    -8.22000      0.01366      2.13227      0.01268      2.06584
    -8.21000      0.01368      2.13363      0.01270      2.06711
    -8.20000      0.01370      2.13500      0.01272      2.06838
    -8.19000      0.01372      2.13637      0.01273      2.06965
    -8.18000      0.01374      2.13775      0.01275      2.07093
    -8.17000      0.01375      2.13912      0.01276      2.07220
    -8.16000      0.01377      2.14050      0.01278      2.07348
    -8.15000      0.01379      2.14187      0.01280      2.07476
    -8.14000      0.01381      2.14325      0.01281      2.07604
    -8.13000      0.01383      2.14463      0.01283      2.07732
    -8.12000      0.01385      2.14602      0.01285      2.07860
    -8.11000      0.01387      2.14740      0.01286      2.07989
    -8.10000      0.01388      2.14879      0.01288      2.08118
    -8.09000      0.01390      2.15018      0.01290      2.08246
    -8.08000      0.01392      2.15157      0.01291      2.08375
    -8.07000      0.01394      2.15297      0.01293      2.08505
    -8.06000      0.01396      2.15436      0.01295      2.08634
    -8.05000      0.01398      2.15576      0.01296      2.08764
    -8.04000      0.01400      2.15716      0.01298      2.08893
    -8.03000      0.01402      2.15856      0.01300      2.09023
    -8.02000      0.01404      2.15996      0.01301      2.09153
    -8.01000      0.01406      2.16136      0.01303      2.09283
    -8.00000      0.01408      2.16277      0.01305      2.09414
    -7.99000      0.01409      2.16418      0.01306      2.09544
    -7.98000      0.01411      2.16559      0.01308      2.09675
    -7.97000      0.01413      2.16700      0.01310      2.09806
    -7.96000      0.01415      2.16842      0.01311      2.09937
    -7.95000      0.01417      2.16983      0.01313      2.10068
    -7.94000      0.01419      2.17125      0.01315      2.10200
    -7.93000      0.01421      2.17267      0.01317      2.10331
    -7.92000      0.01423      2.17409      0.01318      2.10463
    -7.91000      0.01425      2.17552      0.01320      2.10595
    -7.90000      0.01427      2.17694      0.01322      2.10727
    -7.89000      0.01429      2.17837      0.01323      2.10859
    -7.88000      0.01431      2.17980      0.01325      2.10991
    -7.87000      0.01433      2.18123      0.01327      2.11124
    -7.86000      0.01435      2.18266      0.01329      2.11257
    -7.85000      0.01437      2.18410      0.01330      2.11390
    -7.84000      0.01439      2.18554      0.01332      2.11523
    -7.83000      0.01441      2.18698      0.01334      2.11656
    -7.82000      0.01443      2.18842      0.01336      2.11789
    -7.81000      0.01445      2.18986      0.01337      2.11923
    -7.80000      0.01447      2.19131      0.01339      2.12057
    -7.79000      0.01449      2.19276      0.01341      2.12191
    -7.78000      0.01451      2.19421      0.01343      2.12325
    -7.77000      0.01453      2.19566      0.01344      2.12459
    -7.76000      0.01455      2.19711      0.01346      2.12594
    -7.75000      0.01457      2.19857      0.01348      2.12728
    -7.74000      0.01459      2.20003      0.01350      2.12863
    -7.73000      0.01461      2.20148      0.01351      2.12999
    -7.72000      0.01463      2.20295      0.01353      2.13134
    -7.71000      0.01465      2.20441      0.01355      2.13269
    -7.70000      0.01467      2.20588      0.01357      2.13405
    -7.69000      0.01469      2.20734      0.01359      2.13540
    -7.68000      0.01471      2.20881      0.01360      2.13676
    -7.67000      0.01473      2.21029      0.01362      2.13812
    -7.66000      0.01475      2.21176      0.01364      2.13949
    -7.65000      0.01477      2.21324      0.01366      2.14085
    -7.64000      0.01480      2.21471      0.01368      2.14222
    -7.63000      0.01482      2.21620      0.01369      2.14359
    -7.62000      0.01484      2.21768      0.01371      2.14496
    -7.61000      0.01486      2.21916      0.01373      2.14633
    -7.60000      0.01488      2.22065      0.01375      2.14770
    -7.59000      0.01490      2.22214      0.01377      2.14908
    -7.58000      0.01492      2.22363      0.01378      2.15046
    -7.57000      0.01494      2.22512      0.01380      2.15184
    -7.56000      0.01496      2.22662      0.01382      2.15322
    -7.55000      0.01498      2.22811      0.01384      2.15460
    -7.54000      0.01501      2.22961      0.01386      2.15598
    -7.53000      0.01503      2.23112      0.01388      2.15737
    -7.52000      0.01505      2.23262      0.01390      2.15876
    -7.51000      0.01507      2.23412      0.01391      2.16015
    -7.50000      0.01509      2.23563      0.01393      2.16154
    -7.49000      0.01511      2.23714      0.01395      2.16294
    -7.48000      0.01513      2.23865      0.01397      2.16433
    -7.47000      0.01516      2.24017      0.01399      2.16573
    -7.46000      0.01518      2.24169      0.01401      2.16713
    -7.45000      0.01520      2.24320      0.01403      2.16853
    -7.44000      0.01522      2.24473      0.01405      2.16993
    -7.43000      0.01524      2.24625      0.01406      2.17134
    -7.42000      0.01526      2.24777      0.01408      2.17275
    -7.41000      0.01529      2.24930      0.01410      2.17416
    -7.40000      0.01531      2.25083      0.01412      2.17557
    -7.39000      0.01533      2.25236      0.01414      2.17698
    -7.38000      0.01535      2.25390      0.01416      2.17840
    -7.37000      0.01537      2.25543      0.01418      2.17981
    -7.36000      0.01540      2.25697      0.01420      2.18123
    -7.35000      0.01542      2.25851      0.01422      2.18265
    -7.34000      0.01544      2.26005      0.01424      2.18407
    -7.33000      0.01546      2.26160      0.01426      2.18550
    -7.32000      0.01549      2.26315      0.01427      2.18692
    -7.31000      0.01551      2.26469      0.01429      2.18835
    -7.30000      0.01553      2.26625      0.01431      2.18978
    -7.29000      0.01555      2.26780      0.01433      2.19121
    -7.28000      0.01558      2.26936      0.01435      2.19265
    -7.27000      0.01560      2.27092      0.01437      2.19408
    -7.26000      0.01562      2.27248      0.01439      2.19552
    -7.25000      0.01564      2.27404      0.01441      2.19696
    -7.24000      0.01567      2.27561      0.01443      2.19840
    -7.23000      0.01569      2.27717      0.01445      2.19985
    -7.22000      0.01571      2.27874      0.01447      2.20130
    -7.21000      0.01573      2.28031      0.01449      2.20274
    -7.20000      0.01576      2.28189      0.01451      2.20419
    -7.19000      0.01578      2.28347      0.01453      2.20564
    -7.18000      0.01580      2.28504      0.01455      2.20710
    -7.17000      0.01583      2.28663      0.01457      2.20855
    -7.16000      0.01585      2.28821      0.01459      2.21001
    -7.15000      0.01587      2.28979      0.01461      2.21147
    -7.14000      0.01590      2.29138      0.01463      2.21293
    -7.13000      0.01592      2.29298      0.01465      2.21440
    -7.12000      0.01594      2.29457      0.01467      2.21586
    -7.11000      0.01597      2.29616      0.01469      2.21733
    -7.10000      0.01599      2.29776      0.01471      2.21880
    -7.09000      0.01601      2.29936      0.01473      2.22027
    -7.08000      0.01604      2.30096      0.01475      2.22175
    -7.07000      0.01606      2.30257      0.01477      2.22322
    -7.06000      0.01608      2.30417      0.01479      2.22470
    -7.05000      0.01611      2.30578      0.01481      2.22618
    -7.04000      0.01613      2.30739      0.01483      2.22766
    -7.03000      0.01616      2.30901      0.01485      2.22915
    -7.02000      0.01618      2.31063      0.01487      2.23063
    -7.01000      0.01620      2.31225      0.01489      2.23212
    -7.00000      0.01623      2.31387      0.01492      2.23361
    -6.99000      0.01625      2.31549      0.01494      2.23510
    -6.98000      0.01628      2.31712      0.01496      2.23660
    -6.97000      0.01630      2.31874      0.01498      2.23810
    -6.96000      0.01632      2.32038      0.01500      2.23959
    -6.95000      0.01635      2.32201      0.01502      2.24109
    -6.94000      0.01637      2.32364      0.01504      2.24260
    -6.93000      0.01640      2.32528      0.01506      2.24410
    -6.92000      0.01642      2.32692      0.01508      2.24561
    -6.91000      0.01645      2.32857      0.01510      2.24712
    -6.90000      0.01647      2.33021      0.01513      2.24863
    -6.89000      0.01650      2.33186      0.01515      2.25015
    -6.88000      0.01652      2.33351      0.01517      2.25166
    -6.87000      0.01655      2.33517      0.01519      2.25318
    -6.86000      0.01657      2.33682      0.01521      2.25470
    -6.85000      0.01659      2.33848      0.01523      2.25622
    -6.84000      0.01662      2.34014      0.01525      2.25774
    -6.83000      0.01664      2.34180      0.01527      2.25927
    -6.82000      0.01667      2.34347      0.01530      2.26080
    -6.81000      0.01670      2.34514      0.01532      2.26233
    -6.80000      0.01672      2.34681      0.01534      2.26386
    -6.79000      0.01675      2.34848      0.01536      2.26540
    -6.78000      0.01677      2.35015      0.01538      2.26693
    -6.77000      0.01680      2.35183      0.01540      2.26847
    -6.76000      0.01682      2.35351      0.01543      2.27001
    -6.75000      0.01685      2.35520      0.01545      2.27156
    -6.74000      0.01687      2.35688      0.01547      2.27310
    -6.73000      0.01690      2.35857      0.01549      2.27465
    -6.72000      0.01692      2.36026      0.01551      2.27620
    -6.71000      0.01695      2.36196      0.01554      2.27776
    -6.70000      0.01698      2.36365      0.01556      2.27931
    -6.69000      0.01700      2.36535      0.01558      2.28086
    -6.68000      0.01703      2.36705      0.01560      2.28242
    -6.67000      0.01705      2.36876      0.01562      2.28399
    -6.66000      0.01708      2.37046      0.01565      2.28555
    -6.65000      0.01711      2.37217      0.01567      2.28711
    -6.64000      0.01713      2.37388      0.01569      2.28868
    -6.63000      0.01716      2.37560      0.01571      2.29025
    -6.62000      0.01718      2.37731      0.01574      2.29182
    -6.61000      0.01721      2.37903      0.01576      2.29340
    -6.60000      0.01724      2.38075      0.01578      2.29498
    -6.59000      0.01726      2.38248      0.01580      2.29655
    -6.58000      0.01729      2.38421      0.01583      2.29814
    -6.57000      0.01732      2.38594      0.01585      2.29972
    -6.56000      0.01734      2.38767      0.01587      2.30131
    -6.55000      0.01737      2.38941      0.01590      2.30289
    -6.54000      0.01740      2.39114      0.01592      2.30449
    -6.53000      0.01742      2.39288      0.01594      2.30608
    -6.52000      0.01745      2.39463      0.01596      2.30767
    -6.51000      0.01748      2.39638      0.01599      2.30927
    -6.50000      0.01751      2.39812      0.01601      2.31087
    -6.49000      0.01753      2.39988      0.01603      2.31247
    -6.48000      0.01756      2.40163      0.01606      2.31408
    -6.47000      0.01759      2.40339      0.01608      2.31568
    -6.46000      0.01761      2.40515      0.01610      2.31729
    -6.45000      0.01764      2.40691      0.01613      2.31890
    -6.44000      0.01767      2.40867      0.01615      2.32052
    -6.43000      0.01770      2.41044      0.01617      2.32213
    -6.42000      0.01772      2.41221      0.01620      2.32375
    -6.41000      0.01775      2.41399      0.01622      2.32537
    -6.40000      0.01778      2.41576      0.01624      2.32699
    -6.39000      0.01781      2.41754      0.01627      2.32862
    -6.38000      0.01784      2.41932      0.01629      2.33025
    -6.37000      0.01786      2.42111      0.01632      2.33188
    -6.36000      0.01789      2.42290      0.01634      2.33351
    -6.35000      0.01792      2.42469      0.01636      2.33515
    -6.34000      0.01795      2.42648      0.01639      2.33678
    -6.33000      0.01798      2.42828      0.01641      2.33842
    -6.32000      0.01800      2.43007      0.01644      2.34007
    -6.31000      0.01803      2.43188      0.01646      2.34171
    -6.30000      0.01806      2.43368      0.01648      2.34336
    -6.29000      0.01809      2.43549      0.01651      2.34501
    -6.28000      0.01812      2.43730      0.01653      2.34666
    -6.27000      0.01815      2.43911      0.01656      2.34831
    -6.26000      0.01818      2.44093      0.01658      2.34997
    -6.25000      0.01820      2.44275      0.01661      2.35163
    -6.24000      0.01823      2.44457      0.01663      2.35329
    -6.23000      0.01826      2.44639      0.01665      2.35495
    -6.22000      0.01829      2.44822      0.01668      2.35662
    -6.21000      0.01832      2.45005      0.01670      2.35829
    -6.20000      0.01835      2.45188      0.01673      2.35996
    -6.19000      0.01838      2.45372      0.01675      2.36163
    -6.18000      0.01841      2.45556      0.01678      2.36331
    -6.17000      0.01844      2.45740      0.01680      2.36499
    -6.16000      0.01847      2.45924      0.01683      2.36667
    -6.15000      0.01850      2.46109      0.01685      2.36836
    -6.14000      0.01853      2.46294      0.01688      2.37004
    -6.13000      0.01856      2.46480      0.01690      2.37173
    -6.12000      0.01859      2.46666      0.01693      2.37342
    -6.11000      0.01862      2.46851      0.01695      2.37512
    -6.10000      0.01865      2.47038      0.01698      2.37681
    -6.09000      0.01868      2.47224      0.01700      2.37851
    -6.08000      0.01871      2.47411      0.01703      2.38021
    -6.07000      0.01874      2.47598      0.01706      2.38192
    -6.06000      0.01877      2.47786      0.01708      2.38363
    -6.05000      0.01880      2.47974      0.01711      2.38533
    -6.04000      0.01883      2.48162      0.01713      2.38704
    -6.03000      0.01886      2.48350      0.01716      2.38876
    -6.02000      0.01889      2.48539      0.01718      2.39048
    -6.01000      0.01892      2.48728      0.01721      2.39220
    -6.00000      0.01895      2.48917      0.01724      2.39392
    -5.99000      0.01898      2.49107      0.01726      2.39564
    -5.98000      0.01901      2.49297      0.01729      2.39737
    -5.97000      0.01904      2.49487      0.01731      2.39910
    -5.96000      0.01907      2.49678      0.01734      2.40083
    -5.95000      0.01910      2.49868      0.01737      2.40257
    -5.94000      0.01914      2.50060      0.01739      2.40431
    -5.93000      0.01917      2.50251      0.01742      2.40605
    -5.92000      0.01920      2.50443      0.01745      2.40779
    -5.91000      0.01923      2.50635      0.01747      2.40954
    -5.90000      0.01926      2.50827      0.01750      2.41128
    -5.89000      0.01929      2.51020      0.01753      2.41303
    -5.88000      0.01932      2.51213      0.01755      2.41479
    -5.87000      0.01936      2.51407      0.01758      2.41655
    -5.86000      0.01939      2.51600      0.01761      2.41831
    -5.85000      0.01942      2.51794      0.01763      2.42007
    -5.84000      0.01945      2.51989      0.01766      2.42183
    -5.83000      0.01948      2.52183      0.01769      2.42360
    -5.82000      0.01952      2.52378      0.01771      2.42537
    -5.81000      0.01955      2.52574      0.01774      2.42714
    -5.80000      0.01958      2.52769      0.01777      2.42891
    -5.79000      0.01961      2.52965      0.01779      2.43069
    -5.78000      0.01965      2.53161      0.01782      2.43247
    -5.77000      0.01968      2.53358      0.01785      2.43426
    -5.76000      0.01971      2.53555      0.01788      2.43604
    -5.75000      0.01974      2.53752      0.01790      2.43783
    -5.74000      0.01978      2.53950      0.01793      2.43962
    -5.73000      0.01981      2.54148      0.01796      2.44142
    -5.72000      0.01984      2.54346      0.01799      2.44321
    -5.71000      0.01988      2.54544      0.01801      2.44501
    -5.70000      0.01991      2.54743      0.01804      2.44682
    -5.69000      0.01994      2.54943      0.01807      2.44862
    -5.68000      0.01998      2.55142      0.01810      2.45043
    -5.67000      0.02001      2.55342      0.01813      2.45224
    -5.66000      0.02004      2.55542      0.01815      2.45406
    -5.65000      0.02008      2.55743      0.01818      2.45587
    -5.64000      0.02011      2.55944      0.01821      2.45769
    -5.63000      0.02014      2.56145      0.01824      2.45951
    -5.62000      0.02018      2.56347      0.01827      2.46134
    -5.61000      0.02021      2.56548      0.01830      2.46317
    -5.60000      0.02025      2.56751      0.01832      2.46500
    -5.59000      0.02028      2.56953      0.01835      2.46683
    -5.58000      0.02032      2.57156      0.01838      2.46867
    -5.57000      0.02035      2.57360      0.01841      2.47051
    -5.56000      0.02038      2.57563      0.01844      2.47235
    -5.55000      0.02042      2.57767      0.01847      2.47419
    -5.54000      0.02045      2.57972      0.01850      2.47604
    -5.53000      0.02049      2.58176      0.01853      2.47789
    -5.52000      0.02052      2.58381      0.01856      2.47975
    -5.51000      0.02056      2.58587      0.01858      2.48161
    -5.50000      0.02059      2.58792      0.01861      2.48346
    -5.49000      0.02063      2.58998      0.01864      2.48533
    -5.48000      0.02066      2.59205      0.01867      2.48719
    -5.47000      0.02070      2.59412      0.01870      2.48906
    -5.46000      0.02073      2.59619      0.01873      2.49093
    -5.45000      0.02077      2.59826      0.01876      2.49281
    -5.44000      0.02081      2.60034      0.01879      2.49468
    -5.43000      0.02084      2.60242      0.01882      2.49656
    -5.42000      0.02088      2.60451      0.01885      2.49845
    -5.41000      0.02091      2.60660      0.01888      2.50033
    -5.40000      0.02095      2.60869      0.01891      2.50222
    -5.39000      0.02099      2.61079      0.01894      2.50411
    -5.38000      0.02102      2.61289      0.01897      2.50601
    -5.37000      0.02106      2.61499      0.01900      2.50791
    -5.36000      0.02109      2.61710      0.01903      2.50981
    -5.35000      0.02113      2.61921      0.01906      2.51171
    -5.34000      0.02117      2.62132      0.01909      2.51362
    -5.33000      0.02120      2.62344      0.01912      2.51553
    -5.32000      0.02124      2.62556      0.01915      2.51744
    -5.31000      0.02128      2.62769      0.01918      2.51936
    -5.30000      0.02132      2.62982      0.01921      2.52128
    -5.29000      0.02135      2.63195      0.01924      2.52320
    -5.28000      0.02139      2.63409      0.01928      2.52513
    -5.27000      0.02143      2.63623      0.01931      2.52706
    -5.26000      0.02146      2.63837      0.01934      2.52899
    -5.25000      0.02150      2.64052      0.01937      2.53093
    -5.24000      0.02154      2.64267      0.01940      2.53286
    -5.23000      0.02158      2.64483      0.01943      2.53480
    -5.22000      0.02162      2.64699      0.01946      2.53675
    -5.21000      0.02165      2.64915      0.01949      2.53870
    -5.20000      0.02169      2.65132      0.01952      2.54065
    -5.19000      0.02173      2.65349      0.01956      2.54260
    -5.18000      0.02177      2.65566      0.01959      2.54456
    -5.17000      0.02181      2.65784      0.01962      2.54652
    -5.16000      0.02185      2.66002      0.01965      2.54848
    -5.15000      0.02188      2.66221      0.01968      2.55045
    -5.14000      0.02192      2.66440      0.01972      2.55242
    -5.13000      0.02196      2.66659      0.01975      2.55439
    -5.12000      0.02200      2.66879      0.01978      2.55637
    -5.11000      0.02204      2.67099      0.01981      2.55835
    -5.10000      0.02208      2.67320      0.01984      2.56033
    -5.09000      0.02212      2.67541      0.01988      2.56231
    -5.08000      0.02216      2.67762      0.01991      2.56430
    -5.07000      0.02220      2.67984      0.01994      2.56630
    -5.06000      0.02224      2.68206      0.01997      2.56829
    -5.05000      0.02228      2.68428      0.02001      2.57029
    -5.04000      0.02232      2.68651      0.02004      2.57229
    -5.03000      0.02236      2.68875      0.02007      2.57430
    -5.02000      0.02240      2.69098      0.02011      2.57631
    -5.01000      0.02244      2.69323      0.02014      2.57832
    -5.00000      0.02248      2.69547      0.02017      2.58033
    -4.99000      0.02252      2.69772      0.02020      2.58235
    -4.98000      0.02256      2.69997      0.02024      2.58437
    -4.97000      0.02260      2.70223      0.02027      2.58640
    -4.96000      0.02264      2.70449      0.02030      2.58843
    -4.95000      0.02268      2.70676      0.02034      2.59046
    -4.94000      0.02272      2.70903      0.02037      2.59249
    -4.93000      0.02276      2.71130      0.02041      2.59453
    -4.92000      0.02280      2.71358      0.02044      2.59657
    -4.91000      0.02285      2.71586      0.02047      2.59862
    -4.90000      0.02289      2.71815      0.02051      2.60067
    -4.89000      0.02293      2.72044      0.02054      2.60272
    -4.88000      0.02297      2.72273      0.02058      2.60477
    -4.87000      0.02301      2.72503      0.02061      2.60683
    -4.86000      0.02305      2.72734      0.02064      2.60890
    -4.85000      0.02310      2.72964      0.02068      2.61096
    -4.84000      0.02314      2.73195      0.02071      2.61303
    -4.83000      0.02318      2.73427      0.02075      2.61510
    -4.82000      0.02322      2.73659      0.02078      2.61718
    -4.81000      0.02327      2.73891      0.02082      2.61926
    -4.80000      0.02331      2.74124      0.02085      2.62134
    -4.79000      0.02335      2.74357      0.02089      2.62343
    -4.78000      0.02340      2.74591      0.02092      2.62552
    -4.77000      0.02344      2.74825      0.02096      2.62761
    -4.76000      0.02348      2.75060      0.02099      2.62971
    -4.75000      0.02352      2.75295      0.02103      2.63181
    -4.74000      0.02357      2.75530      0.02106      2.63391
    -4.73000      0.02361      2.75766      0.02110      2.63602
    -4.72000      0.02366      2.76002      0.02113      2.63814
    -4.71000      0.02370      2.76239      0.02117      2.64025
    -4.70000      0.02374      2.76476      0.02121      2.64237
    -4.69000      0.02379      2.76714      0.02124      2.64449
    -4.68000      0.02383      2.76952      0.02128      2.64662
    -4.67000      0.02388      2.77190      0.02131      2.64874
    -4.66000      0.02392      2.77429      0.02135      2.65088
    -4.65000      0.02397      2.77669      0.02139      2.65302
    -4.64000      0.02401      2.77909      0.02142      2.65516
    -4.63000      0.02406      2.78149      0.02146      2.65730
    -4.62000      0.02410      2.78390      0.02150      2.65945
    -4.61000      0.02415      2.78631      0.02153      2.66160
    -4.60000      0.02419      2.78872      0.02157      2.66375
    -4.59000      0.02424      2.79115      0.02161      2.66591
    -4.58000      0.02428      2.79357      0.02164      2.66807
    -4.57000      0.02433      2.79600      0.02168      2.67024
    -4.56000      0.02438      2.79844      0.02172      2.67241
    -4.55000      0.02442      2.80088      0.02175      2.67458
    -4.54000      0.02447      2.80332      0.02179      2.67676
    -4.53000      0.02451      2.80577      0.02183      2.67894
    -4.52000      0.02456      2.80822      0.02187      2.68112
    -4.51000      0.02461      2.81068      0.02191      2.68331
    -4.50000      0.02465      2.81314      0.02194      2.68551
    -4.49000      0.02470      2.81561      0.02198      2.68770
    -4.48000      0.02475      2.81808      0.02202      2.68990
    -4.47000      0.02480      2.82056      0.02206      2.69210
    -4.46000      0.02484      2.82304      0.02210      2.69431
    -4.45000      0.02489      2.82553      0.02213      2.69652
    -4.44000      0.02494      2.82802      0.02217      2.69874
    -4.43000      0.02499      2.83051      0.02221      2.70096
    -4.42000      0.02503      2.83301      0.02225      2.70318
    -4.41000      0.02508      2.83552      0.02229      2.70540
    -4.40000      0.02513      2.83803      0.02233      2.70763
    -4.39000      0.02518      2.84054      0.02237      2.70987
    -4.38000      0.02523      2.84306      0.02240      2.71211
    -4.37000      0.02528      2.84559      0.02244      2.71435
    -4.36000      0.02532      2.84812      0.02248      2.71659
    -4.35000      0.02537      2.85065      0.02252      2.71884
    -4.34000      0.02542      2.85319      0.02256      2.72110
    -4.33000      0.02547      2.85573      0.02260      2.72336
    -4.32000      0.02552      2.85828      0.02264      2.72562
    -4.31000      0.02557      2.86084      0.02268      2.72788
    -4.30000      0.02562      2.86340      0.02272      2.73015
    -4.29000      0.02567      2.86596      0.02276      2.73243
    -4.28000      0.02572      2.86853      0.02280      2.73470
    -4.27000      0.02577      2.87110      0.02284      2.73699
    -4.26000      0.02582      2.87368      0.02288      2.73927
    -4.25000      0.02587      2.87627      0.02292      2.74156
    -4.24000      0.02592      2.87886      0.02296      2.74385
    -4.23000      0.02597      2.88145      0.02300      2.74615
    -4.22000      0.02603      2.88405      0.02304      2.74846
    -4.21000      0.02608      2.88666      0.02308      2.75076
    -4.20000      0.02613      2.88927      0.02313      2.75307
    -4.19000      0.02618      2.89188      0.02317      2.75539
    -4.18000      0.02623      2.89450      0.02321      2.75771
    -4.17000      0.02628      2.89712      0.02325      2.76003
    -4.16000      0.02634      2.89976      0.02329      2.76235
    -4.15000      0.02639      2.90239      0.02333      2.76469
    -4.14000      0.02644      2.90503      0.02337      2.76702
    -4.13000      0.02649      2.90768      0.02342      2.76936
    -4.12000      0.02655      2.91033      0.02346      2.77170
    -4.11000      0.02660      2.91299      0.02350      2.77405
    -4.10000      0.02665      2.91565      0.02354      2.77640
    -4.09000      0.02670      2.91831      0.02358      2.77876
    -4.08000      0.02676      2.92099      0.02363      2.78112
    -4.07000      0.02681      2.92366      0.02367      2.78348
    -4.06000      0.02687      2.92635      0.02371      2.78585
    -4.05000      0.02692      2.92904      0.02376      2.78822
    -4.04000      0.02697      2.93173      0.02380      2.79060
    -4.03000      0.02703      2.93443      0.02384      2.79298
    -4.02000      0.02708      2.93714      0.02388      2.79537
    -4.01000      0.02714      2.93985      0.02393      2.79776
    -4.00000      0.02719      2.94256      0.02397      2.80015
    -3.99000      0.02725      2.94528      0.02401      2.80255
    -3.98000      0.02730      2.94801      0.02406      2.80496
    -3.97000      0.02736      2.95074      0.02410      2.80736
    -3.96000      0.02741      2.95348      0.02415      2.80977
    -3.95000      0.02747      2.95622      0.02419      2.81219
    -3.94000      0.02753      2.95897      0.02423      2.81461
    -3.93000      0.02758      2.96173      0.02428      2.81703
    -3.92000      0.02764      2.96449      0.02432      2.81947
    -3.91000      0.02769      2.96726      0.02437      2.82190
    -3.90000      0.02775      2.97003      0.02441      2.82434
    -3.89000      0.02781      2.97280      0.02446      2.82678
    -3.88000      0.02787      2.97559      0.02450      2.82923
    -3.87000      0.02792      2.97838      0.02455      2.83168
    -3.86000      0.02798      2.98117      0.02459      2.83414
    -3.85000      0.02804      2.98397      0.02464      2.83660
    -3.84000      0.02810      2.98678      0.02468      2.83907
    -3.83000      0.02815      2.98959      0.02473      2.84154
    -3.82000      0.02821      2.99241      0.02477      2.84401
    -3.81000      0.02827      2.99523      0.02482      2.84649
    -3.80000      0.02833      2.99806      0.02487      2.84897
    -3.79000      0.02839      3.00089      0.02491      2.85146
    -3.78000      0.02845      3.00373      0.02496      2.85395
    -3.77000      0.02851      3.00658      0.02500      2.85645
    -3.76000      0.02857      3.00944      0.02505      2.85895
    -3.75000      0.02863      3.01229      0.02510      2.86146
    -3.74000      0.02868      3.01516      0.02514      2.86397
    -3.73000      0.02874      3.01803      0.02519      2.86649
    -3.72000      0.02881      3.02091      0.02524      2.86901
    -3.71000      0.02887      3.02379      0.02529      2.87154
    -3.70000      0.02893      3.02668      0.02533      2.87407
    -3.69000      0.02899      3.02957      0.02538      2.87660
    -3.68000      0.02905      3.03247      0.02543      2.87914
    -3.67000      0.02911      3.03538      0.02548      2.88168
    -3.66000      0.02917      3.03829      0.02552      2.88424
    -3.65000      0.02923      3.04121      0.02557      2.88679
    -3.64000      0.02929      3.04414      0.02562      2.88935
    -3.63000      0.02936      3.04707      0.02567      2.89191
    -3.62000      0.02942      3.05001      0.02572      2.89448
    -3.61000      0.02948      3.05295      0.02577      2.89705
    -3.60000      0.02954      3.05590      0.02581      2.89963
    -3.59000      0.02961      3.05886      0.02586      2.90222
    -3.58000      0.02967      3.06182      0.02591      2.90480
    -3.57000      0.02973      3.06479      0.02596      2.90740
    -3.56000      0.02980      3.06777      0.02601      2.91000
    -3.55000      0.02986      3.07075      0.02606      2.91260
    -3.54000      0.02993      3.07374      0.02611      2.91521
    -3.53000      0.02999      3.07674      0.02616      2.91782
    -3.52000      0.03006      3.07974      0.02621      2.92044
    -3.51000      0.03012      3.08275      0.02626      2.92306
    -3.50000      0.03019      3.08576      0.02631      2.92569
    -3.49000      0.03025      3.08878      0.02636      2.92832
    -3.48000      0.03032      3.09181      0.02641      2.93096
    -3.47000      0.03038      3.09484      0.02646      2.93360
    -3.46000      0.03045      3.09788      0.02651      2.93625
    -3.45000      0.03051      3.10093      0.02656      2.93890
    -3.44000      0.03058      3.10398      0.02661      2.94156
    -3.43000      0.03065      3.10705      0.02667      2.94423
    -3.42000      0.03071      3.11011      0.02672      2.94690
    -3.41000      0.03078      3.11319      0.02677      2.94957
    -3.40000      0.03085      3.11627      0.02682      2.95225
    -3.39000      0.03092      3.11935      0.02687      2.95493
    -3.38000      0.03098      3.12245      0.02693      2.95762
    -3.37000      0.03105      3.12555      0.02698      2.96032
    -3.36000      0.03112      3.12866      0.02703      2.96302
    -3.35000      0.03119      3.13177      0.02708      2.96572
    -3.34000      0.03126      3.13489      0.02714      2.96843
    -3.33000      0.03133      3.13802      0.02719      2.97115
    -3.32000      0.03140      3.14116      0.02724      2.97387
    -3.31000      0.03147      3.14430      0.02729      2.97659
    -3.30000      0.03154      3.14745      0.02735      2.97933
    -3.29000      0.03161      3.15060      0.02740      2.98206
    -3.28000      0.03168      3.15377      0.02746      2.98481
    -3.27000      0.03175      3.15694      0.02751      2.98755
    -3.26000      0.03182      3.16012      0.02756      2.99030
    -3.25000      0.03189      3.16330      0.02762      2.99306
    -3.24000      0.03196      3.16649      0.02767      2.99583
    -3.23000      0.03203      3.16969      0.02773      2.99860
    -3.22000      0.03210      3.17290      0.02778      3.00137
    -3.21000      0.03218      3.17611      0.02784      3.00415
    -3.20000      0.03225      3.17933      0.02789      3.00694
    -3.19000      0.03232      3.18256      0.02795      3.00973
    -3.18000      0.03240      3.18579      0.02800      3.01253
    -3.17000      0.03247      3.18903      0.02806      3.01533
    -3.16000      0.03254      3.19229      0.02811      3.01814
    -3.15000      0.03262      3.19554      0.02817      3.02095
    -3.14000      0.03269      3.19881      0.02823      3.02377
    -3.13000      0.03276      3.20208      0.02828      3.02659
    -3.12000      0.03284      3.20536      0.02834      3.02943
    -3.11000      0.03291      3.20864      0.02839      3.03226
    -3.10000      0.03299      3.21194      0.02845      3.03510
    -3.09000      0.03306      3.21524      0.02851      3.03795
    -3.08000      0.03314      3.21855      0.02857      3.04080
    -3.07000      0.03322      3.22187      0.02862      3.04366
    -3.06000      0.03329      3.22519      0.02868      3.04653
    -3.05000      0.03337      3.22852      0.02874      3.04940
    -3.04000      0.03345      3.23186      0.02880      3.05227
    -3.03000      0.03352      3.23521      0.02885      3.05515
    -3.02000      0.03360      3.23857      0.02891      3.05804
    -3.01000      0.03368      3.24193      0.02897      3.06094
    -3.00000      0.03376      3.24530      0.02903      3.06383
    -2.99000      0.03384      3.24868      0.02909      3.06674
    -2.98000      0.03392      3.25206      0.02915      3.06965
    -2.97000      0.03399      3.25546      0.02921      3.07257
    -2.96000      0.03407      3.25886      0.02927      3.07549
    -2.95000      0.03415      3.26227      0.02933      3.07842
    -2.94000      0.03423      3.26569      0.02939      3.08136
    -2.93000      0.03431      3.26912      0.02945      3.08430
    -2.92000      0.03439      3.27255      0.02951      3.08724
    -2.91000      0.03448      3.27599      0.02957      3.09020
    -2.90000      0.03456      3.27944      0.02963      3.09316
    -2.89000      0.03464      3.28290      0.02969      3.09612
    -2.88000      0.03472      3.28637      0.02975      3.09909
    -2.87000      0.03480      3.28984      0.02981      3.10207
    -2.86000      0.03488      3.29333      0.02987      3.10505
    -2.85000      0.03497      3.29682      0.02993      3.10804
    -2.84000      0.03505      3.30032      0.03000      3.11104
    -2.83000      0.03513      3.30383      0.03006      3.11404
    -2.82000      0.03522      3.30734      0.03012      3.11705
    -2.81000      0.03530      3.31087      0.03018      3.12006
    -2.80000      0.03539      3.31440      0.03024      3.12308
    -2.79000      0.03547      3.31794      0.03031      3.12611
    -2.78000      0.03556      3.32149      0.03037      3.12915
    -2.77000      0.03564      3.32505      0.03043      3.13219
    -2.76000      0.03573      3.32862      0.03050      3.13523
    -2.75000      0.03581      3.33220      0.03056      3.13828
    -2.74000      0.03590      3.33578      0.03062      3.14134
    -2.73000      0.03599      3.33937      0.03069      3.14441
    -2.72000      0.03608      3.34298      0.03075      3.14748
    -2.71000      0.03616      3.34659      0.03082      3.15056
    -2.70000      0.03625      3.35021      0.03088      3.15364
    -2.69000      0.03634      3.35384      0.03095      3.15673
    -2.68000      0.03643      3.35747      0.03101      3.15983
    -2.67000      0.03652      3.36112      0.03108      3.16293
    -2.66000      0.03661      3.36477      0.03114      3.16604
    -2.65000      0.03670      3.36844      0.03121      3.16916
    -2.64000      0.03679      3.37211      0.03128      3.17228
    -2.63000      0.03688      3.37579      0.03134      3.17541
    -2.62000      0.03697      3.37948      0.03141      3.17855
    -2.61000      0.03706      3.38318      0.03147      3.18169
    -2.60000      0.03715      3.38689      0.03154      3.18484
    -2.59000      0.03724      3.39061      0.03161      3.18800
    -2.58000      0.03733      3.39434      0.03168      3.19116
    -2.57000      0.03743      3.39807      0.03174      3.19433
    -2.56000      0.03752      3.40182      0.03181      3.19751
    -2.55000      0.03761      3.40558      0.03188      3.20069
    -2.54000      0.03771      3.40934      0.03195      3.20389
    -2.53000      0.03780      3.41312      0.03202      3.20708
    -2.52000      0.03790      3.41690      0.03209      3.21028
    -2.51000      0.03799      3.42069      0.03215      3.21350
    -2.50000      0.03809      3.42450      0.03222      3.21672
    -2.49000      0.03818      3.42831      0.03229      3.21994
    -2.48000      0.03828      3.43213      0.03236      3.22317
    -2.47000      0.03838      3.43596      0.03243      3.22641
    -2.46000      0.03847      3.43980      0.03250      3.22966
    -2.45000      0.03857      3.44365      0.03257      3.23291
    -2.44000      0.03867      3.44751      0.03264      3.23617
    -2.43000      0.03877      3.45138      0.03271      3.23944
    -2.42000      0.03887      3.45526      0.03279      3.24271
    -2.41000      0.03897      3.45915      0.03286      3.24599
    -2.40000      0.03907      3.46305      0.03293      3.24928
    -2.39000      0.03917      3.46696      0.03300      3.25258
    -2.38000      0.03927      3.47089      0.03307      3.25588
    -2.37000      0.03937      3.47481      0.03315      3.25919
    -2.36000      0.03947      3.47875      0.03322      3.26251
    -2.35000      0.03957      3.48271      0.03329      3.26583
    -2.34000      0.03967      3.48667      0.03336      3.26916
    -2.33000      0.03978      3.49064      0.03344      3.27250
    -2.32000      0.03988      3.49462      0.03351      3.27585
    -2.31000      0.03998      3.49861      0.03359      3.27920
    -2.30000      0.04009      3.50261      0.03366      3.28257
    -2.29000      0.04019      3.50662      0.03373      3.28593
    -2.28000      0.04030      3.51065      0.03381      3.28931
    -2.27000      0.04040      3.51468      0.03388      3.29269
    -2.26000      0.04051      3.51872      0.03396      3.29608
    -2.25000      0.04061      3.52278      0.03403      3.29948
    -2.24000      0.04072      3.52684      0.03411      3.30289
    -2.23000      0.04083      3.53092      0.03419      3.30630
    -2.22000      0.04093      3.53501      0.03426      3.30972
    -2.21000      0.04104      3.53910      0.03434      3.31315
    -2.20000      0.04115      3.54321      0.03442      3.31659
    -2.19000      0.04126      3.54733      0.03449      3.32004
    -2.18000      0.04137      3.55146      0.03457      3.32348
    -2.17000      0.04148      3.55560      0.03465      3.32695
    -2.16000      0.04159      3.55975      0.03473      3.33041
    -2.15000      0.04170      3.56392      0.03480      3.33389
    -2.14000      0.04181      3.56809      0.03488      3.33738
    -2.13000      0.04193      3.57228      0.03496      3.34087
    -2.12000      0.04204      3.57647      0.03504      3.34437
    -2.11000      0.04215      3.58068      0.03512      3.34787
    -2.10000      0.04227      3.58490      0.03520      3.35139
    -2.09000      0.04238      3.58913      0.03528      3.35491
    -2.08000      0.04250      3.59337      0.03536      3.35844
    -2.07000      0.04261      3.59762      0.03544      3.36198
    -2.06000      0.04273      3.60189      0.03552      3.36553
    -2.05000      0.04284      3.60617      0.03560      3.36908
    -2.04000      0.04296      3.61046      0.03568      3.37265
    -2.03000      0.04308      3.61476      0.03577      3.37622
    -2.02000      0.04319      3.61907      0.03585      3.37980
    -2.01000      0.04331      3.62339      0.03593      3.38338
    -2.00000      0.04343      3.62773      0.03601      3.38698
    -1.99000      0.04355      3.63207      0.03610      3.39059
    -1.98000      0.04367      3.63643      0.03618      3.39420
    -1.97000      0.04379      3.64080      0.03626      3.39782
    -1.96000      0.04391      3.64519      0.03635      3.40145
    -1.95000      0.04404      3.64958      0.03643      3.40509
    -1.94000      0.04416      3.65399      0.03651      3.40873
    -1.93000      0.04428      3.65841      0.03660      3.41238
    -1.92000      0.04441      3.66284      0.03668      3.41605
    -1.91000      0.04453      3.66729      0.03677      3.41972
    -1.90000      0.04465      3.67175      0.03686      3.42340
    -1.89000      0.04478      3.67621      0.03694      3.42709
    -1.88000      0.04491      3.68070      0.03703      3.43079
    -1.87000      0.04503      3.68519      0.03711      3.43449
    -1.86000      0.04516      3.68970      0.03720      3.43821
    -1.85000      0.04529      3.69422      0.03729      3.44193
    -1.84000      0.04542      3.69875      0.03738      3.44566
    -1.83000      0.04554      3.70330      0.03746      3.44940
    -1.82000      0.04567      3.70786      0.03755      3.45315
    -1.81000      0.04580      3.71243      0.03764      3.45691
    -1.80000      0.04594      3.71701      0.03773      3.46068
    -1.79000      0.04607      3.72161      0.03782      3.46446
    -1.78000      0.04620      3.72622      0.03791      3.46824
    -1.77000      0.04633      3.73085      0.03800      3.47204
    -1.76000      0.04647      3.73548      0.03809      3.47584
    -1.75000      0.04660      3.74014      0.03818      3.47965
    -1.74000      0.04673      3.74480      0.03827      3.48347
    -1.73000      0.04687      3.74948      0.03836      3.48730
    -1.72000      0.04701      3.75417      0.03845      3.49114
    -1.71000      0.04714      3.75887      0.03855      3.49499
    -1.70000      0.04728      3.76359      0.03864      3.49885
    -1.69000      0.04742      3.76833      0.03873      3.50272
    -1.68000      0.04756      3.77307      0.03882      3.50659
    -1.67000      0.04770      3.77783      0.03892      3.51048
    -1.66000      0.04784      3.78261      0.03901      3.51437
    -1.65000      0.04798      3.78740      0.03911      3.51828
    -1.64000      0.04812      3.79220      0.03920      3.52219
    -1.63000      0.04826      3.79701      0.03930      3.52611
    -1.62000      0.04840      3.80185      0.03939      3.53005
    -1.61000      0.04855      3.80669      0.03949      3.53399
    -1.60000      0.04869      3.81155      0.03958      3.53794
    -1.59000      0.04884      3.81643      0.03968      3.54191
    -1.58000      0.04898      3.82131      0.03978      3.54588
    -1.57000      0.04913      3.82622      0.03987      3.54986
    -1.56000      0.04928      3.83113      0.03997      3.55385
    -1.55000      0.04943      3.83607      0.04007      3.55785
    -1.54000      0.04958      3.84102      0.04017      3.56186
    -1.53000      0.04973      3.84598      0.04026      3.56588
    -1.52000      0.04988      3.85096      0.04036      3.56991
    -1.51000      0.05003      3.85595      0.04046      3.57395
    -1.50000      0.05018      3.86095      0.04056      3.57800
    -1.49000      0.05033      3.86598      0.04066      3.58206
    -1.48000      0.05049      3.87102      0.04076      3.58613
    -1.47000      0.05064      3.87607      0.04087      3.59021
    -1.46000      0.05080      3.88114      0.04097      3.59430
    -1.45000      0.05095      3.88622      0.04107      3.59840
    -1.44000      0.05111      3.89132      0.04117      3.60251
    -1.43000      0.05127      3.89644      0.04127      3.60663
    -1.42000      0.05143      3.90157      0.04138      3.61076
    -1.41000      0.05159      3.90672      0.04148      3.61491
    -1.40000      0.05175      3.91188      0.04158      3.61906
    -1.39000      0.05191      3.91706      0.04169      3.62322
    -1.38000      0.05207      3.92226      0.04179      3.62739
    -1.37000      0.05223      3.92747      0.04190      3.63158
    -1.36000      0.05240      3.93270      0.04200      3.63577
    -1.35000      0.05256      3.93795      0.04211      3.63997
    -1.34000      0.05273      3.94321      0.04222      3.64419
    -1.33000      0.05289      3.94849      0.04232      3.64841
    -1.32000      0.05306      3.95378      0.04243      3.65265
    -1.31000      0.05323      3.95909      0.04254      3.65690
    -1.30000      0.05340      3.96442      0.04265      3.66115
    -1.29000      0.05357      3.96977      0.04276      3.66542
    -1.28000      0.05374      3.97513      0.04286      3.66970
    -1.27000      0.05391      3.98051      0.04297      3.67399
    -1.26000      0.05409      3.98591      0.04308      3.67829
    -1.25000      0.05426      3.99132      0.04319      3.68261
    -1.24000      0.05444      3.99675      0.04331      3.68693
    -1.23000      0.05461      4.00220      0.04342      3.69127
    -1.22000      0.05479      4.00767      0.04353      3.69561
    -1.21000      0.05497      4.01315      0.04364      3.69997
    -1.20000      0.05515      4.01865      0.04375      3.70433
    -1.19000      0.05533      4.02417      0.04387      3.70872
    -1.18000      0.05551      4.02971      0.04398      3.71311
    -1.17000      0.05569      4.03527      0.04409      3.71751
    -1.16000      0.05587      4.04084      0.04421      3.72192
    -1.15000      0.05606      4.04644      0.04432      3.72635
    -1.14000      0.05624      4.05205      0.04444      3.73078
    -1.13000      0.05643      4.05768      0.04456      3.73523
    -1.12000      0.05662      4.06332      0.04467      3.73969
    -1.11000      0.05680      4.06899      0.04479      3.74416
    -1.10000      0.05699      4.07468      0.04491      3.74865
    -1.09000      0.05718      4.08038      0.04502      3.75314
    -1.08000      0.05738      4.08611      0.04514      3.75765
    -1.07000      0.05757      4.09185      0.04526      3.76217
    -1.06000      0.05776      4.09761      0.04538      3.76670
    -1.05000      0.05796      4.10340      0.04550      3.77124
    -1.04000      0.05815      4.10920      0.04562      3.77579
    -1.03000      0.05835      4.11502      0.04574      3.78036
    -1.02000      0.05855      4.12086      0.04587      3.78494
    -1.01000      0.05875      4.12672      0.04599      3.78953
    -1.00000      0.05895      4.13260      0.04611      3.79413
    -0.99000      0.05915      4.13850      0.04623      3.79875
    -0.98000      0.05936      4.14442      0.04636      3.80338
    -0.97000      0.05956      4.15037      0.04648      3.80802
    -0.96000      0.05977      4.15633      0.04661      3.81267
    -0.95000      0.05997      4.16231      0.04673      3.81733
    -0.94000      0.06018      4.16832      0.04686      3.82201
    -0.93000      0.06039      4.17434      0.04698      3.82670
    -0.92000      0.06060      4.18039      0.04711      3.83140
    -0.91000      0.06082      4.18645      0.04724      3.83612
    -0.90000      0.06103      4.19254      0.04737      3.84085
    -0.89000      0.06124      4.19865      0.04749      3.84559
    -0.88000      0.06146      4.20478      0.04762      3.85034
    -0.87000      0.06168      4.21093      0.04775      3.85511
    -0.86000      0.06190      4.21711      0.04788      3.85989
    -0.85000      0.06212      4.22330      0.04801      3.86468
    -0.84000      0.06234      4.22952      0.04815      3.86949
    -0.83000      0.06256      4.23576      0.04828      3.87431
    -0.82000      0.06279      4.24202      0.04841      3.87914
    -0.81000      0.06301      4.24831      0.04854      3.88398
    -0.80000      0.06324      4.25462      0.04868      3.88884
    -0.79000      0.06347      4.26095      0.04881      3.89372
    -0.78000      0.06370      4.26730      0.04895      3.89860
    -0.77000      0.06393      4.27368      0.04908      3.90350
    -0.76000      0.06416      4.28008      0.04922      3.90842
    -0.75000      0.06440      4.28650      0.04936      3.91334
    -0.74000      0.06463      4.29295      0.04949      3.91828
    -0.73000      0.06487      4.29942      0.04963      3.92324
    -0.72000      0.06511      4.30591      0.04977      3.92820
    -0.71000      0.06535      4.31243      0.04991      3.93319
    -0.70000      0.06559      4.31897      0.05005      3.93818
    -0.69000      0.06584      4.32554      0.05019      3.94319
    -0.68000      0.06608      4.33213      0.05033      3.94822
    -0.67000      0.06633      4.33874      0.05047      3.95326
    -0.66000      0.06658      4.34538      0.05061      3.95831
    -0.65000      0.06683      4.35205      0.05076      3.96337
    -0.64000      0.06708      4.35874      0.05090      3.96845
    -0.63000      0.06734      4.36545      0.05105      3.97355
    -0.62000      0.06759      4.37219      0.05119      3.97866
    -0.61000      0.06785      4.37896      0.05134      3.98378
    -0.60000      0.06811      4.38575      0.05148      3.98892
    -0.59000      0.06837      4.39257      0.05163      3.99408
    -0.58000      0.06863      4.39941      0.05178      3.99924
    -0.57000      0.06889      4.40628      0.05193      4.00443
    -0.56000      0.06916      4.41318      0.05208      4.00962
    -0.55000      0.06943      4.42010      0.05223      4.01484
    -0.54000      0.06970      4.42705      0.05238      4.02007
    -0.53000      0.06997      4.43403      0.05253      4.02531
    -0.52000      0.07024      4.44104      0.05268      4.03057
    -0.51000      0.07052      4.44807      0.05283      4.03584
    -0.50000      0.07080      4.45513      0.05299      4.04113
    -0.49000      0.07108      4.46221      0.05314      4.04643
    -0.48000      0.07136      4.46933      0.05329      4.05175
    -0.47000      0.07164      4.47647      0.05345      4.05709
    -0.46000      0.07193      4.48364      0.05361      4.06244
    -0.45000      0.07221      4.49084      0.05376      4.06780
    -0.44000      0.07250      4.49807      0.05392      4.07318
    -0.43000      0.07279      4.50533      0.05408      4.07858
    -0.42000      0.07309      4.51262      0.05424      4.08399
    -0.41000      0.07338      4.51993      0.05440      4.08942
    -0.40000      0.07368      4.52728      0.05456      4.09487
    -0.39000      0.07398      4.53465      0.05472      4.10033
    -0.38000      0.07428      4.54206      0.05488      4.10581
    -0.37000      0.07459      4.54950      0.05505      4.11130
    -0.36000      0.07490      4.55697      0.05521      4.11681
    -0.35000      0.07520      4.56446      0.05538      4.12234
    -0.34000      0.07552      4.57199      0.05554      4.12788
    -0.33000      0.07583      4.57955      0.05571      4.13344
    -0.32000      0.07614      4.58714      0.05587      4.13902
    -0.31000      0.07646      4.59476      0.05604      4.14461
    -0.30000      0.07678      4.60242      0.05621      4.15022
    -0.29000      0.07711      4.61010      0.05638      4.15585
    -0.28000      0.07743      4.61782      0.05655      4.16149
    -0.27000      0.07776      4.62557      0.05672      4.16715
    -0.26000      0.07809      4.63336      0.05689      4.17283
    -0.25000      0.07842      4.64117      0.05707      4.17853
    -0.24000      0.07876      4.64903      0.05724      4.18424
    -0.23000      0.07910      4.65691      0.05742      4.18997
    -0.22000      0.07944      4.66483      0.05759      4.19572
    -0.21000      0.07978      4.67278      0.05777      4.20148
    -0.20000      0.08013      4.68077      0.05795      4.20726
    -0.19000      0.08048      4.68879      0.05812      4.21306
    -0.18000      0.08083      4.69684      0.05830      4.21888
    -0.17000      0.08118      4.70493      0.05848      4.22472
    -0.16000      0.08154      4.71306      0.05866      4.23057
    -0.15000      0.08190      4.72122      0.05885      4.23644
    -0.14000      0.08226      4.72942      0.05903      4.24234
    -0.13000      0.08263      4.73766      0.05921      4.24824
    -0.12000      0.08300      4.74593      0.05940      4.25417
    -0.11000      0.08337      4.75424      0.05958      4.26012
    -0.10000      0.08374      4.76258      0.05977      4.26608
    -0.09000      0.08412      4.77096      0.05996      4.27206
    -0.08000      0.08450      4.77939      0.06014      4.27806
    -0.07000      0.08489      4.78784      0.06033      4.28409
    -0.06000      0.08528      4.79634      0.06052      4.29013
    -0.05000      0.08567      4.80488      0.06071      4.29618
    -0.04000      0.08606      4.81345      0.06091      4.30226
    -0.03000      0.08646      4.82207      0.06110      4.30836
    -0.02000      0.08686      4.83072      0.06129      4.31448
     -0.0100       0.0873       4.8394       0.0615       4.3206
     0.00000      0.08767      4.84815      0.06169      4.32677
      0.0100       0.0881       4.8569       0.0619       4.3329
     0.02000      0.08849      4.86574      0.06208      4.33914
     0.03000      0.08891      4.87460      0.06228      4.34535
     0.04000      0.08933      4.88350      0.06248      4.35159
     0.05000      0.08976      4.89244      0.06268      4.35784
     0.06000      0.09019      4.90143      0.06288      4.36412
     0.07000      0.09062      4.91046      0.06309      4.37041
     0.08000      0.09106      4.91953      0.06329      4.37673
     0.09000      0.09150      4.92864      0.06350      4.38306
     0.10000      0.09194      4.93780      0.06371      4.38942
     0.11000      0.09239      4.94700      0.06391      4.39580
     0.12000      0.09284      4.95625      0.06412      4.40219
     0.13000      0.09330      4.96555      0.06433      4.40861
     0.14000      0.09376      4.97489      0.06454      4.41505
     0.15000      0.09422      4.98427      0.06476      4.42152
     0.16000      0.09469      4.99370      0.06497      4.42800
     0.17000      0.09516      5.00318      0.06518      4.43450
     0.18000      0.09564      5.01270      0.06540      4.44103
     0.19000      0.09612      5.02228      0.06562      4.44757
     0.20000      0.09661      5.03190      0.06583      4.45414
     0.21000      0.09710      5.04157      0.06605      4.46073
     0.22000      0.09759      5.05129      0.06627      4.46735
     0.23000      0.09809      5.06106      0.06650      4.47398
     0.24000      0.09860      5.07088      0.06672      4.48064
     0.25000      0.09911      5.08075      0.06694      4.48732
     0.26000      0.09962      5.09067      0.06717      4.49402
     0.27000      0.10014      5.10064      0.06740      4.50074
     0.28000      0.10067      5.11066      0.06762      4.50749
     0.29000      0.10120      5.12074      0.06785      4.51426
     0.30000      0.10173      5.13086      0.06808      4.52105
     0.31000      0.10227      5.14105      0.06831      4.52787
     0.32000      0.10282      5.15128      0.06855      4.53470
     0.33000      0.10337      5.16157      0.06878      4.54156
     0.34000      0.10392      5.17192      0.06902      4.54845
     0.35000      0.10448      5.18232      0.06925      4.55536
     0.36000      0.10505      5.19278      0.06949      4.56229
     0.37000      0.10562      5.20330      0.06973      4.56925
     0.38000      0.10620      5.21387      0.06997      4.57623
     0.39000      0.10679      5.22449      0.07022      4.58324
     0.40000      0.10738      5.23518      0.07046      4.59026
     0.41000      0.10798      5.24593      0.07070      4.59732
     0.42000      0.10858      5.25674      0.07095      4.60440
     0.43000      0.10919      5.26761      0.07120      4.61150
     0.44000      0.10980      5.27853      0.07145      4.61863
     0.45000      0.11043      5.28952      0.07170      4.62578
     0.46000      0.11105      5.30058      0.07195      4.63296
     0.47000      0.11169      5.31169      0.07221      4.64016
     0.48000      0.11233      5.32287      0.07246      4.64739
     0.49000      0.11298      5.33411      0.07272      4.65464
     0.50000      0.11364      5.34542      0.07298      4.66192
     0.51000      0.11430      5.35679      0.07323      4.66923
     0.52000      0.11497      5.36823      0.07350      4.67656
     0.53000      0.11565      5.37974      0.07376      4.68392
     0.54000      0.11633      5.39131      0.07402      4.69130
     0.55000      0.11703      5.40295      0.07429      4.69871
     0.56000      0.11773      5.41466      0.07456      4.70615
     0.57000      0.11844      5.42645      0.07482      4.71361
     0.58000      0.11915      5.43830      0.07510      4.72110
     0.59000      0.11988      5.45022      0.07537      4.72862
     0.60000      0.12061      5.46222      0.07564      4.73617
     0.61000      0.12135      5.47429      0.07592      4.74374
     0.62000      0.12210      5.48643      0.07619      4.75134
     0.63000      0.12286      5.49865      0.07647      4.75896
     0.64000      0.12363      5.51094      0.07675      4.76662
     0.65000      0.12440      5.52332      0.07703      4.77431
     0.66000      0.12519      5.53576      0.07732      4.78202
     0.67000      0.12599      5.54829      0.07760      4.78976
     0.68000      0.12679      5.56090      0.07789      4.79752
     0.69000      0.12760      5.57358      0.07818      4.80532
     0.70000      0.12843      5.58635      0.07847      4.81315
     0.71000      0.12926      5.59920      0.07876      4.82101
     0.72000      0.13011      5.61214      0.07906      4.82889
     0.73000      0.13096      5.62516      0.07935      4.83681
     0.74000      0.13183      5.63826      0.07965      4.84475
     0.75000      0.13270      5.65145      0.07995      4.85272
     0.76000      0.13359      5.66473      0.08025      4.86073
     0.77000      0.13449      5.67809      0.08056      4.86876
     0.78000      0.13540      5.69155      0.08086      4.87682
     0.79000      0.13632      5.70510      0.08117      4.88492
     0.80000      0.13726      5.71874      0.08148      4.89305
     0.81000      0.13820      5.73247      0.08179      4.90120
     0.82000      0.13916      5.74629      0.08210      4.90940
     0.83000      0.14013      5.76021      0.08242      4.91761
     0.84000      0.14111      5.77424      0.08274      4.92586
     0.85000      0.14211      5.78835      0.08306      4.93415
     0.86000      0.14312      5.80257      0.08338      4.94246
     0.87000      0.14414      5.81688      0.08370      4.95080
     0.88000      0.14518      5.83130      0.08403      4.95919
     0.89000      0.14623      5.84582      0.08435      4.96760
     0.90000      0.14730      5.86045      0.08468      4.97604
     0.91000      0.14838      5.87519      0.08501      4.98452
     0.92000      0.14948      5.89003      0.08535      4.99304
     0.93000      0.15059      5.90498      0.08568      5.00158
     0.94000      0.15171      5.92004      0.08602      5.01016
     0.95000      0.15286      5.93521      0.08636      5.01877
     0.96000      0.15402      5.95050      0.08671      5.02741
     0.97000      0.15519      5.96591      0.08705      5.03609
     0.98000      0.15639      5.98143      0.08740      5.04481
     0.99000      0.15760      5.99707      0.08775      5.05356
     1.00000      0.15883      6.01283      0.08810      5.06234
     1.01000      0.16007      6.02871      0.08845      5.07116
     1.02000      0.16134      6.04472      0.08881      5.08002
     1.03000      0.16262      6.06085      0.08917      5.08891
     1.04000      0.16393      6.07711      0.08953      5.09783
     1.05000      0.16525      6.09350      0.08989      5.10680
     1.06000      0.16660      6.11003      0.09026      5.11580
     1.07000      0.16796      6.12668      0.09063      5.12483
     1.08000      0.16935      6.14348      0.09100      5.13390
     1.09000      0.17076      6.16041      0.09137      5.14302
     1.10000      0.17219      6.17748      0.09175      5.15216
     1.11000      0.17364      6.19469      0.09213      5.16135
     1.12000      0.17512      6.21205      0.09251      5.17057
     1.13000      0.17662      6.22955      0.09289      5.17983
     1.14000      0.17815      6.24721      0.09328      5.18913
     1.15000      0.17970      6.26502      0.09367      5.19847
     1.16000      0.18128      6.28298      0.09406      5.20785
     1.17000      0.18288      6.30110      0.09446      5.21726
     1.18000      0.18451      6.31938      0.09486      5.22672
     1.19000      0.18617      6.33781      0.09526      5.23622
     1.20000      0.18786      6.35642      0.09566      5.24575
     1.21000      0.18957      6.37519      0.09606      5.25533
     1.22000      0.19132      6.39413      0.09647      5.26495
     1.23000      0.19310      6.41325      0.09689      5.27460
     1.24000      0.19491      6.43254      0.09730      5.28431
     1.25000      0.19675      6.45201      0.09772      5.29404
     1.26000      0.19862      6.47167      0.09814      5.30383
     1.27000      0.20053      6.49151      0.09856      5.31366
     1.28000      0.20247      6.51154      0.09899      5.32352
     1.29000      0.20445      6.53176      0.09942      5.33343
     1.30000      0.20647      6.55218      0.09985      5.34338
    1.310000     0.208525     6.572804     0.100289     5.353379
    1.320000     0.210619     6.593629     0.100728     5.363422
    1.330000     0.212753     6.614658     0.101171     5.373503
    1.340000     0.214928     6.635902     0.101617     5.383634
    1.350000     0.217146     6.657359     0.102066     5.393809
    1.360000     0.219408     6.679039     0.102518     5.404023
    1.370000     0.221714     6.700939     0.102974     5.414286
    1.380000     0.224067     6.723073     0.103434     5.424595
    1.390000     0.226468     6.745436     0.103896     5.434952
    1.400000     0.228918     6.768036     0.104362     5.445354
    1.410000     0.231419     6.790879     0.104832     5.455801
    1.420000     0.233972     6.813968     0.105305     5.466295
    1.430000     0.236578     6.837315     0.105782     5.476836
    1.440000     0.239240     6.860915     0.106262     5.487430
    1.450000     0.241959     6.884778     0.106746     5.498062
    1.460000     0.244737     6.908914     0.107234     5.508750
    1.470000     0.247576     6.933322     0.107726     5.519490
    1.480000     0.250478     6.958004     0.108221     5.530273
    1.490000     0.253445     6.982981     0.108720     5.541105
    1.500000     0.256478     7.008248     0.109223     5.551993
    1.510000     0.259581     7.033815     0.109730     5.562927
    1.520001     0.262755     7.059687     0.110241     5.573910
    1.530001     0.266004     7.085871     0.110756     5.584949
    1.540001     0.269328     7.112378     0.111275     5.596035
    1.550001     0.272732     7.139209     0.111798     5.607175
    1.560001     0.276217     7.166374     0.112325     5.618366
    1.570001     0.279787     7.193883     0.112856     5.629611
    1.580001     0.283445     7.221745     0.113392     5.640910
    1.590001     0.287194     7.249962     0.113932     5.652262
    1.600001     0.291036     7.278550     0.114476     5.663669
    1.610000     0.294977     7.307513     0.115024     5.675129
    1.620000     0.299018     7.336864     0.115577     5.686645
    1.630000     0.303164     7.366610     0.116135     5.698215
    1.640000     0.307419     7.396767     0.116697     5.709841
    1.650000     0.311788     7.427338     0.117264     5.721524
    1.660000     0.316273     7.458334     0.117835     5.733261
    1.670000     0.320881     7.489772     0.118411     5.745056
    1.680000     0.325616     7.521656     0.118992     5.756912
    1.690000     0.330482     7.554007     0.119577     5.768824
    1.700000     0.335486     7.586832     0.120168     5.780797
    1.710000     0.340633     7.620141     0.120763     5.792827
    1.720000     0.345929     7.653958     0.121364     5.804915
    1.730000     0.351379     7.688281     0.121969     5.817065
    1.740000     0.356991     7.723137     0.122580     5.829275
    1.750000     0.362772     7.758546     0.123195     5.841545
    1.760000     0.368728     7.794509     0.123816     5.853879
    1.770000     0.374869     7.831052     0.124443     5.866275
    1.780000     0.381201     7.868189     0.125074     5.878732
    1.790000     0.387733     7.905936     0.125711     5.891251
    1.800000     0.394475     7.944318     0.126354     5.903837
    1.810000     0.401437     7.983350     0.127002     5.916488
    1.820000     0.408628     8.023051     0.127656     5.929199
    1.830000     0.416060     8.063444     0.128316     5.941980
    1.840000     0.423744     8.104554     0.128981     5.954828
    1.850000     0.431693     8.146402     0.129653     5.967737
    1.860000     0.439920     8.189007     0.130330     5.980718
    1.870000     0.448438     8.232405     0.131013     5.993762
    1.880000     0.457263     8.276610     0.131703     6.006877
    1.890001     0.466411     8.321668     0.132398     6.020062
    1.900001     0.475898     8.367591     0.133100     6.033320
    1.910001     0.485743     8.414413     0.133808     6.046643
    1.920001     0.495964     8.462171     0.134523     6.060036
    1.930001     0.506584     8.510891     0.135244     6.073500
    1.940001     0.517624     8.560617     0.135972     6.087039
    1.950001     0.529108     8.611382     0.136706     6.100651
    1.960001     0.541061     8.663226     0.137448     6.114337
    1.970001     0.553512     8.716187     0.138196     6.128093
    1.980000     0.566490     8.770316     0.138951     6.141927
    1.990000     0.580028     8.825651     0.139713     6.155838
    2.000000     0.594159     8.882236     0.140483     6.169826
    2.010000     0.608921     8.940137     0.141259     6.183887
    2.020000     0.624355     8.999395     0.142043     6.198027
    2.030000     0.640504     9.060075     0.142835     6.212245
    2.040000     0.657416     9.122220     0.143634     6.226544
    2.050000     0.675144     9.185904     0.144440     6.240921
    2.060000     0.693742     9.251205     0.145255     6.255380
    2.070000     0.713273     9.318169     0.146077     6.269923
    2.080000     0.733804     9.386891     0.146908     6.284541
    2.090000     0.755408     9.457437     0.147746     6.299249
    2.100000     0.778166     9.529894     0.148593     6.314035
    2.110000     0.802164     9.604352     0.149448     6.328911
    2.120000     0.827502     9.680899     0.150312     6.343868
    2.130000     0.854285     9.759635     0.151184     6.358914
    2.140000     0.882632     9.840670     0.152066     6.374050
    2.150000     0.912673     9.924109     0.152956     6.389270
     2.16000      0.94455     10.01006      0.15385      6.40458
     2.17000      0.97843     10.09867      0.15476      6.41998
     2.18000      1.01449     10.19004      0.15568      6.43547
     2.19000      1.05293     10.28433      0.15661      6.45105
     2.20000      1.09397     10.38166      0.15754      6.46673
     2.21000      1.13786     10.48219      0.15849      6.48250
     2.22000      1.18489     10.58607      0.15945      6.49836
     2.23000      1.23537     10.69347      0.16041      6.51432
     2.24000      1.28966     10.80454      0.16139      6.53038
     2.25000      1.34816     10.91945      0.16237      6.54653
     2.26000      1.41134     11.03837      0.16337      6.56278
     2.27000      1.47971     11.16142      0.16438      6.57914
     2.28000      1.55388     11.28878      0.16540      6.59558
     2.29000      1.63451     11.42056      0.16643      6.61214
     2.30000      1.72238     11.55686      0.16747      6.62880
     2.31000      1.81837     11.69773      0.16852      6.64556
     2.32000      1.92349     11.84315      0.16958      6.66242
     2.33000      2.03889     11.99300      0.17066      6.67939
     2.34000      2.16587     12.14704      0.17174      6.69647
     2.35000      2.30590     12.30486      0.17284      6.71366
     2.36000      2.46063     12.46580      0.17396      6.73096
     2.37000      2.63187     12.62885      0.17508      6.74837
     2.38000      2.82159     12.79264      0.17622      6.76589
     2.39000      3.03185     12.95516      0.17737      6.78353
     2.40000      3.26468     13.11376      0.17853      6.80127
     2.41000      3.52191     13.26490      0.17971      6.81915
     2.42000      3.80488     13.40405      0.18090      6.83713
     2.43000      4.11398     13.52559      0.18210      6.85523
     2.44000      4.44811     13.62291      0.18332      6.87345
     2.45000      4.80396     13.68879      0.18455      6.89180
     2.46000      5.17529     13.71615      0.18580      6.91027
     2.47000      5.55256     13.69941      0.18706      6.92886
     2.48000      5.92313     13.63629      0.18834      6.94758
     2.49000      6.27257     13.52966      0.18963      6.96642
     2.50000      6.58721     13.38887      0.19094      6.98540
     2.51000      6.85752     13.22940      0.19227      7.00451
     2.52000      7.08115     13.07067      0.19361      7.02375
     2.53000      7.26446     12.93223      0.19496      7.04312
     2.54000      7.42166     12.82959      0.19634      7.06263
     2.55000      7.57218     12.77139      0.19773      7.08227
     2.56000      7.73709     12.75830      0.19914      7.10205
     2.57000      7.93619     12.78367      0.20057      7.12198
     2.58000      8.18597     12.83498      0.20201      7.14205
     2.59000      8.49861     12.89542      0.20348      7.16226
     2.60000      8.88150     12.94509      0.20496      7.18261
     2.61000      9.33677     12.96195      0.20646      7.20312
     2.62000      9.86070     12.92262      0.20799      7.22377
     2.63000     10.44265     12.80375      0.20953      7.24459
     2.64000     11.06451     12.58401      0.21109      7.26555
     2.65000     11.70051     12.24696      0.21268      7.28666
     2.66000     12.31873     11.78450      0.21428      7.30794
     2.67000     12.88445     11.19965      0.21591      7.32937
     2.68000     13.36518     10.50749      0.21756      7.35097
     2.69000     13.73582      9.73329      0.21923      7.37273
     2.70000     13.98207      8.90804      0.22093      7.39466
     2.71000     14.10094      8.06304      0.22265      7.41676
     2.72000     14.09843      7.22564      0.22439      7.43903
     2.73000     13.98603      6.41713      0.22616      7.46147
     2.74000     13.77743      5.65281      0.22796      7.48409
     2.75000     13.48637      4.94303      0.22978      7.50689
     2.76000     13.12538      4.29468      0.23162      7.52987
     2.77000     12.70520      3.71291      0.23350      7.55303
     2.78000     12.23545      3.20279      0.23540      7.57639
     2.79000     11.72614      2.77010      0.23733      7.59993
     2.80000     11.18949      2.42083      0.23929      7.62366
     2.81000     10.64087      2.15914      0.24128      7.64758
     2.82000     10.09813      1.98524      0.24330      7.67171
    2.830000     9.579523     1.894023     0.245348     7.696034
    2.840000     9.101452     1.875130     0.247431     7.720572
    2.850000     8.676620     1.914154     0.249546     7.745308
    2.860000     8.313203     1.994214     0.251695     7.770251
    2.870000     8.014664     2.097417     0.253878     7.795415
    2.880000     7.779937     2.205959     0.256096     7.820792
    2.890000     7.603608     2.302971     0.258350     7.846389
    2.900000     7.475964     2.373393     0.260641     7.872217
    2.910000     7.383124     2.405134     0.262970     7.898264
    2.920000     7.307550     2.390618     0.265338     7.924551
    2.930000     7.229396     2.328494     0.267746     7.951071
    2.940000     7.129022     2.224865     0.270195     7.977826
    2.950000     6.990319     2.093190     0.272686     8.004828
    2.960000     6.803945     1.952269     0.275221     8.032074
    2.970000     6.569090     1.822594     0.277799     8.059572
    2.980000     6.293086     1.722251     0.280424     8.087328
    2.990001     5.988851     1.663847     0.283095     8.115345
    3.000001     5.671644     1.653381     0.285815     8.143629
    3.010001     5.355889     1.690870     0.288584     8.172174
    3.020001     5.053418     1.772097     0.291404     8.201006
    3.030000     4.772740     1.890506     0.294277     8.230107
    3.040000     4.519266     2.038773     0.297204     8.259496
    3.050000     4.295915     2.209825     0.300186     8.289177
    3.060000     4.103861     2.397370     0.303226     8.319148
    3.070000     3.943188     2.596060     0.306326     8.349426
    3.080000     3.813405     2.801449     0.309486     8.380003
    3.090000     3.713816     3.009822     0.312709     8.410901
    3.100000     3.643745     3.217977     0.315997     8.442112
    3.110000     3.602676     3.422985     0.319352     8.473650
    3.120000     3.590301     3.621943     0.322776     8.505519
    3.130000     3.606467     3.811740     0.326272     8.537725
    3.140000     3.651081     3.988805     0.329842     8.570276
    3.150000     3.723893     4.148891     0.333487     8.603183
    3.160000     3.824151     4.286887     0.337212     8.636446
    3.170000     3.950125     4.396721     0.341019     8.670077
    3.180000     4.098472     4.471466     0.344910     8.704083
    3.190000     4.263491     4.503743     0.348889     8.738468
    3.200000     4.436405     4.486595     0.352959     8.773250
    3.210000     4.604981     4.414901     0.357122     8.808430
    3.220000     4.753850     4.287256     0.361383     8.844019
    3.230000     4.865965     4.107845     0.365746     8.880030
    3.240000     4.925290     3.887591     0.370213     8.916461
    3.250000     4.920133     3.643665     0.374790     8.953332
    3.260000     4.846038     3.397049     0.379480     8.990657
    3.270000     4.706906     3.168714     0.384288     9.028437
    3.280000     4.513853     2.975797     0.389219     9.066686
    3.290000     4.282312     2.829170     0.394277     9.105418
    3.300000     4.028656     2.732975     0.399469     9.144647
    3.310000     3.767546     2.685771     0.404800     9.184377
    3.320000     3.510442     2.682427     0.410275     9.224627
    3.330000     3.265273     2.716003     0.415901     9.265412
    3.340000     3.036819     2.779177     0.421685     9.306740
    3.350001     2.827389     2.865135     0.427634     9.348639
    3.360001     2.637614     2.967978     0.433754     9.391103
    3.370001     2.466964     3.082895     0.440056     9.434166
    3.380001     2.314289     3.206074     0.446546     9.477838
    3.390001     2.178123     3.334584     0.453234     9.522132
    3.400001     2.056892     3.466228     0.460129     9.567078
    3.410001     1.949044     3.599384     0.467243     9.612679
    3.420001     1.853121     3.732882     0.474585     9.658966
    3.430001     1.767796     3.865896     0.482168     9.705957
    3.440001     1.691877     3.997863     0.490005     9.753680
    3.450001     1.624313     4.128414     0.498108     9.802142
    3.460001     1.564190     4.257320     0.506492     9.851383
    3.470001     1.510704     4.384464     0.515173     9.901416
    3.480000     1.463168     4.509805     0.524167     9.952272
     3.49000      1.42099      4.63336      0.53349     10.00398
     3.50000      1.38365      4.75519      0.54317     10.05657
     3.51000      1.35071      4.87536      0.55322     10.11007
     3.52000      1.32181      4.99401      0.56366     10.16451
     3.53000      1.29663      5.11123      0.57452     10.21992
     3.54000      1.27490      5.22717      0.58582     10.27635
     3.55000      1.25641      5.34195      0.59760     10.33383
     3.56000      1.24096      5.45573      0.60988     10.39239
     3.57000      1.22842      5.56864      0.62270     10.45208
     3.58000      1.21869      5.68082      0.63609     10.51295
     3.59000      1.21167      5.79243      0.65010     10.57503
     3.60000      1.20732      5.90360      0.66477     10.63839
     3.61000      1.20563      6.01448      0.68014     10.70307
     3.62000      1.20660      6.12522      0.69627     10.76913
     3.63000      1.21028      6.23594      0.71321     10.83661
     3.64000      1.21672      6.34680      0.73103     10.90560
     3.65000      1.22604      6.45791      0.74980     10.97614
     3.66000      1.23837      6.56944      0.76959     11.04833
     3.67000      1.25389      6.68148      0.79049     11.12221
     3.68000      1.27280      6.79419      0.81260     11.19788
     3.69000      1.29538      6.90764      0.83600     11.27541
     3.70000      1.32193      7.02195      0.86084     11.35491
     3.71000      1.35283      7.13719      0.88721     11.43642
     3.72000      1.38852      7.25342      0.91528     11.52012
     3.73000      1.42952      7.37064      0.94521     11.60604
     3.74000      1.47644      7.48882      0.97716     11.69432
     3.75000      1.52997      7.60784      1.01135     11.78507
     3.76000      1.59094      7.72753      1.04801     11.87843
     3.77000      1.66027      7.84752      1.08737     11.97447
     3.78000      1.73907      7.96735      1.12975     12.07338
     3.79000      1.82850      8.08626      1.17546     12.17524
     3.80000      1.92995      8.20324      1.22489     12.28024
     3.81000      2.04483      8.31683      1.27845     12.38844
     3.82000      2.17469      8.42512      1.33663     12.50004
     3.83000      2.32094      8.52547      1.39999     12.61512
     3.84000      2.48491      8.61448      1.46916     12.73379
     3.85000      2.66732      8.68777      1.54487     12.85615
     3.86000      2.86816      8.73991      1.62797     12.98224
     3.87000      3.08587      8.76444      1.71941     13.11204
     3.88000      3.31693      8.75413      1.82033     13.24553
     3.89000      3.55485      8.70162      1.93197     13.38248
     3.90000      3.78984      8.60055      2.05586     13.52265
     3.91000      4.00853      8.44735      2.19367     13.66552
     3.92000      4.19491      8.24310      2.34730     13.81031
     3.93000      4.33255      7.99512      2.51900     13.95601
     3.94000      4.40750      7.71761      2.71118     14.10100
     3.95000      4.41179      7.42986      2.92663     14.24320
     3.96000      4.34545      7.15333      3.16822     14.37960
     3.97000      4.21654      6.90728      3.43906     14.50625
     3.98000      4.03903      6.70588      3.74204     14.61780
     3.99000      3.82939      6.55639      4.07977     14.70736
     4.00000      3.60367      6.45990      4.45373     14.76603
     4.01000      3.37515      6.41275      4.86382     14.78287
     4.02000      3.15373      6.40863      5.30689     14.74484
     4.03000      2.94579      6.44017      5.77578     14.63739
     4.04000      2.75498      6.50017      6.25735     14.44579
     4.05000      2.58275      6.58217      6.73191     14.15735
     4.06000      2.42925      6.68076      7.17246     13.76508
     4.07000      2.29367      6.79161      7.54712     13.27119
     4.08000      2.17483      6.91129      7.82283     12.69086
     4.09000      2.07125      7.03726      7.97207     12.05239
     4.10000      1.98151      7.16754      7.97914     11.39485
     4.11000      1.90417      7.30078      7.84450     10.76073
     4.12000      1.83797      7.43593      7.58464     10.18869
    4.130001     1.781720     7.572318     7.227556     9.706355
    4.140000     1.734445     7.709434     6.806430     9.328181
    4.150001     1.695255     7.847025     6.352977     9.055815
    4.160000     1.663428     7.984878     5.893865     8.881857
    4.170001     1.638338     8.122961     5.448421     8.793441
    4.180000     1.619488     8.261217     5.029485     8.775822
    4.190001     1.606470     8.399750     4.643952     8.814516
    4.200000     1.598979     8.538584     4.294836     8.896605
    4.210001     1.596785     8.677883     3.982118     9.011280
    4.219999     1.599749     8.817723     3.704290     9.149773
    4.230000     1.607804     8.958286     3.458716     9.305308
    4.239999     1.620959     9.099668     3.242538     9.472631
    4.250000     1.639301     9.242047     3.052668     9.647903
    4.259999     1.662989     9.385507     2.886265     9.828178
     4.27000      1.69227      9.53021      2.74059     10.01145
     4.28000      1.72749      9.67623      2.61325     10.19619
     4.29000      1.76904      9.82357      2.50212     10.38136
     4.30000      1.81747      9.97231      2.40526     10.56633
     4.31000      1.87340     10.12230      2.32106     10.75059
     4.32000      1.93762     10.27345      2.24807     10.93397
     4.33000      2.01098     10.42542      2.18507     11.11629
     4.34000      2.09456     10.57778      2.13098     11.29759
     4.35000      2.18949     10.72981      2.08489     11.47788
     4.36000      2.29713     10.88054      2.04601     11.65733
     4.37000      2.41887     11.02851      2.01366     11.83603
     4.38000      2.55624     11.17186      1.98725     12.01421
     4.39000      2.71065     11.30796      1.96629     12.19200
     4.40000      2.88338     11.43345      1.95036     12.36968
     4.41000      3.07515     11.54392      1.93908     12.54739
     4.42000      3.28590     11.63399      1.93215     12.72540
     4.43000      3.51403     11.69719      1.92932     12.90389
     4.44000      3.75594     11.72634      1.93035     13.08314
     4.45000      4.00505     11.71412      1.93509     13.26330
     4.46000      4.25148     11.65431      1.94339     13.44468
     4.47000      4.48174     11.54349      1.95513     13.62743
     4.48000      4.67988     11.38289      1.97023     13.81184
     4.49000      4.82940     11.18023      1.98864     13.99809
     4.50000      4.91659     10.94978      2.01034     14.18647
     4.51000      4.93369     10.71119      2.03530     14.37715
     4.52000      4.88101     10.48579      2.06356     14.57044
     4.53000      4.76689     10.29295      2.09515     14.76649
     4.54000      4.60539     10.14657      2.13014     14.96566
     4.55000      4.41317     10.05389      2.16861     15.16811
     4.56000      4.20612     10.01583      2.21068     15.37417
     4.57000      3.99760     10.02873      2.25648     15.58404
     4.58000      3.79734     10.08630      2.30619     15.79808
     4.59000      3.61178     10.18122      2.35997     16.01648
     4.60000      3.44447     10.30642      2.41807     16.23963
     4.61000      3.29697     10.45552      2.48072     16.46776
     4.62000      3.16937     10.62330      2.54824     16.70126
     4.63000      3.06101     10.80552      2.62095     16.94043
     4.64000      2.97074     10.99886      2.69920     17.18556
     4.65000      2.89719     11.20096      2.78346     17.43711
     4.66000      2.83903     11.40996      2.87418     17.69536
     4.67000      2.79495     11.62464      2.97192     17.96078
     4.68000      2.76382     11.84409      3.07729     18.23368
     4.69000      2.74460     12.06781      3.19102     18.51456
     4.70000      2.73647     12.29542      3.31386     18.80375
     4.71000      2.73871     12.52685      3.44678     19.10175
     4.72000      2.75080     12.76203      3.59074     19.40889
     4.73000      2.77232     13.00112      3.74699     19.72569
     4.74000      2.80301     13.24425      3.91680     20.05242
     4.75000      2.84272     13.49171      4.10178     20.38953
     4.76000      2.89144     13.74374      4.30362     20.73723
     4.77000      2.94926     14.00072      4.52439     21.09582
     4.78000      3.01639     14.26293      4.76634     21.46524
     4.79000      3.09320     14.53082      5.03217     21.84550
     4.80000      3.18012     14.80468      5.32482     22.23609
     4.81000      3.27777     15.08498      5.64781     22.63640
     4.82000      3.38687     15.37202      6.00493     23.04504
     4.83000      3.50834     15.66623      6.40066     23.46027
     4.84000      3.64321     15.96787      6.83970     23.87914
     4.85000      3.79278     16.27728      7.32743     24.29779
     4.86000      3.95847     16.59460      7.86920     24.71064
     4.87000      4.14205     16.91998      8.47069     25.11034
     4.88000      4.34543     17.25326      9.13669     25.48705
     4.89000      4.57091     17.59427      9.87120     25.82829
     4.90000      4.82100     17.94226     10.67543     26.11842
     4.91000      5.09865     18.29638     11.54730     26.33910
     4.92000      5.40694     18.65499     12.47867     26.46980
     4.93000      5.74941     19.01596     13.45477     26.48975
     4.94000      6.12952     19.37604     14.45188     26.38073
     4.95000      6.55095     19.73116     15.43888     26.13089
     4.96000      7.01674     20.07570     16.37839     25.73870
     4.97000      7.52947     20.40288     17.23248     25.21510
     4.98000      8.08998     20.70432     17.96684     24.58378
     4.99000      8.69737     20.97090     18.55630     23.87755
     5.00000      9.34776     21.19307     18.98566     23.13491
     5.01000     10.03421     21.36231     19.24995     22.39633
     5.02000     10.74757     21.47281     19.35358     21.70223
     5.03000     11.47720     21.52258     19.31044     21.09270
     5.04000     12.21443     21.51400     19.14497     20.60432
     5.05000     12.95437     21.45226     18.89204     20.26711
     5.06000     13.69853     21.34202     18.59415     20.09984
     5.07000     14.45305     21.18313     18.29689     20.10828
     5.08000     15.22613     20.96684     18.04352     20.28557
     5.09000     16.02128     20.67494     17.87153     20.61520
     5.10000     16.83234     20.28154     17.81092     21.07486
     5.11000     17.63755     19.75913     17.88478     21.63930
     5.12000     18.39892     19.08602     18.11069     22.28294
     5.13000     19.06366     18.25633     18.50243     22.98001
     5.14000     19.57297     17.28674     19.07188     23.70516
     5.15000     19.87304     16.22094     19.82955     24.43155
     5.16000     19.92895     15.12456     20.78574     25.13039
     5.17000     19.73397     14.07565     21.94911     25.76820
     5.18000     19.31215     13.14851     23.32652     26.30590
     5.19000     18.71256     12.40158     24.91905     26.69637
     5.20000     17.99742     11.86869     26.71972     26.88423
     5.21000     17.23076     11.55960     28.70620     26.80598
     5.22000     16.46837     11.46414     30.83660     26.39350
     5.23000     15.75410     11.55992     33.04058     25.58146
     5.24000     15.11830     11.81887     35.21822     24.31889
     5.25000     14.58041     12.21223     37.23933     22.58662
     5.26000     14.15100     12.71383     38.95828     20.41265
     5.27000     13.83528     13.30097     40.23435     17.88551
     5.28000     13.63482     13.95529     40.96368     15.14881
     5.29000     13.54990     14.66170     41.10447     12.38403
     5.30000     13.58039     15.40851     40.68999      9.77339
     5.31000     13.72683     16.18576     39.81975      7.46798
     5.32000     13.99094     16.98535     38.63383      5.56060
     5.33000     14.37580     17.79930     37.28262      4.08243
     5.34000     14.88641     18.61988     35.89908      3.00977
     5.35000     15.52913     19.43787     34.58462      2.28364
     5.36000     16.31228     20.24256     33.40201      1.82726
     5.37000     17.24513     21.02001     32.37935      1.56339
     5.38000     18.33747     21.75224     31.51658      1.42589
     5.39000     19.59911     22.41659     30.79527      1.36757
     5.40000     21.03700     22.98384     30.19104      1.36302
     5.41000     22.65441     23.41842     29.68385      1.40610
     5.42000     24.44588     23.67790     29.26701      1.50267
     5.43000     26.39552     23.71506     28.94980      1.66059
     5.44000     28.47092     23.48125     28.75570      1.88007
     5.45000     30.62330     22.93260     28.71571      2.14737
     5.46000     32.78530     22.03829     28.86109      2.43216
     5.47000     34.87899     20.78798     29.21629      2.68854
     5.48000     36.82256     19.19807     29.79322      2.85726
     5.49000     38.54515     17.30928     30.58701      2.86927
     5.50000     39.99384     15.18104     31.57053      2.64998
     5.51000     41.13937     12.87782     32.69088      2.12562
     5.52000     41.97041     10.46187     33.86479      1.23334
     5.53000     42.48747      7.98613     34.98045     -0.06606
     5.54000     42.69578      5.49914     35.90371     -1.77149
     5.55000     42.60484      3.04573     36.49666     -3.83049
     5.56000     42.23047      0.67184     36.64190     -6.13403
     5.57000     41.59776     -1.58080     36.26970     -8.53098
     5.58000     40.74126     -3.67608     35.37525    -10.85160
     5.59000     39.70105     -5.58978     34.01830    -12.94288
     5.60000     38.51937     -7.30778     32.30708    -14.69203
     5.61000     37.23586     -8.82704     30.37037    -16.04098
     5.62000     35.88697    -10.15125     28.33446    -16.98096
     5.63000     34.50369    -11.29114     26.30393    -17.54134
     5.64000     33.11209    -12.26123     24.35721    -17.77274
     5.65000     31.73127    -13.07959     22.54458    -17.73439
     5.66000     30.37474    -13.76449     20.89530    -17.48464
     5.67000     29.04973    -14.33355     19.42119    -17.07588
     5.68000     27.76006    -14.80152     18.12420    -16.55281
     5.69000     26.50618    -15.18058     16.99889    -15.95198
     5.70000     25.28816    -15.47972     16.03719    -15.30332
     5.71000     24.10486    -15.70566     15.22898    -14.63084
     5.72000     22.95630    -15.86283     14.56449    -13.95496
     5.73000     21.84291    -15.95398     14.03375    -13.29301
     5.74000     20.76787    -15.98085     13.62735    -12.66132
     5.75000     19.73695    -15.94607     13.33552    -12.07585
     5.76000     18.75736    -15.85518     13.14716    -11.55258
     5.77000     17.83655    -15.71817     13.04874    -11.10835
     5.78000     16.97799    -15.54904     13.02259    -10.75955
     5.79000     16.17991    -15.36381     13.04550    -10.52108
     5.80000     15.43321    -15.17690     13.08797    -10.40311
     5.81000     14.72383    -14.99772     13.11499    -10.40774
     5.82000     14.03494    -14.82801     13.08916    -10.52523
     5.83000     13.35206    -14.66174     12.97623    -10.73208
     5.84000     12.66590    -14.48693     12.75171    -10.99262
     5.85000     11.97518    -14.28981     12.40645    -11.26408
     5.86000     11.28512    -14.05849     11.94810    -11.50475
     5.87000     10.60587    -13.78606     11.39869    -11.68109
     5.88000      9.94841    -13.47098     10.78800    -11.77251
     5.89000      9.32292    -13.11666     10.14760    -11.77166
     5.90000      8.73640    -12.72925      9.50488    -11.68203
     5.91000      8.19319    -12.31649      8.88122    -11.51408
     5.92000      7.69457    -11.88585      8.29068    -11.28144
     5.93000      7.24008    -11.44433      7.74163    -10.99842
     5.94000      6.82759    -10.99751      7.23741    -10.67803
     5.95000      6.45445    -10.55003      6.77848    -10.33155
     5.96000      6.11742    -10.10516      6.36295     -9.96797
    5.970000     5.813422    -9.665505     5.988079    -9.594504
    5.980000     5.539274    -9.232634     5.650333    -9.216432
    5.990000     5.292211    -8.807750     5.346280    -8.837852
    6.000000     5.069559    -8.391366     5.072385    -8.461520
    6.010000     4.869078    -7.983896     4.825529    -8.089571
    6.020000     4.688675    -7.585237     4.602706    -7.723246
    6.030000     4.526634    -7.195358     4.401381    -7.363528
    6.040000     4.381369    -6.813851     4.219177    -7.010808
    6.050000     4.251625    -6.440461     4.054116    -6.665440
    6.060000     4.136250    -6.074621     3.904368    -6.327352
    6.070000     4.034360    -5.715971     3.768430    -5.996563
    6.080000     3.945171    -5.363877     3.644907    -5.672768
    6.089999     3.868112    -5.017943     3.532667    -5.355810
    6.100000     3.802700    -4.677530     3.430653    -5.045277
    6.110001     3.748648    -4.342183     3.337995    -4.740882
    6.120000     3.705784    -4.011445     3.253941    -4.442315
    6.130001     3.674051    -3.684723     3.177800    -4.149103
    6.140000     3.653560    -3.361661     3.109018    -3.860975
    6.150001     3.644542    -3.041731     3.047078    -3.577457
    6.160000     3.647395    -2.724648     2.991580    -3.298269
    6.170001     3.662668    -2.409986     2.942138    -3.022955
    6.180000     3.691083    -2.097596     2.898470    -2.751238
    6.190001     3.733571    -1.787228     2.860303    -2.482671
    6.200000     3.791249    -1.478969     2.827450    -2.216985
    6.210001     3.865502    -1.172881     2.799737    -1.953747
    6.220000     3.957928    -0.869468     2.777055    -1.692699
    6.230001     4.070452    -0.569351     2.759320    -1.433414
    6.240000     4.205221    -0.273768     2.746494    -1.175634
     6.25000      4.36474      0.01567      2.73858     -0.91895
    6.260000     4.551678     0.296452     2.735613    -0.663094
    6.270000     4.768975     0.565268     2.737674    -0.407664
    6.280000     5.019448     0.817428     2.744888    -0.152408
    6.290000     5.305807     1.046898     2.757420     0.103092
    6.300000     5.629838     1.245662     2.775482     0.359084
    6.310000     5.992130     1.403783     2.799346     0.615983
    6.320000     6.390632     1.509094     2.829332     0.874036
    6.330000     6.819863     1.547723     2.865833     1.133648
    6.340000     7.268932     1.504955     2.909301     1.395062
    6.350000     7.720734     1.367209     2.960289     1.658671
    6.360000     8.150836     1.125107     3.019416     1.924677
    6.370000     8.529012     0.777097     3.087427     2.193453
    6.380000     8.821990     0.333413     3.165164     2.465132
    6.390000     8.999574    -0.182527     3.253637     2.739993
    6.400000     9.040943    -0.735055     3.353954     3.018060
    6.410000     8.940207    -1.282282     3.467462     3.299430
    6.420000     8.707988    -1.783137     3.595620     3.583896
    6.430000     8.368397    -2.205379     3.740178     3.871219
    6.440000     7.953319    -2.529258     3.903007     4.160736
    6.450000     7.495422    -2.748462     4.086304     4.451615
    6.460001     7.023576    -2.867137     4.292394     4.742420
    6.470000     6.560088    -2.896311     4.523715     5.031139
    6.480001     6.120011    -2.850168     4.782870     5.315139
    6.490000     5.712571    -2.743358     5.072171     5.590688
    6.500001     5.341992    -2.589325     5.393652     5.853149
    6.510000     5.009478    -2.399645     5.748300     6.096573
    6.520001     4.713916    -2.183666     6.135871     6.314073
    6.530000     4.453208    -1.948866     6.553742     6.497922
    6.540001     4.224504    -1.700837     6.996752     6.640589
    6.550000     4.024937    -1.443914     7.456312     6.735822
    6.560001     3.851565    -1.181130     7.921268     6.780612
    6.570000     3.701762    -0.914805     8.378804     6.776778
    6.580001     3.573061    -0.646414     8.817579     6.732023
    6.590000     3.463372    -0.377094     9.230545     6.659361
    6.600001     3.370806    -0.107424     9.618270     6.574328
    6.610000     3.293809     0.162136     9.989478     6.490946
     6.62000      3.23102      0.43151     10.36011      6.41733
     6.63000      3.18135      0.70063     10.74941      6.35282
     6.64000      3.14387      0.96969     11.17605      6.28700
     6.65000      3.11788      1.23881     11.65359      6.20085
     6.66000      3.10281      1.50838     12.18787      6.06896
     6.67000      3.09827      1.77862     12.77421      5.86289
     6.68000      3.10400      2.05000     13.39700      5.55489
     6.69000      3.11988      2.32282     14.02920      5.12259
     6.70000      3.14593      2.59759     14.63543      4.55297
     6.71000      3.18228      2.87466     15.17535      3.84629
     6.72000      3.22924      3.15457     15.61017      3.01632
     6.73000      3.28719      3.43766     15.90721      2.08921
     6.74000      3.35672      3.72449     16.04368      1.09833
     6.75000      3.43851      4.01540     16.00679      0.08147
     6.76000      3.53348      4.31092     15.79303     -0.92292
     6.77000      3.64267      4.61135     15.40813     -1.87564
     6.78000      3.76738      4.91715     14.86732     -2.73967
     6.79000      3.90911      5.22850     14.19668     -3.48225
     6.80000      4.06967      5.54573     13.43041     -4.08019
     6.81000      4.25109      5.86880     12.60780     -4.52208
     6.82000      4.45588      6.19771     11.76679     -4.80944
     6.83000      4.68681      6.53204     10.94033     -4.95398
     6.84000      4.94711      6.87105     10.15341     -4.97410
    6.850001     5.240575     7.213680     9.422254    -4.890959
    6.860000     5.571355     7.558017     8.756277    -4.725566
    6.870001     5.944337     7.901543     8.158781    -4.496819
    6.880000     6.364674     8.240398     7.629611    -4.220876
    6.890001     6.838181     8.569481     7.165889    -3.910706
    6.900000     7.370612     8.881594     6.763769    -3.576652
    6.910001     7.967885     9.167403     6.418713    -3.226474
    6.920000     8.634766     9.414515     6.126446    -2.866190
    6.930001     9.374713     9.607389     5.882862    -2.500083
     6.94000     10.18763      9.72685      5.68455     -2.13153
     6.95000     11.06900      9.75058      5.52859     -1.76284
     6.96000     12.00681      9.65409      5.41284     -1.39601
     6.97000     12.98062      9.41305      5.33571     -1.03251
     6.98000     13.95924      9.00713      5.29635     -0.67388
     6.99000     14.90255      8.42435      5.29449     -0.32157
     7.00000     15.76326      7.66635      5.33048      0.02249
     7.01000     16.49386      6.75084      5.40522      0.35607
     7.02000     17.05247      5.71273      5.51999      0.67597
     7.03000     17.41045      4.59987      5.67645      0.97816
     7.04000     17.55628      3.46854      5.87615      1.25708
     7.05000     17.49792      2.37484      6.12043      1.50566
     7.06000     17.26146      1.36885      6.40944      1.71471
     7.07000     16.88706      0.48672      6.74165      1.87306
     7.08000     16.42257     -0.25228      7.11224      1.96745
     7.09000     15.91531     -0.84775      7.51208      1.98343
     7.10000     15.40548     -1.31432      7.92581      1.90676
     7.11000     14.92080     -1.67701      8.33141      1.72612
     7.12000     14.47559     -1.96403      8.69988      1.43671
     7.13000     14.07163     -2.20126      8.99820      1.04402
     7.14000     13.70262     -2.40755      9.19367      0.56689
     7.15000     13.35869     -2.59348      9.26090      0.03693
     7.16000     13.03167     -2.76222      9.18777     -0.50489
     7.17000     12.71744     -2.91326      8.97873     -1.01618
     7.18000     12.41658     -3.04617      8.65354     -1.46033
     7.19000     12.13153     -3.16362      8.24193     -1.81281
     7.20000     11.86368     -3.27161      7.77705     -2.06245
     7.21000     11.61058     -3.37761      7.28962     -2.21000
     7.22000     11.36530     -3.48740      6.80417     -2.26455
     7.23000     11.11849     -3.60201      6.33843     -2.23951
     7.24000     10.86142     -3.71678      5.90326     -2.14959
     7.25000     10.58991     -3.82254      5.50458     -2.00885
     7.26000     10.30600     -3.90909      5.14422     -1.82952
     7.27000     10.01785     -3.96908      4.82182     -1.62181
    7.280001     9.736791    -4.000928     4.535307    -1.393736
    7.290000     9.473968    -4.009706     4.282054    -1.151632
    7.300001     9.236680    -4.005992     4.058961    -0.900141
    7.310000     9.026380    -4.003378     3.863067    -0.642838
    7.320001     8.837543    -4.015295     3.691458    -0.382174
    7.330000     8.658523    -4.051751     3.541557    -0.120022
    7.340001     8.473380    -4.116563     3.410976     0.142467
    7.350000     8.265493    -4.205691     3.297690     0.404399
    7.360001     8.021263    -4.307611     3.199867     0.665363
    7.370000     7.733807    -4.405622     3.115990     0.925014
    7.380001     7.404212    -4.481899     3.044704     1.183348
    7.390000     7.041052    -4.521438     2.984910     1.440326
    7.400001     6.657243    -4.514807     2.935633     1.696163
    7.410000     6.267223    -4.458808     2.896108     1.950984
    7.420001     5.883751    -4.355502     2.865666     2.205127
    7.430000     5.516887    -4.210476     2.843793     2.458804
    7.440001     5.173110    -4.030930     2.830065     2.712421
    7.450000     4.856136    -3.824435     2.824183     2.966237
    7.460001     4.567140    -3.597849     2.825926     3.220699
    7.470000     4.305881    -3.357166     2.835170     3.476094
    7.480000     4.070936    -3.107106     2.851879     3.732887
    7.490000     3.860492    -2.851498     2.876092     3.991393
    7.500000     3.672366    -2.593092     2.907946     4.252086
    7.510000     3.504468    -2.334035     2.947645     4.515296
    7.520000     3.354687    -2.075730     2.995506     4.781509
    7.529999     3.221169    -1.819275     3.051906     5.051055
    7.540000     3.102144    -1.565253     3.117361     5.324438
    7.549999     2.996119    -1.314154     3.192466     5.601976
    7.560000     2.901701    -1.066093     3.277972     5.884163
    7.570001     2.817720    -0.821183     3.374738     6.171343
    7.580000     2.743152    -0.579421     3.483769     6.463837
    7.590001     2.677066    -0.340612     3.606301     6.762073
    7.600000     2.618706    -0.104669     3.743698     7.066219
    7.610001     2.567371     0.128692     3.897628     7.376582
    7.620000     2.522493     0.359621     4.069938     7.693145
    7.630001     2.483550     0.588447     4.262870     8.015931
    7.640000     2.450119     0.815349     4.478892     8.344565
    7.650001     2.421814     1.040663     4.720972     8.678559
    7.660000     2.398324     1.264585     4.992353     9.016818
    7.670001     2.379369     1.487455     5.296894     9.357923
    7.680000     2.364724     1.709470     5.638710     9.699478
     7.69000      2.35420      1.93097      6.02258     10.03839
     7.70000      2.34763      2.15216      6.45337     10.37003
     7.71000      2.34490      2.37336      6.93642     10.68842
     7.72000      2.34590      2.59478      7.47659     10.98532
     7.73000      2.35058      2.81676      8.07839     11.25027
     7.74000      2.35889      3.03948      8.74442     11.46983
     7.75000      2.37080      3.26331      9.47508     11.62783
     7.76000      2.38633      3.48842     10.26609     11.70540
     7.77000      2.40550      3.71517     11.10789     11.68208
     7.78000      2.42836      3.94377     11.98301     11.53788
     7.79000      2.45499      4.17457     12.86638     11.25609
     7.80000      2.48549      4.40778     13.72492     10.82738
     7.81000      2.51998      4.64379     14.52123     10.25307
     7.82000      2.55860      4.88282     15.21738      9.54823
     7.83000      2.60155      5.12525     15.78185      8.74092
     7.84000      2.64901      5.37134     16.19464      7.86985
     7.85000      2.70125      5.62150     16.45216      6.97709
     7.86000      2.75852      5.87600     16.56670      6.10111
     7.87000      2.82115      6.13526     16.56267      5.26833
     7.88000      2.88948      6.39960     16.46860      4.49023
     7.89000      2.96393      6.66947     16.30836      3.76334
     7.90000      3.04494      6.94520     16.09478      3.07596
     7.91000      3.13305      7.22729     15.82723      2.41551
     7.92000      3.22881      7.51610     15.49472      1.77740
     7.93000      3.33292      7.81215     15.08266      1.16886
     7.94000      3.44612      8.11587     14.58142      0.60940
     7.95000      3.56923      8.42768     13.99264      0.12525
     7.96000      3.70325      8.74817     13.33066     -0.25838
     7.97000      3.84924      9.07770     12.62035     -0.52358
     7.98000      4.00849      9.41687     11.89072     -0.66357
     7.99000      4.18236      9.76604     11.16999     -0.68207
     8.00000      4.37252     10.12574     10.48086     -0.59072
     8.01000      4.58075     10.49622      9.83976     -0.40542
     8.02000      4.80923     10.87789      9.25620     -0.14313
     8.03000      5.06026     11.27079      8.73479      0.17997
     8.04000      5.33667     11.67502      8.27591      0.55000
     8.05000      5.64145     12.09018      7.87781      0.95535
     8.06000      5.97820     12.51577      7.53711      1.38709
     8.07000      6.35074     12.95054      7.24999      1.83822
     8.08000      6.76353     13.39287      7.01236      2.30382
     8.09000      7.22116     13.84005      6.82051      2.78015
     8.10000      7.72879     14.28851      6.67095      3.26494
     8.11000      8.29134     14.73309      6.56083      3.75647
     8.12000      8.91384     15.16727      6.48769      4.25403
     8.13000      9.60020     15.58241      6.44966      4.75710
     8.14000     10.35325     15.96824      6.44539      5.26586
     8.15000     11.17309     16.31259      6.47402      5.78045
     8.16000     12.05713     16.60250      6.53520      6.30154
     8.17000     12.99837     16.82505      6.62906      6.82958
     8.18000     13.98656     16.96933      6.75626      7.36549
     8.19000     15.00781     17.02778      6.91790      7.90983
     8.20000     16.04763     16.99743      7.11573      8.46355
     8.21000     17.09164     16.87963      7.35193      9.02714
     8.22000     18.12826     16.67891      7.62941      9.60135
     8.23000     19.14750     16.40172      7.95166     10.18635
     8.24000     20.14178     16.05582      8.32302     10.78239
     8.25000     21.10468     15.65148      8.74850     11.38895
     8.26000     22.03403     15.20180      9.23427     12.00527
     8.27000     22.93392     14.72205      9.78722     12.62943
     8.28000     23.81827     14.22508     10.41570     13.25882
     8.29000     24.70943     13.71570     11.12898     13.88902
     8.30000     25.63376     13.18496     11.93750     14.51366
     8.31000     26.61444     12.60759     12.85327     15.12407
     8.32000     27.66190     11.94495     13.88869     15.70773
     8.33000     28.76863     11.15065     15.05723     16.24807
     8.34000     29.90502     10.18057     16.37129     16.72256
     8.35000     31.02241      9.00154     17.84214     17.10213
     8.36000     32.05768      7.60095     19.47598     17.34940
     8.37000     32.94432      5.99022     21.27233     17.41857
     8.38000     33.62252      4.20650     23.21736     17.25556
     8.39000     34.05038      2.30474     25.28050     16.80084
     8.40000     34.20879      0.34963     27.40623     15.99564
     8.41000     34.10105     -1.59804     29.51282     14.79162
     8.42000     33.74631     -3.48680     31.49062     13.16609
     8.43000     33.17118     -5.27935     33.21415     11.13588
     8.44000     32.40387     -6.94749     34.55883      8.77036
     8.45000     31.47121     -8.47016     35.42923      6.18838
     8.46000     30.40091     -9.82806     35.78234      3.54503
     8.47000     29.22277    -11.00524     35.64156      0.99907
     8.48000     27.97174    -11.98928     35.09074     -1.31601
     8.49000     26.68616    -12.77603     34.25265     -3.31874
     8.50000     25.40650    -13.37105     33.26109     -4.98472
     8.51000     24.16956    -13.79168     32.23454     -6.34267
     8.52000     23.00549    -14.06482     31.26051     -7.45705
     8.53000     21.93265    -14.22390     30.38663     -8.41213
     8.54000     20.95776    -14.30347     29.62143     -9.29380
     8.55000     20.07564    -14.33444     28.93739    -10.17634
     8.56000     19.27390    -14.34022     28.28083    -11.10924
     8.57000     18.53625    -14.33535     27.58347    -12.10984
     8.58000     17.84782    -14.32672     26.77933    -13.15940
     8.59000     17.19641    -14.31641     25.82019    -14.20973
     8.60000     16.57334    -14.30464     24.68830    -15.19502
     8.61000     15.97101    -14.29120     23.39794    -16.05033
     8.62000     15.38223    -14.27485     21.99037    -16.72546
     8.63000     14.79958    -14.25178     20.51975    -17.19415
     8.64000     14.21796    -14.21472     19.04216    -17.45357
     8.65000     13.63626    -14.15383     17.60435    -17.51950
     8.66000     13.05952    -14.05940     16.24119    -17.41853
     8.67000     12.49804    -13.92511     14.97451    -17.18165
     8.68000     11.96479    -13.75031     13.81452    -16.83917
     8.69000     11.47283    -13.54082     12.76407    -16.41832
     8.70000     11.03194    -13.30780     11.81983    -15.94173
     8.71000     10.64743    -13.06614     10.97587    -15.42779
     8.72000     10.31856    -12.83223     10.22410    -14.89045
     8.73000     10.03888    -12.62200      9.55637    -14.34054
     8.74000      9.79603    -12.44861      8.96423    -13.78573
     8.75000      9.57317    -12.32041      8.44013    -13.23183
     8.76000      9.35061    -12.23895      7.97687    -12.68258
     8.77000      9.10913    -12.19785      7.56839    -12.14082
     8.78000      8.83341    -12.18335      7.20910    -11.60807
     8.79000      8.51541    -12.17682      6.89445    -11.08550
     8.80000      8.15545    -12.15863      6.62040    -10.57343
     8.81000      7.76172    -12.11227      6.38372    -10.07220
     8.82000      7.34696    -12.02697      6.18167     -9.58157
     8.83000      6.92565    -11.89847      6.01218     -9.10151
     8.84000      6.51067    -11.72798      5.87358     -8.63161
     8.85000      6.11225    -11.52045      5.76480     -8.17182
     8.86000      5.73704    -11.28260      5.68514     -7.72190
     8.87000      5.38890    -11.02165      5.63440     -7.28208
     8.88000      5.06912    -10.74417      5.61271     -6.85259
     8.89000      4.77753    -10.45597      5.62062     -6.43432
     8.90000      4.51275    -10.16159      5.65898     -6.02840
    8.910000     4.273006    -9.864732     5.728835    -5.636899
    8.920000     4.056097    -9.568011     5.831338    -5.262469
    8.929999     3.859945    -9.273499     5.967431    -4.909019
    8.940001     3.682402    -8.982500     6.137592    -4.581396
    8.950000     3.521604    -8.696040     6.341225    -4.285897
    8.960000     3.375740    -8.414630     6.576163    -4.029741
    8.969999     3.243287    -8.138699     6.837683    -3.820994
    8.980000     3.122808    -7.868320     7.118153    -3.667363
    8.990000     3.013113    -7.603588     7.406292    -3.575023
    9.000000     2.913087    -7.344352     7.688058    -3.546654
    9.009999     2.821814    -7.090533     7.947768    -3.579862
    9.020000     2.738439    -6.841866     8.171081    -3.666406
    9.030001     2.662251    -6.598158     8.347759    -3.793139
    9.040000     2.592627    -6.359198     8.473964    -3.944775
    9.050001     2.528987    -6.124649     8.552296    -4.107762
    9.060000     2.470866    -5.894320     8.589444    -4.273223
    9.070001     2.417819    -5.667873     8.592514    -4.438247
    9.080000     2.369490    -5.445115     8.565461    -4.604236
    9.090001     2.325537    -5.225706     8.507108    -4.773846
    9.100000     2.285685    -5.009460     8.411748    -4.947015
    9.110001     2.249673    -4.796058     8.271773    -5.118510
    9.120000     2.217294    -4.585314     8.081614    -5.277273
    9.130001     2.188347    -4.376923     7.840933    -5.408677
    9.140000     2.162680    -4.170716     7.556201    -5.497900
    9.150001     2.140143    -3.966388     7.239362    -5.533633
    9.160000     2.120625    -3.763783     6.905593    -5.510063
    9.170001     2.104020    -3.562613     6.569839    -5.427101
    9.180000     2.090253    -3.362719     6.245050    -5.289181
    9.190001     2.079256    -3.163821     5.940638    -5.103372
    9.200000     2.070984    -2.965768     5.662857    -4.877850
    9.210001     2.065404    -2.768290     5.414872    -4.620465
    9.219999     2.062501    -2.571228     5.197927    -4.338329
    9.230000     2.062273    -2.374308     5.011656    -4.037196
    9.240000     2.064733    -2.177386     4.855022    -3.721801
    9.250001     2.069909    -1.980181     4.726465    -3.395571
    9.259999     2.077844    -1.782538     4.624400    -3.061204
    9.270000     2.088599    -1.584183     4.547261    -2.720429
    9.280000     2.102249    -1.384952     4.493720    -2.374589
    9.290000     2.118888    -1.184554     4.462662    -2.024349
    9.299999     2.138627    -0.982819     4.453292    -1.670251
    9.310000     2.161601    -0.779451     4.465102    -1.312355
    9.320000     2.187959    -0.574269     4.497905    -0.950770
    9.330000     2.217886    -0.366955     4.551835    -0.585259
    9.339999     2.251575    -0.157315     4.627337    -0.215752
     9.35000      2.28927      0.05499      4.72525      0.15807
    9.360000     2.331228     0.270157     4.846679     0.536248
    9.370000     2.377759     0.488555     4.993222     0.918972
    9.379999     2.429189     0.710411     5.166765     1.306031
    9.390000     2.485924     0.936102     5.369751     1.697226
    9.400001     2.548395     1.165918     5.605009     2.091826
    9.410000     2.617090     1.400145     5.875825     2.488628
    9.420001     2.692596     1.639205     6.186155     2.885990
    9.430000     2.775529     1.883363     6.540254     3.281152
    9.440001     2.866652     2.133057     6.943037     3.670485
    9.450000     2.966765     2.388558     7.399474     4.048650
    9.460001     3.076855     2.650302     7.914875     4.408710
    9.470000     3.197970     2.918542     8.493819     4.741229
    9.480000     3.331392     3.193682     9.140163     5.034355
    9.490000     3.478504     3.475912     9.855268     5.273138
     9.50000      3.64099      3.76555     10.63746      5.44000
     9.51000      3.82066      4.06262     11.47952      5.51514
     9.52000      4.01975      4.36724     12.36800      5.47828
     9.53000      4.24064      4.67912     13.28109      5.31115
     9.54000      4.48624      4.99797     14.18955      5.00102
     9.55000      4.75971      5.32290     15.05753      4.54476
     9.56000      5.06480      5.65279     15.84751      3.95160
     9.57000      5.40556      5.98568     16.52501      3.24485
     9.58000      5.78670      6.31897     17.06575      2.45931
     9.59000      6.21311      6.64872     17.45978      1.63707
     9.60000      6.69028      6.96976     17.71438      0.81886
     9.61000      7.22343      7.27483     17.85098      0.03719
     9.62000      7.81775      7.55455     17.89904     -0.69042
     9.63000      8.47698      7.79659     17.88707     -1.36156
     9.64000      9.20314      7.98564     17.83518     -1.98596
     9.65000      9.99417      8.10312     17.75048     -2.57713
     9.66000     10.84294      8.12798     17.62839     -3.14476
     9.67000     11.73415      8.03816     17.45808     -3.68766
     9.68000     12.64357      7.81369     17.23047     -4.19283
     9.69000     13.53638      7.44134     16.94618     -4.63817
     9.70000     14.37032      6.91987     16.61908     -5.00044
     9.71000     15.09989      6.26551     16.27549     -5.26240
     9.72000     15.68600      5.51320     15.94897     -5.41859
     9.73000     16.10468      4.71434     15.67457     -5.47669
     9.74000     16.35512      3.92720     15.48320     -5.45616
     9.75000     16.46051      3.20611     15.39877     -5.38546
     9.76000     16.46355      2.59040     15.43653     -5.29922
     9.77000     16.41697      2.09797     15.60248     -5.23605
     9.78000     16.37353      1.72530     15.89250     -5.23704
     9.79000     16.37808      1.45040     16.29134     -5.34406
     9.80000     16.46283      1.23887     16.77046     -5.59711
     9.81000     16.64532      1.04909     17.28704     -6.03020
     9.82000     16.92806      0.83753     17.78353     -6.66469
     9.83000     17.29950      0.56281     18.19191     -7.50232
     9.84000     17.73511      0.18996     18.44154     -8.51811
     9.85000     18.20051     -0.30629     18.47207     -9.65971
     9.86000     18.65464     -0.93817     18.24643    -10.85181
     9.87000     19.05517     -1.70410     17.75979    -12.01059
     9.88000     19.36324     -2.58845     17.04037    -13.05835
     9.89000     19.54843     -3.56541     16.14024    -13.93849
     9.90000     19.59125     -4.60241     15.12346    -14.62035
     9.91000     19.48341     -5.66662     14.05197    -15.09910
     9.92000     19.22511     -6.72765     12.97845    -15.38844
     9.93000     18.82096     -7.76009     11.94111    -15.51346
     9.94000     18.27749     -8.74052     10.96528    -15.50340
     9.95000     17.60260     -9.64599     10.06437    -15.38719
     9.96000     16.80904    -10.45176      9.24396    -15.19072
     9.97000     15.91639    -11.13453      8.50344    -14.93571
     9.98000     14.95268    -11.67566      7.83929    -14.63976
     9.99000     13.95060    -12.06613      7.24564    -14.31647
    10.00000     12.94408    -12.30748      6.71625    -13.97634
# 
# 04/09/2018 at 16:09 YAMBO @ narro [start]
# 04/09/2018 at 16:10               [end]
#  
# Timing   [Min/Max/Average]: 11s/11s/11s
#
# .-Input file : yambo.in
# | optics                         # [R OPT] Optics
# | bse                            # [R BSE] Bethe Salpeter Equation.
# | bsk                            # [R BSK] Bethe Salpeter Equation kernel
# | bss                            # [R BSS] Bethe Salpeter Equation solver
# | em1s                           # [R Xs] Static Inverse Dielectric Matrix
# | BoseTemp= 0.000000     eV      # Bosonic Temperature
# | FFTGvecs=  3473        RL      # [FFT] Plane-waves
# | Chimod= "hartree"              # [X] IP/Hartree/ALDA/LRC/BSfxc
# | BSEmod= "resonant"             # [BSE] resonant/retarded/coupling
# | BSKmod= "SEX"                  # [BSE] IP/Hartree/HF/ALDA/SEX/BSfxc
# | BSSmod= "d"                    # [BSS] (h)aydock/(d)iagonalization/(i)nversion/(t)ddft`
# | BSENGexx=  51          RL      # [BSK] Exchange components
# | BSENGBlk=  51          RL      # [BSK] Screened interaction block size
# | #WehCpl                        # [BSK] eh interaction included also in coupling
# | % BEnRange
# | -10.00000 | 10.00000 | eV      # [BSS] Energy range
# | %
# | % BDmRange
# |   0.10000 |  0.10000 | eV      # [BSS] Damping range
# | %
# | BEnSteps= 2001                 # [BSS] Energy steps
# | % BLongDir
# | 0.5774E-5 |0.5774E-5 |0.5774E-5 |        # [BSS] [cc] Electric Field
# | %
# | % BSEQptR
# |   1 |  4 |                     # [BSK] Transferred momenta range
# | %
# | % BSEBands
# |   3 | 10 |                     # [BSK] Bands range
# | %
# | % BndsRnXs
# |    1 |  60 |                   # [Xs] Polarization function bands
# | %
# | NGsBlkXs=  51          RL      # [Xs] Response block size
# | % DmRngeXs
# | 0.1000E-2 |0.1000E-2 | eV      # [Xs] Damping range
# | %
# | % LongDrXs
# | 0.1000E-4 | 0.000    | 0.000    |        # [Xs] [cc] Electric Field
# | %
