#                                                           
# ooooo   oooo ..     ooo        ooo ooooooooo.    .oooo.   
#  `88.   .8" .88.    `88.       .88 `88"   `Y8b  dP"  `Yb  
#   `88. .8" .8"88.    888b     d"88  88     888 88      88 
#    `88.8" .8" `88.   8 Y88. .P  88  88oooo888" 88      88 
#     `88" .88ooo888.  8  `888"   88  88    `88b 88      88 
#      88 .8"     `88. 8    Y     88  88    .88P `8b    d8" 
#     o88o88o      888o8          88 o88bood8P"   `Ybod8P"  
#                                                           
#                                                           
#        Version 4.4.0 Revision 16741 Hash d917b3d70        
#               Branch is devel-BSE-finite-q                
#                   MPI+SLK+OpenMP Build                    
#                 http://www.yambo-code.org                 
#
# Absorption @ Q(2) [iku] : 0.500000  0.250000  0.000000
#
#
# - Energies      are Teter 93(XC)
# - Wavefunctions are Teter 93(XC)
#
# - The Green`s function is Resonant -
#
#
#    E/ev[1]      EPS-Im[2]    EPS-Re[3]    EPSo-Im[4]   EPSo-Re[5]
#
   -10.00       0.1307E-8     1.000       0.7494E-3     1.126   
   -9.990       0.1309E-8     1.000       0.7503E-3     1.126   
   -9.980       0.1311E-8     1.000       0.7512E-3     1.126   
   -9.970       0.1314E-8     1.000       0.7522E-3     1.126   
   -9.960       0.1316E-8     1.000       0.7531E-3     1.126   
   -9.950       0.1318E-8     1.000       0.7540E-3     1.127   
   -9.940       0.1320E-8     1.000       0.7549E-3     1.127   
   -9.930       0.1322E-8     1.000       0.7558E-3     1.127   
   -9.920       0.1324E-8     1.000       0.7567E-3     1.127   
   -9.910       0.1326E-8     1.000       0.7576E-3     1.127   
   -9.900       0.1328E-8     1.000       0.7586E-3     1.127   
   -9.890       0.1330E-8     1.000       0.7595E-3     1.127   
   -9.880       0.1333E-8     1.000       0.7604E-3     1.127   
   -9.870       0.1335E-8     1.000       0.7613E-3     1.127   
   -9.860       0.1337E-8     1.000       0.7623E-3     1.127   
   -9.850       0.1339E-8     1.000       0.7632E-3     1.127   
   -9.840       0.1341E-8     1.000       0.7641E-3     1.127   
   -9.830       0.1343E-8     1.000       0.7650E-3     1.127   
   -9.820       0.1346E-8     1.000       0.7660E-3     1.128   
   -9.810       0.1348E-8     1.000       0.7669E-3     1.128   
   -9.800       0.1350E-8     1.000       0.7679E-3     1.128   
   -9.790       0.1352E-8     1.000       0.7688E-3     1.128   
   -9.780       0.1354E-8     1.000       0.7697E-3     1.128   
   -9.770       0.1356E-8     1.000       0.7707E-3     1.128   
   -9.760       0.1359E-8     1.000       0.7716E-3     1.128   
   -9.750       0.1361E-8     1.000       0.7726E-3     1.128   
   -9.740       0.1363E-8     1.000       0.7735E-3     1.128   
   -9.730       0.1365E-8     1.000       0.7745E-3     1.128   
   -9.720       0.1368E-8     1.000       0.7754E-3     1.128   
   -9.710       0.1370E-8     1.000       0.7764E-3     1.128   
   -9.700       0.1372E-8     1.000       0.7773E-3     1.128   
   -9.690       0.1374E-8     1.000       0.7783E-3     1.129   
   -9.680       0.1376E-8     1.000       0.7792E-3     1.129   
   -9.670       0.1379E-8     1.000       0.7802E-3     1.129   
   -9.660       0.1381E-8     1.000       0.7812E-3     1.129   
   -9.650       0.1383E-8     1.000       0.7821E-3     1.129   
   -9.640       0.1385E-8     1.000       0.7831E-3     1.129   
   -9.630       0.1388E-8     1.000       0.7840E-3     1.129   
   -9.620       0.1390E-8     1.000       0.7850E-3     1.129   
   -9.610       0.1392E-8     1.000       0.7860E-3     1.129   
   -9.600       0.1395E-8     1.000       0.7870E-3     1.129   
   -9.590       0.1397E-8     1.000       0.7879E-3     1.129   
   -9.580       0.1399E-8     1.000       0.7889E-3     1.129   
   -9.570       0.1402E-8     1.000       0.7899E-3     1.129   
   -9.560       0.1404E-8     1.000       0.7909E-3     1.130   
   -9.550       0.1406E-8     1.000       0.7919E-3     1.130   
   -9.540       0.1408E-8     1.000       0.7928E-3     1.130   
   -9.530       0.1411E-8     1.000       0.7938E-3     1.130   
   -9.520       0.1413E-8     1.000       0.7948E-3     1.130   
   -9.510       0.1415E-8     1.000       0.7958E-3     1.130   
   -9.500       0.1418E-8     1.000       0.7968E-3     1.130   
   -9.490       0.1420E-8     1.000       0.7978E-3     1.130   
   -9.480       0.1423E-8     1.000       0.7988E-3     1.130   
   -9.470       0.1425E-8     1.000       0.7998E-3     1.130   
   -9.460       0.1427E-8     1.000       0.8008E-3     1.130   
   -9.450       0.1430E-8     1.000       0.8018E-3     1.130   
   -9.440       0.1432E-8     1.000       0.8028E-3     1.131   
   -9.430       0.1434E-8     1.000       0.8038E-3     1.131   
   -9.420       0.1437E-8     1.000       0.8048E-3     1.131   
   -9.410       0.1439E-8     1.000       0.8058E-3     1.131   
   -9.400       0.1442E-8     1.000       0.8068E-3     1.131   
   -9.390       0.1444E-8     1.000       0.8078E-3     1.131   
   -9.380       0.1446E-8     1.000       0.8088E-3     1.131   
   -9.370       0.1449E-8     1.000       0.8098E-3     1.131   
   -9.360       0.1451E-8     1.000       0.8109E-3     1.131   
   -9.350       0.1454E-8     1.000       0.8119E-3     1.131   
   -9.340       0.1456E-8     1.000       0.8129E-3     1.131   
   -9.330       0.1459E-8     1.000       0.8139E-3     1.131   
   -9.320       0.1461E-8     1.000       0.8150E-3     1.131   
   -9.310       0.1463E-8     1.000       0.8160E-3     1.132   
   -9.300       0.1466E-8     1.000       0.8170E-3     1.132   
   -9.290       0.1468E-8     1.000       0.8180E-3     1.132   
   -9.280       0.1471E-8     1.000       0.8191E-3     1.132   
   -9.270       0.1473E-8     1.000       0.8201E-3     1.132   
   -9.260       0.1476E-8     1.000       0.8212E-3     1.132   
   -9.250       0.1478E-8     1.000       0.8222E-3     1.132   
   -9.240       0.1481E-8     1.000       0.8232E-3     1.132   
   -9.230       0.1483E-8     1.000       0.8243E-3     1.132   
   -9.220       0.1486E-8     1.000       0.8253E-3     1.132   
   -9.210       0.1488E-8     1.000       0.8264E-3     1.132   
   -9.200       0.1491E-8     1.000       0.8274E-3     1.132   
   -9.190       0.1494E-8     1.000       0.8285E-3     1.133   
   -9.180       0.1496E-8     1.000       0.8295E-3     1.133   
   -9.170       0.1499E-8     1.000       0.8306E-3     1.133   
   -9.160       0.1501E-8     1.000       0.8316E-3     1.133   
   -9.150       0.1504E-8     1.000       0.8327E-3     1.133   
   -9.140       0.1506E-8     1.000       0.8338E-3     1.133   
   -9.130       0.1509E-8     1.000       0.8348E-3     1.133   
   -9.120       0.1511E-8     1.000       0.8359E-3     1.133   
   -9.110       0.1514E-8     1.000       0.8370E-3     1.133   
   -9.100       0.1517E-8     1.000       0.8380E-3     1.133   
   -9.090       0.1519E-8     1.000       0.8391E-3     1.133   
   -9.080       0.1522E-8     1.000       0.8402E-3     1.133   
   -9.070       0.1524E-8     1.000       0.8413E-3     1.134   
   -9.060       0.1527E-8     1.000       0.8423E-3     1.134   
   -9.050       0.1530E-8     1.000       0.8434E-3     1.134   
   -9.040       0.1532E-8     1.000       0.8445E-3     1.134   
   -9.030       0.1535E-8     1.000       0.8456E-3     1.134   
   -9.020       0.1538E-8     1.000       0.8467E-3     1.134   
   -9.010       0.1540E-8     1.000       0.8478E-3     1.134   
   -9.000       0.1543E-8     1.000       0.8488E-3     1.134   
   -8.990       0.1546E-8     1.000       0.8499E-3     1.134   
   -8.980       0.1548E-8     1.000       0.8510E-3     1.134   
   -8.970       0.1551E-8     1.000       0.8521E-3     1.134   
   -8.960       0.1554E-8     1.000       0.8532E-3     1.134   
   -8.950       0.1556E-8     1.000       0.8543E-3     1.135   
   -8.940       0.1559E-8     1.000       0.8554E-3     1.135   
   -8.930       0.1562E-8     1.000       0.8565E-3     1.135   
   -8.920       0.1565E-8     1.000       0.8577E-3     1.135   
   -8.910       0.1567E-8     1.000       0.8588E-3     1.135   
   -8.900       0.1570E-8     1.000       0.8599E-3     1.135   
   -8.890       0.1573E-8     1.000       0.8610E-3     1.135   
   -8.880       0.1575E-8     1.000       0.8621E-3     1.135   
   -8.870       0.1578E-8     1.000       0.8632E-3     1.135   
   -8.860       0.1581E-8     1.000       0.8644E-3     1.135   
   -8.850       0.1584E-8     1.000       0.8655E-3     1.135   
   -8.840       0.1587E-8     1.000       0.8666E-3     1.136   
   -8.830       0.1589E-8     1.000       0.8677E-3     1.136   
   -8.820       0.1592E-8     1.000       0.8689E-3     1.136   
   -8.810       0.1595E-8     1.000       0.8700E-3     1.136   
   -8.800       0.1598E-8     1.000       0.8711E-3     1.136   
   -8.790       0.1601E-8     1.000       0.8723E-3     1.136   
   -8.780       0.1603E-8     1.000       0.8734E-3     1.136   
   -8.770       0.1606E-8     1.000       0.8745E-3     1.136   
   -8.760       0.1609E-8     1.000       0.8757E-3     1.136   
   -8.750       0.1612E-8     1.000       0.8768E-3     1.136   
   -8.740       0.1615E-8     1.000       0.8780E-3     1.136   
   -8.730       0.1618E-8     1.000       0.8791E-3     1.136   
   -8.720       0.1620E-8     1.000       0.8803E-3     1.137   
   -8.710       0.1623E-8     1.000       0.8814E-3     1.137   
   -8.700       0.1626E-8     1.000       0.8826E-3     1.137   
   -8.690       0.1629E-8     1.000       0.8838E-3     1.137   
   -8.680       0.1632E-8     1.000       0.8849E-3     1.137   
   -8.670       0.1635E-8     1.000       0.8861E-3     1.137   
   -8.660       0.1638E-8     1.000       0.8873E-3     1.137   
   -8.650       0.1641E-8     1.000       0.8884E-3     1.137   
   -8.640       0.1644E-8     1.000       0.8896E-3     1.137   
   -8.630       0.1647E-8     1.000       0.8908E-3     1.137   
   -8.620       0.1649E-8     1.000       0.8920E-3     1.137   
   -8.610       0.1652E-8     1.000       0.8931E-3     1.138   
   -8.600       0.1655E-8     1.000       0.8943E-3     1.138   
   -8.590       0.1658E-8     1.000       0.8955E-3     1.138   
   -8.580       0.1661E-8     1.000       0.8967E-3     1.138   
   -8.570       0.1664E-8     1.000       0.8979E-3     1.138   
   -8.560       0.1667E-8     1.000       0.8991E-3     1.138   
   -8.550       0.1670E-8     1.000       0.9003E-3     1.138   
   -8.540       0.1673E-8     1.000       0.9015E-3     1.138   
   -8.530       0.1676E-8     1.000       0.9027E-3     1.138   
   -8.520       0.1679E-8     1.000       0.9039E-3     1.138   
   -8.510       0.1682E-8     1.000       0.9051E-3     1.138   
   -8.500       0.1685E-8     1.000       0.9063E-3     1.139   
   -8.490       0.1688E-8     1.000       0.9075E-3     1.139   
   -8.480       0.1692E-8     1.000       0.9087E-3     1.139   
   -8.470       0.1695E-8     1.000       0.9099E-3     1.139   
   -8.460       0.1698E-8     1.000       0.9111E-3     1.139   
   -8.450       0.1701E-8     1.000       0.9123E-3     1.139   
   -8.440       0.1704E-8     1.000       0.9135E-3     1.139   
   -8.430       0.1707E-8     1.000       0.9148E-3     1.139   
   -8.420       0.1710E-8     1.000       0.9160E-3     1.139   
   -8.410       0.1713E-8     1.000       0.9172E-3     1.139   
   -8.400       0.1716E-8     1.000       0.9185E-3     1.139   
   -8.390       0.1719E-8     1.000       0.9197E-3     1.140   
   -8.380       0.1723E-8     1.000       0.9209E-3     1.140   
   -8.370       0.1726E-8     1.000       0.9222E-3     1.140   
   -8.360       0.1729E-8     1.000       0.9234E-3     1.140   
   -8.350       0.1732E-8     1.000       0.9246E-3     1.140   
   -8.340       0.1735E-8     1.000       0.9259E-3     1.140   
   -8.330       0.1738E-8     1.000       0.9271E-3     1.140   
   -8.320       0.1742E-8     1.000       0.9284E-3     1.140   
   -8.310       0.1745E-8     1.000       0.9296E-3     1.140   
   -8.300       0.1748E-8     1.000       0.9309E-3     1.140   
   -8.290       0.1751E-8     1.000       0.9322E-3     1.140   
   -8.280       0.1754E-8     1.000       0.9334E-3     1.141   
   -8.270       0.1758E-8     1.000       0.9347E-3     1.141   
   -8.260       0.1761E-8     1.000       0.9360E-3     1.141   
   -8.250       0.1764E-8     1.000       0.9372E-3     1.141   
   -8.240       0.1767E-8     1.000       0.9385E-3     1.141   
   -8.230       0.1771E-8     1.000       0.9398E-3     1.141   
   -8.220       0.1774E-8     1.000       0.9410E-3     1.141   
   -8.210       0.1777E-8     1.000       0.9423E-3     1.141   
   -8.200       0.1781E-8     1.000       0.9436E-3     1.141   
   -8.190       0.1784E-8     1.000       0.9449E-3     1.141   
   -8.180       0.1787E-8     1.000       0.9462E-3     1.142   
   -8.170       0.1791E-8     1.000       0.9475E-3     1.142   
   -8.160       0.1794E-8     1.000       0.9488E-3     1.142   
   -8.150       0.1797E-8     1.000       0.9501E-3     1.142   
   -8.140       0.1801E-8     1.000       0.9514E-3     1.142   
   -8.130       0.1804E-8     1.000       0.9527E-3     1.142   
   -8.120       0.1807E-8     1.000       0.9540E-3     1.142   
   -8.110       0.1811E-8     1.000       0.9553E-3     1.142   
   -8.100       0.1814E-8     1.000       0.9566E-3     1.142   
   -8.090       0.1818E-8     1.000       0.9579E-3     1.142   
   -8.080       0.1821E-8     1.000       0.9592E-3     1.142   
   -8.070       0.1824E-8     1.000       0.9605E-3     1.143   
   -8.060       0.1828E-8     1.000       0.9618E-3     1.143   
   -8.050       0.1831E-8     1.000       0.9632E-3     1.143   
   -8.040       0.1835E-8     1.000       0.9645E-3     1.143   
   -8.030       0.1838E-8     1.000       0.9658E-3     1.143   
   -8.020       0.1842E-8     1.000       0.9671E-3     1.143   
   -8.010       0.1845E-8     1.000       0.9685E-3     1.143   
   -8.000       0.1849E-8     1.000       0.9698E-3     1.143   
   -7.990       0.1852E-8     1.000       0.9712E-3     1.143   
   -7.980       0.1856E-8     1.000       0.9725E-3     1.143   
   -7.970       0.1859E-8     1.000       0.9738E-3     1.144   
   -7.960       0.1863E-8     1.000       0.9752E-3     1.144   
   -7.950       0.1866E-8     1.000       0.9765E-3     1.144   
   -7.940       0.1870E-8     1.000       0.9779E-3     1.144   
   -7.930       0.1873E-8     1.000       0.9793E-3     1.144   
   -7.920       0.1877E-8     1.000       0.9806E-3     1.144   
   -7.910       0.1880E-8     1.000       0.9820E-3     1.144   
   -7.900       0.1884E-8     1.000       0.9833E-3     1.144   
   -7.890       0.1888E-8     1.000       0.9847E-3     1.144   
   -7.880       0.1891E-8     1.000       0.9861E-3     1.144   
   -7.870       0.1895E-8     1.000       0.9875E-3     1.145   
   -7.860       0.1899E-8     1.000       0.9888E-3     1.145   
   -7.850       0.1902E-8     1.000       0.9902E-3     1.145   
   -7.840       0.1906E-8     1.000       0.9916E-3     1.145   
   -7.830       0.1909E-8     1.000       0.9930E-3     1.145   
   -7.820       0.1913E-8     1.000       0.9944E-3     1.145   
   -7.810       0.1917E-8     1.000       0.9958E-3     1.145   
   -7.800       0.1921E-8     1.000       0.9972E-3     1.145   
   -7.790       0.1924E-8     1.000       0.9986E-3     1.145   
   -7.780       0.1928E-8     1.000       0.1000E-2     1.145   
   -7.770       0.1932E-8     1.000       0.1001E-2     1.145   
   -7.760       0.1935E-8     1.000       0.1003E-2     1.146   
   -7.750       0.1939E-8     1.000       0.1004E-2     1.146   
   -7.740       0.1943E-8     1.000       0.1006E-2     1.146   
   -7.730       0.1947E-8     1.000       0.1007E-2     1.146   
   -7.720       0.1951E-8     1.000       0.1008E-2     1.146   
   -7.710       0.1954E-8     1.000       0.1010E-2     1.146   
   -7.700       0.1958E-8     1.000       0.1011E-2     1.146   
   -7.690       0.1962E-8     1.000       0.1013E-2     1.146   
   -7.680       0.1966E-8     1.000       0.1014E-2     1.146   
   -7.670       0.1970E-8     1.000       0.1016E-2     1.147   
   -7.660       0.1973E-8     1.000       0.1017E-2     1.147   
   -7.650       0.1977E-8     1.000       0.1018E-2     1.147   
   -7.640       0.1981E-8     1.000       0.1020E-2     1.147   
   -7.630       0.1985E-8     1.000       0.1021E-2     1.147   
   -7.620       0.1989E-8     1.000       0.1023E-2     1.147   
   -7.610       0.1993E-8     1.000       0.1024E-2     1.147   
   -7.600       0.1997E-8     1.000       0.1026E-2     1.147   
   -7.590       0.2001E-8     1.000       0.1027E-2     1.147   
   -7.580       0.2005E-8     1.000       0.1029E-2     1.147   
   -7.570       0.2009E-8     1.000       0.1030E-2     1.148   
   -7.560       0.2013E-8     1.000       0.1032E-2     1.148   
   -7.550       0.2017E-8     1.000       0.1033E-2     1.148   
   -7.540       0.2021E-8     1.000       0.1034E-2     1.148   
   -7.530       0.2025E-8     1.000       0.1036E-2     1.148   
   -7.520       0.2029E-8     1.000       0.1037E-2     1.148   
   -7.510       0.2033E-8     1.000       0.1039E-2     1.148   
   -7.500       0.2037E-8     1.000       0.1040E-2     1.148   
   -7.490       0.2041E-8     1.000       0.1042E-2     1.148   
   -7.480       0.2045E-8     1.000       0.1043E-2     1.148   
   -7.470       0.2049E-8     1.000       0.1045E-2     1.149   
   -7.460       0.2053E-8     1.000       0.1046E-2     1.149   
   -7.450       0.2057E-8     1.000       0.1048E-2     1.149   
   -7.440       0.2061E-8     1.000       0.1049E-2     1.149   
   -7.430       0.2065E-8     1.000       0.1051E-2     1.149   
   -7.420       0.2069E-8     1.000       0.1052E-2     1.149   
   -7.410       0.2074E-8     1.000       0.1054E-2     1.149   
   -7.400       0.2078E-8     1.000       0.1055E-2     1.149   
   -7.390       0.2082E-8     1.000       0.1057E-2     1.149   
   -7.380       0.2086E-8     1.000       0.1059E-2     1.150   
   -7.370       0.2090E-8     1.000       0.1060E-2     1.150   
   -7.360       0.2094E-8     1.000       0.1062E-2     1.150   
   -7.350       0.2099E-8     1.000       0.1063E-2     1.150   
   -7.340       0.2103E-8     1.000       0.1065E-2     1.150   
   -7.330       0.2107E-8     1.000       0.1066E-2     1.150   
   -7.320       0.2111E-8     1.000       0.1068E-2     1.150   
   -7.310       0.2116E-8     1.000       0.1069E-2     1.150   
   -7.300       0.2120E-8     1.000       0.1071E-2     1.150   
   -7.290       0.2124E-8     1.000       0.1072E-2     1.150   
   -7.280       0.2129E-8     1.000       0.1074E-2     1.151   
   -7.270       0.2133E-8     1.000       0.1076E-2     1.151   
   -7.260       0.2137E-8     1.000       0.1077E-2     1.151   
   -7.250       0.2142E-8     1.000       0.1079E-2     1.151   
   -7.240       0.2146E-8     1.000       0.1080E-2     1.151   
   -7.230       0.2150E-8     1.000       0.1082E-2     1.151   
   -7.220       0.2155E-8     1.000       0.1083E-2     1.151   
   -7.210       0.2159E-8     1.000       0.1085E-2     1.151   
   -7.200       0.2164E-8     1.000       0.1087E-2     1.151   
   -7.190       0.2168E-8     1.000       0.1088E-2     1.152   
   -7.180       0.2172E-8     1.000       0.1090E-2     1.152   
   -7.170       0.2177E-8     1.000       0.1091E-2     1.152   
   -7.160       0.2181E-8     1.000       0.1093E-2     1.152   
   -7.150       0.2186E-8     1.000       0.1095E-2     1.152   
   -7.140       0.2190E-8     1.000       0.1096E-2     1.152   
   -7.130       0.2195E-8     1.000       0.1098E-2     1.152   
   -7.120       0.2199E-8     1.000       0.1099E-2     1.152   
   -7.110       0.2204E-8     1.000       0.1101E-2     1.152   
   -7.100       0.2209E-8     1.000       0.1103E-2     1.153   
   -7.090       0.2213E-8     1.000       0.1104E-2     1.153   
   -7.080       0.2218E-8     1.000       0.1106E-2     1.153   
   -7.070       0.2222E-8     1.000       0.1108E-2     1.153   
   -7.060       0.2227E-8     1.000       0.1109E-2     1.153   
   -7.050       0.2232E-8     1.000       0.1111E-2     1.153   
   -7.040       0.2236E-8     1.000       0.1113E-2     1.153   
   -7.030       0.2241E-8     1.000       0.1114E-2     1.153   
   -7.020       0.2246E-8     1.000       0.1116E-2     1.153   
   -7.010       0.2250E-8     1.000       0.1118E-2     1.154   
   -7.000       0.2255E-8     1.000       0.1119E-2     1.154   
   -6.990       0.2260E-8     1.000       0.1121E-2     1.154   
   -6.980       0.2264E-8     1.000       0.1123E-2     1.154   
   -6.970       0.2269E-8     1.000       0.1124E-2     1.154   
   -6.960       0.2274E-8     1.000       0.1126E-2     1.154   
   -6.950       0.2279E-8     1.000       0.1128E-2     1.154   
   -6.940       0.2283E-8     1.000       0.1129E-2     1.154   
   -6.930       0.2288E-8     1.000       0.1131E-2     1.154   
   -6.920       0.2293E-8     1.000       0.1133E-2     1.155   
   -6.910       0.2298E-8     1.000       0.1134E-2     1.155   
   -6.900       0.2303E-8     1.000       0.1136E-2     1.155   
   -6.890       0.2308E-8     1.000       0.1138E-2     1.155   
   -6.880       0.2313E-8     1.000       0.1139E-2     1.155   
   -6.870       0.2317E-8     1.000       0.1141E-2     1.155   
   -6.860       0.2322E-8     1.000       0.1143E-2     1.155   
   -6.850       0.2327E-8     1.000       0.1145E-2     1.155   
   -6.840       0.2332E-8     1.000       0.1146E-2     1.155   
   -6.830       0.2337E-8     1.000       0.1148E-2     1.156   
   -6.820       0.2342E-8     1.000       0.1150E-2     1.156   
   -6.810       0.2347E-8     1.000       0.1152E-2     1.156   
   -6.800       0.2352E-8     1.000       0.1153E-2     1.156   
   -6.790       0.2357E-8     1.000       0.1155E-2     1.156   
   -6.780       0.2362E-8     1.000       0.1157E-2     1.156   
   -6.770       0.2367E-8     1.000       0.1159E-2     1.156   
   -6.760       0.2372E-8     1.000       0.1160E-2     1.156   
   -6.750       0.2377E-8     1.000       0.1162E-2     1.156   
   -6.740       0.2383E-8     1.000       0.1164E-2     1.157   
   -6.730       0.2388E-8     1.000       0.1166E-2     1.157   
   -6.720       0.2393E-8     1.000       0.1167E-2     1.157   
   -6.710       0.2398E-8     1.000       0.1169E-2     1.157   
   -6.700       0.2403E-8     1.000       0.1171E-2     1.157   
   -6.690       0.2408E-8     1.000       0.1173E-2     1.157   
   -6.680       0.2414E-8     1.000       0.1174E-2     1.157   
   -6.670       0.2419E-8     1.000       0.1176E-2     1.157   
   -6.660       0.2424E-8     1.000       0.1178E-2     1.158   
   -6.650       0.2429E-8     1.000       0.1180E-2     1.158   
   -6.640       0.2435E-8     1.000       0.1182E-2     1.158   
   -6.630       0.2440E-8     1.000       0.1184E-2     1.158   
   -6.620       0.2445E-8     1.000       0.1185E-2     1.158   
   -6.610       0.2451E-8     1.000       0.1187E-2     1.158   
   -6.600       0.2456E-8     1.000       0.1189E-2     1.158   
   -6.590       0.2461E-8     1.000       0.1191E-2     1.158   
   -6.580       0.2467E-8     1.000       0.1193E-2     1.158   
   -6.570       0.2472E-8     1.000       0.1194E-2     1.159   
   -6.560       0.2477E-8     1.000       0.1196E-2     1.159   
   -6.550       0.2483E-8     1.000       0.1198E-2     1.159   
   -6.540       0.2488E-8     1.000       0.1200E-2     1.159   
   -6.530       0.2494E-8     1.000       0.1202E-2     1.159   
   -6.520       0.2499E-8     1.000       0.1204E-2     1.159   
   -6.510       0.2505E-8     1.000       0.1206E-2     1.159   
   -6.500       0.2510E-8     1.000       0.1207E-2     1.159   
   -6.490       0.2516E-8     1.000       0.1209E-2     1.160   
   -6.480       0.2521E-8     1.000       0.1211E-2     1.160   
   -6.470       0.2527E-8     1.000       0.1213E-2     1.160   
   -6.460       0.2533E-8     1.000       0.1215E-2     1.160   
   -6.450       0.2538E-8     1.000       0.1217E-2     1.160   
   -6.440       0.2544E-8     1.000       0.1219E-2     1.160   
   -6.430       0.2549E-8     1.000       0.1221E-2     1.160   
   -6.420       0.2555E-8     1.000       0.1223E-2     1.160   
   -6.410       0.2561E-8     1.000       0.1224E-2     1.161   
   -6.400       0.2567E-8     1.000       0.1226E-2     1.161   
   -6.390       0.2572E-8     1.000       0.1228E-2     1.161   
   -6.380       0.2578E-8     1.000       0.1230E-2     1.161   
   -6.370       0.2584E-8     1.000       0.1232E-2     1.161   
   -6.360       0.2590E-8     1.000       0.1234E-2     1.161   
   -6.350       0.2595E-8     1.000       0.1236E-2     1.161   
   -6.340       0.2601E-8     1.000       0.1238E-2     1.161   
   -6.330       0.2607E-8     1.000       0.1240E-2     1.162   
   -6.320       0.2613E-8     1.000       0.1242E-2     1.162   
   -6.310       0.2619E-8     1.000       0.1244E-2     1.162   
   -6.300       0.2625E-8     1.000       0.1246E-2     1.162   
   -6.290       0.2631E-8     1.000       0.1248E-2     1.162   
   -6.280       0.2637E-8     1.000       0.1250E-2     1.162   
   -6.270       0.2643E-8     1.000       0.1252E-2     1.162   
   -6.260       0.2649E-8     1.000       0.1254E-2     1.162   
   -6.250       0.2655E-8     1.000       0.1256E-2     1.163   
   -6.240       0.2661E-8     1.000       0.1258E-2     1.163   
   -6.230       0.2667E-8     1.000       0.1260E-2     1.163   
   -6.220       0.2673E-8     1.000       0.1262E-2     1.163   
   -6.210       0.2679E-8     1.000       0.1264E-2     1.163   
   -6.200       0.2685E-8     1.000       0.1266E-2     1.163   
   -6.190       0.2691E-8     1.000       0.1268E-2     1.163   
   -6.180       0.2697E-8     1.000       0.1270E-2     1.163   
   -6.170       0.2703E-8     1.000       0.1272E-2     1.164   
   -6.160       0.2710E-8     1.000       0.1274E-2     1.164   
   -6.150       0.2716E-8     1.000       0.1276E-2     1.164   
   -6.140       0.2722E-8     1.000       0.1278E-2     1.164   
   -6.130       0.2728E-8     1.000       0.1280E-2     1.164   
   -6.120       0.2735E-8     1.000       0.1282E-2     1.164   
   -6.110       0.2741E-8     1.000       0.1284E-2     1.164   
   -6.100       0.2747E-8     1.000       0.1286E-2     1.164   
   -6.090       0.2754E-8     1.000       0.1288E-2     1.165   
   -6.080       0.2760E-8     1.000       0.1290E-2     1.165   
   -6.070       0.2766E-8     1.000       0.1292E-2     1.165   
   -6.060       0.2773E-8     1.000       0.1294E-2     1.165   
   -6.050       0.2779E-8     1.000       0.1296E-2     1.165   
   -6.040       0.2786E-8     1.000       0.1298E-2     1.165   
   -6.030       0.2792E-8     1.000       0.1300E-2     1.165   
   -6.020       0.2799E-8     1.000       0.1303E-2     1.165   
   -6.010       0.2805E-8     1.000       0.1305E-2     1.166   
   -6.000       0.2812E-8     1.000       0.1307E-2     1.166   
   -5.990       0.2818E-8     1.000       0.1309E-2     1.166   
   -5.980       0.2825E-8     1.000       0.1311E-2     1.166   
   -5.970       0.2831E-8     1.000       0.1313E-2     1.166   
   -5.960       0.2838E-8     1.000       0.1315E-2     1.166   
   -5.950       0.2845E-8     1.000       0.1317E-2     1.166   
   -5.940       0.2851E-8     1.000       0.1320E-2     1.167   
   -5.930       0.2858E-8     1.000       0.1322E-2     1.167   
   -5.920       0.2865E-8     1.000       0.1324E-2     1.167   
   -5.910       0.2872E-8     1.000       0.1326E-2     1.167   
   -5.900       0.2878E-8     1.000       0.1328E-2     1.167   
   -5.890       0.2885E-8     1.000       0.1330E-2     1.167   
   -5.880       0.2892E-8     1.000       0.1333E-2     1.167   
   -5.870       0.2899E-8     1.000       0.1335E-2     1.167   
   -5.860       0.2906E-8     1.000       0.1337E-2     1.168   
   -5.850       0.2913E-8     1.000       0.1339E-2     1.168   
   -5.840       0.2920E-8     1.000       0.1341E-2     1.168   
   -5.830       0.2927E-8     1.000       0.1343E-2     1.168   
   -5.820       0.2934E-8     1.000       0.1346E-2     1.168   
   -5.810       0.2941E-8     1.000       0.1348E-2     1.168   
   -5.800       0.2948E-8     1.000       0.1350E-2     1.168   
   -5.790       0.2955E-8     1.000       0.1352E-2     1.169   
   -5.780       0.2962E-8     1.000       0.1355E-2     1.169   
   -5.770       0.2969E-8     1.000       0.1357E-2     1.169   
   -5.760       0.2976E-8     1.000       0.1359E-2     1.169   
   -5.750       0.2983E-8     1.000       0.1361E-2     1.169   
   -5.740       0.2990E-8     1.000       0.1363E-2     1.169   
   -5.730       0.2997E-8     1.000       0.1366E-2     1.169   
   -5.720       0.3005E-8     1.000       0.1368E-2     1.169   
   -5.710       0.3012E-8     1.000       0.1370E-2     1.170   
   -5.700       0.3019E-8     1.000       0.1373E-2     1.170   
   -5.690       0.3027E-8     1.000       0.1375E-2     1.170   
   -5.680       0.3034E-8     1.000       0.1377E-2     1.170   
   -5.670       0.3041E-8     1.000       0.1379E-2     1.170   
   -5.660       0.3049E-8     1.000       0.1382E-2     1.170   
   -5.650       0.3056E-8     1.000       0.1384E-2     1.170   
   -5.640       0.3063E-8     1.000       0.1386E-2     1.171   
   -5.630       0.3071E-8     1.000       0.1389E-2     1.171   
   -5.620       0.3078E-8     1.000       0.1391E-2     1.171   
   -5.610       0.3086E-8     1.000       0.1393E-2     1.171   
   -5.600       0.3094E-8     1.000       0.1396E-2     1.171   
   -5.590       0.3101E-8     1.000       0.1398E-2     1.171   
   -5.580       0.3109E-8     1.000       0.1400E-2     1.171   
   -5.570       0.3116E-8     1.000       0.1403E-2     1.172   
   -5.560       0.3124E-8     1.000       0.1405E-2     1.172   
   -5.550       0.3132E-8     1.000       0.1407E-2     1.172   
   -5.540       0.3139E-8     1.000       0.1410E-2     1.172   
   -5.530       0.3147E-8     1.000       0.1412E-2     1.172   
   -5.520       0.3155E-8     1.000       0.1414E-2     1.172   
   -5.510       0.3163E-8     1.000       0.1417E-2     1.172   
   -5.500       0.3171E-8     1.000       0.1419E-2     1.173   
   -5.490       0.3179E-8     1.000       0.1422E-2     1.173   
   -5.480       0.3186E-8     1.000       0.1424E-2     1.173   
   -5.470       0.3194E-8     1.000       0.1426E-2     1.173   
   -5.460       0.3202E-8     1.000       0.1429E-2     1.173   
   -5.450       0.3210E-8     1.000       0.1431E-2     1.173   
   -5.440       0.3218E-8     1.000       0.1434E-2     1.173   
   -5.430       0.3226E-8     1.000       0.1436E-2     1.174   
   -5.420       0.3234E-8     1.000       0.1439E-2     1.174   
   -5.410       0.3243E-8     1.000       0.1441E-2     1.174   
   -5.400       0.3251E-8     1.000       0.1444E-2     1.174   
   -5.390       0.3259E-8     1.000       0.1446E-2     1.174   
   -5.380       0.3267E-8     1.000       0.1448E-2     1.174   
   -5.370       0.3275E-8     1.000       0.1451E-2     1.174   
   -5.360       0.3284E-8     1.000       0.1453E-2     1.175   
   -5.350       0.3292E-8     1.000       0.1456E-2     1.175   
   -5.340       0.3300E-8     1.000       0.1458E-2     1.175   
   -5.330       0.3309E-8     1.000       0.1461E-2     1.175   
   -5.320       0.3317E-8     1.000       0.1463E-2     1.175   
   -5.310       0.3325E-8     1.000       0.1466E-2     1.175   
   -5.300       0.3334E-8     1.000       0.1468E-2     1.175   
   -5.290       0.3342E-8     1.000       0.1471E-2     1.176   
   -5.280       0.3351E-8     1.000       0.1473E-2     1.176   
   -5.270       0.3359E-8     1.000       0.1476E-2     1.176   
   -5.260       0.3368E-8     1.000       0.1479E-2     1.176   
   -5.250       0.3377E-8     1.000       0.1481E-2     1.176   
   -5.240       0.3385E-8     1.000       0.1484E-2     1.176   
   -5.230       0.3394E-8     1.000       0.1486E-2     1.176   
   -5.220       0.3403E-8     1.000       0.1489E-2     1.177   
   -5.210       0.3411E-8     1.000       0.1491E-2     1.177   
   -5.200       0.3420E-8     1.000       0.1494E-2     1.177   
   -5.190       0.3429E-8     1.000       0.1497E-2     1.177   
   -5.180       0.3438E-8     1.000       0.1499E-2     1.177   
   -5.170       0.3447E-8     1.000       0.1502E-2     1.177   
   -5.160       0.3456E-8     1.000       0.1504E-2     1.178   
   -5.150       0.3465E-8     1.000       0.1507E-2     1.178   
   -5.140       0.3474E-8     1.000       0.1510E-2     1.178   
   -5.130       0.3483E-8     1.000       0.1512E-2     1.178   
   -5.120       0.3492E-8     1.000       0.1515E-2     1.178   
   -5.110       0.3501E-8     1.000       0.1518E-2     1.178   
   -5.100       0.3510E-8     1.000       0.1520E-2     1.178   
   -5.090       0.3519E-8     1.000       0.1523E-2     1.179   
   -5.080       0.3528E-8     1.000       0.1526E-2     1.179   
   -5.070       0.3537E-8     1.000       0.1528E-2     1.179   
   -5.060       0.3547E-8     1.000       0.1531E-2     1.179   
   -5.050       0.3556E-8     1.000       0.1534E-2     1.179   
   -5.040       0.3565E-8     1.000       0.1536E-2     1.179   
   -5.030       0.3575E-8     1.000       0.1539E-2     1.179   
   -5.020       0.3584E-8     1.000       0.1542E-2     1.180   
   -5.010       0.3594E-8     1.000       0.1545E-2     1.180   
   -5.000       0.3603E-8     1.000       0.1547E-2     1.180   
   -4.990       0.3613E-8     1.000       0.1550E-2     1.180   
   -4.980       0.3622E-8     1.000       0.1553E-2     1.180   
   -4.970       0.3632E-8     1.000       0.1555E-2     1.180   
   -4.960       0.3641E-8     1.000       0.1558E-2     1.181   
   -4.950       0.3651E-8     1.000       0.1561E-2     1.181   
   -4.940       0.3661E-8     1.000       0.1564E-2     1.181   
   -4.930       0.3671E-8     1.000       0.1567E-2     1.181   
   -4.920       0.3680E-8     1.000       0.1569E-2     1.181   
   -4.910       0.3690E-8     1.000       0.1572E-2     1.181   
   -4.900       0.3700E-8     1.000       0.1575E-2     1.182   
   -4.890       0.3710E-8     1.000       0.1578E-2     1.182   
   -4.880       0.3720E-8     1.000       0.1581E-2     1.182   
   -4.870       0.3730E-8     1.000       0.1583E-2     1.182   
   -4.860       0.3740E-8     1.000       0.1586E-2     1.182   
   -4.850       0.3750E-8     1.000       0.1589E-2     1.182   
   -4.840       0.3760E-8     1.000       0.1592E-2     1.182   
   -4.830       0.3771E-8     1.000       0.1595E-2     1.183   
   -4.820       0.3781E-8     1.000       0.1598E-2     1.183   
   -4.810       0.3791E-8     1.000       0.1601E-2     1.183   
   -4.800       0.3801E-8     1.000       0.1603E-2     1.183   
   -4.790       0.3812E-8     1.000       0.1606E-2     1.183   
   -4.780       0.3822E-8     1.000       0.1609E-2     1.183   
   -4.770       0.3832E-8     1.000       0.1612E-2     1.184   
   -4.760       0.3843E-8     1.000       0.1615E-2     1.184   
   -4.750       0.3853E-8     1.000       0.1618E-2     1.184   
   -4.740       0.3864E-8     1.000       0.1621E-2     1.184   
   -4.730       0.3874E-8     1.000       0.1624E-2     1.184   
   -4.720       0.3885E-8     1.000       0.1627E-2     1.184   
   -4.710       0.3896E-8     1.000       0.1630E-2     1.185   
   -4.700       0.3906E-8     1.000       0.1633E-2     1.185   
   -4.690       0.3917E-8     1.000       0.1636E-2     1.185   
   -4.680       0.3928E-8     1.000       0.1639E-2     1.185   
   -4.670       0.3939E-8     1.000       0.1642E-2     1.185   
   -4.660       0.3950E-8     1.000       0.1645E-2     1.185   
   -4.650       0.3961E-8     1.000       0.1648E-2     1.186   
   -4.640       0.3972E-8     1.000       0.1651E-2     1.186   
   -4.630       0.3983E-8     1.000       0.1654E-2     1.186   
   -4.620       0.3994E-8     1.000       0.1657E-2     1.186   
   -4.610       0.4005E-8     1.000       0.1660E-2     1.186   
   -4.600       0.4016E-8     1.000       0.1663E-2     1.186   
   -4.590       0.4027E-8     1.000       0.1666E-2     1.187   
   -4.580       0.4039E-8     1.000       0.1669E-2     1.187   
   -4.570       0.4050E-8     1.000       0.1672E-2     1.187   
   -4.560       0.4061E-8     1.000       0.1675E-2     1.187   
   -4.550       0.4073E-8     1.000       0.1678E-2     1.187   
   -4.540       0.4084E-8     1.000       0.1681E-2     1.187   
   -4.530       0.4096E-8     1.000       0.1684E-2     1.188   
   -4.520       0.4107E-8     1.000       0.1688E-2     1.188   
   -4.510       0.4119E-8     1.000       0.1691E-2     1.188   
   -4.500       0.4131E-8     1.000       0.1694E-2     1.188   
   -4.490       0.4142E-8     1.000       0.1697E-2     1.188   
   -4.480       0.4154E-8     1.000       0.1700E-2     1.188   
   -4.470       0.4166E-8     1.000       0.1703E-2     1.189   
   -4.460       0.4178E-8     1.000       0.1706E-2     1.189   
   -4.450       0.4190E-8     1.000       0.1710E-2     1.189   
   -4.440       0.4202E-8     1.000       0.1713E-2     1.189   
   -4.430       0.4214E-8     1.000       0.1716E-2     1.189   
   -4.420       0.4226E-8     1.000       0.1719E-2     1.189   
   -4.410       0.4238E-8     1.000       0.1722E-2     1.190   
   -4.400       0.4250E-8     1.000       0.1726E-2     1.190   
   -4.390       0.4262E-8     1.000       0.1729E-2     1.190   
   -4.380       0.4274E-8     1.000       0.1732E-2     1.190   
   -4.370       0.4287E-8     1.000       0.1735E-2     1.190   
   -4.360       0.4299E-8     1.000       0.1739E-2     1.190   
   -4.350       0.4311E-8     1.000       0.1742E-2     1.191   
   -4.340       0.4324E-8     1.000       0.1745E-2     1.191   
   -4.330       0.4336E-8     1.000       0.1749E-2     1.191   
   -4.320       0.4349E-8     1.000       0.1752E-2     1.191   
   -4.310       0.4362E-8     1.000       0.1755E-2     1.191   
   -4.300       0.4374E-8     1.000       0.1759E-2     1.191   
   -4.290       0.4387E-8     1.000       0.1762E-2     1.192   
   -4.280       0.4400E-8     1.000       0.1765E-2     1.192   
   -4.270       0.4413E-8     1.000       0.1769E-2     1.192   
   -4.260       0.4426E-8     1.000       0.1772E-2     1.192   
   -4.250       0.4439E-8     1.000       0.1775E-2     1.192   
   -4.240       0.4452E-8     1.000       0.1779E-2     1.193   
   -4.230       0.4465E-8     1.000       0.1782E-2     1.193   
   -4.220       0.4478E-8     1.000       0.1785E-2     1.193   
   -4.210       0.4491E-8     1.000       0.1789E-2     1.193   
   -4.200       0.4505E-8     1.000       0.1792E-2     1.193   
   -4.190       0.4518E-8     1.000       0.1796E-2     1.193   
   -4.180       0.4531E-8     1.000       0.1799E-2     1.194   
   -4.170       0.4545E-8     1.000       0.1803E-2     1.194   
   -4.160       0.4558E-8     1.000       0.1806E-2     1.194   
   -4.150       0.4572E-8     1.000       0.1810E-2     1.194   
   -4.140       0.4585E-8     1.000       0.1813E-2     1.194   
   -4.130       0.4599E-8     1.000       0.1817E-2     1.195   
   -4.120       0.4613E-8     1.000       0.1820E-2     1.195   
   -4.110       0.4627E-8     1.000       0.1824E-2     1.195   
   -4.100       0.4641E-8     1.000       0.1827E-2     1.195   
   -4.090       0.4654E-8     1.000       0.1831E-2     1.195   
   -4.080       0.4668E-8     1.000       0.1834E-2     1.195   
   -4.070       0.4683E-8     1.000       0.1838E-2     1.196   
   -4.060       0.4697E-8     1.000       0.1841E-2     1.196   
   -4.050       0.4711E-8     1.000       0.1845E-2     1.196   
   -4.040       0.4725E-8     1.000       0.1848E-2     1.196   
   -4.030       0.4739E-8     1.000       0.1852E-2     1.196   
   -4.020       0.4754E-8     1.000       0.1856E-2     1.197   
   -4.010       0.4768E-8     1.000       0.1859E-2     1.197   
   -4.000       0.4783E-8     1.000       0.1863E-2     1.197   
   -3.990       0.4797E-8     1.000       0.1867E-2     1.197   
   -3.980       0.4812E-8     1.000       0.1870E-2     1.197   
   -3.970       0.4827E-8     1.000       0.1874E-2     1.197   
   -3.960       0.4842E-8     1.000       0.1878E-2     1.198   
   -3.950       0.4856E-8     1.000       0.1881E-2     1.198   
   -3.940       0.4871E-8     1.000       0.1885E-2     1.198   
   -3.930       0.4886E-8     1.000       0.1889E-2     1.198   
   -3.920       0.4901E-8     1.000       0.1892E-2     1.198   
   -3.910       0.4917E-8     1.000       0.1896E-2     1.199   
   -3.900       0.4932E-8     1.000       0.1900E-2     1.199   
   -3.890       0.4947E-8     1.000       0.1904E-2     1.199   
   -3.880       0.4962E-8     1.000       0.1907E-2     1.199   
   -3.870       0.4978E-8     1.000       0.1911E-2     1.199   
   -3.860       0.4993E-8     1.000       0.1915E-2     1.200   
   -3.850       0.5009E-8     1.000       0.1919E-2     1.200   
   -3.840       0.5024E-8     1.000       0.1923E-2     1.200   
   -3.830       0.5040E-8     1.000       0.1926E-2     1.200   
   -3.820       0.5056E-8     1.000       0.1930E-2     1.200   
   -3.810       0.5072E-8     1.000       0.1934E-2     1.201   
   -3.800       0.5088E-8     1.000       0.1938E-2     1.201   
   -3.790       0.5104E-8     1.000       0.1942E-2     1.201   
   -3.780       0.5120E-8     1.000       0.1946E-2     1.201   
   -3.770       0.5136E-8     1.000       0.1950E-2     1.201   
   -3.760       0.5152E-8     1.000       0.1953E-2     1.202   
   -3.750       0.5168E-8     1.000       0.1957E-2     1.202   
   -3.740       0.5185E-8     1.000       0.1961E-2     1.202   
   -3.730       0.5201E-8     1.000       0.1965E-2     1.202   
   -3.720       0.5218E-8     1.000       0.1969E-2     1.202   
   -3.710       0.5234E-8     1.000       0.1973E-2     1.202   
   -3.700       0.5251E-8     1.000       0.1977E-2     1.203   
   -3.690       0.5268E-8     1.000       0.1981E-2     1.203   
   -3.680       0.5285E-8     1.000       0.1985E-2     1.203   
   -3.670       0.5302E-8     1.000       0.1989E-2     1.203   
   -3.660       0.5319E-8     1.000       0.1993E-2     1.203   
   -3.650       0.5336E-8     1.000       0.1997E-2     1.204   
   -3.640       0.5353E-8     1.000       0.2001E-2     1.204   
   -3.630       0.5370E-8     1.000       0.2005E-2     1.204   
   -3.620       0.5388E-8     1.000       0.2009E-2     1.204   
   -3.610       0.5405E-8     1.000       0.2014E-2     1.204   
   -3.600       0.5423E-8     1.000       0.2018E-2     1.205   
   -3.590       0.5440E-8     1.000       0.2022E-2     1.205   
   -3.580       0.5458E-8     1.000       0.2026E-2     1.205   
   -3.570       0.5476E-8     1.000       0.2030E-2     1.205   
   -3.560       0.5494E-8     1.000       0.2034E-2     1.205   
   -3.550       0.5512E-8     1.000       0.2038E-2     1.206   
   -3.540       0.5530E-8     1.000       0.2043E-2     1.206   
   -3.530       0.5548E-8     1.000       0.2047E-2     1.206   
   -3.520       0.5566E-8     1.000       0.2051E-2     1.206   
   -3.510       0.5584E-8     1.000       0.2055E-2     1.207   
   -3.500       0.5603E-8     1.000       0.2059E-2     1.207   
   -3.490       0.5621E-8     1.000       0.2064E-2     1.207   
   -3.480       0.5640E-8     1.000       0.2068E-2     1.207   
   -3.470       0.5659E-8     1.000       0.2072E-2     1.207   
   -3.460       0.5677E-8     1.000       0.2077E-2     1.208   
   -3.450       0.5696E-8     1.000       0.2081E-2     1.208   
   -3.440       0.5715E-8     1.000       0.2085E-2     1.208   
   -3.430       0.5734E-8     1.000       0.2089E-2     1.208   
   -3.420       0.5753E-8     1.000       0.2094E-2     1.208   
   -3.410       0.5773E-8     1.000       0.2098E-2     1.209   
   -3.400       0.5792E-8     1.000       0.2103E-2     1.209   
   -3.390       0.5811E-8     1.000       0.2107E-2     1.209   
   -3.380       0.5831E-8     1.000       0.2111E-2     1.209   
   -3.370       0.5851E-8     1.000       0.2116E-2     1.209   
   -3.360       0.5870E-8     1.000       0.2120E-2     1.210   
   -3.350       0.5890E-8     1.000       0.2125E-2     1.210   
   -3.340       0.5910E-8     1.000       0.2129E-2     1.210   
   -3.330       0.5930E-8     1.000       0.2134E-2     1.210   
   -3.320       0.5950E-8     1.000       0.2138E-2     1.210   
   -3.310       0.5970E-8     1.000       0.2143E-2     1.211   
   -3.300       0.5991E-8     1.000       0.2147E-2     1.211   
   -3.290       0.6011E-8     1.000       0.2152E-2     1.211   
   -3.280       0.6032E-8     1.000       0.2156E-2     1.211   
   -3.270       0.6053E-8     1.000       0.2161E-2     1.212   
   -3.260       0.6073E-8     1.000       0.2165E-2     1.212   
   -3.250       0.6094E-8     1.000       0.2170E-2     1.212   
   -3.240       0.6115E-8     1.000       0.2175E-2     1.212   
   -3.230       0.6136E-8     1.000       0.2179E-2     1.212   
   -3.220       0.6157E-8     1.000       0.2184E-2     1.213   
   -3.210       0.6179E-8     1.000       0.2188E-2     1.213   
   -3.200       0.6200E-8     1.000       0.2193E-2     1.213   
   -3.190       0.6222E-8     1.000       0.2198E-2     1.213   
   -3.180       0.6243E-8     1.000       0.2203E-2     1.214   
   -3.170       0.6265E-8     1.000       0.2207E-2     1.214   
   -3.160       0.6287E-8     1.000       0.2212E-2     1.214   
   -3.150       0.6309E-8     1.000       0.2217E-2     1.214   
   -3.140       0.6331E-8     1.000       0.2221E-2     1.214   
   -3.130       0.6353E-8     1.000       0.2226E-2     1.215   
   -3.120       0.6376E-8     1.000       0.2231E-2     1.215   
   -3.110       0.6398E-8     1.000       0.2236E-2     1.215   
   -3.100       0.6421E-8     1.000       0.2241E-2     1.215   
   -3.090       0.6443E-8     1.000       0.2246E-2     1.216   
   -3.080       0.6466E-8     1.000       0.2250E-2     1.216   
   -3.070       0.6489E-8     1.000       0.2255E-2     1.216   
   -3.060       0.6512E-8     1.000       0.2260E-2     1.216   
   -3.050       0.6535E-8     1.000       0.2265E-2     1.216   
   -3.040       0.6559E-8     1.000       0.2270E-2     1.217   
   -3.030       0.6582E-8     1.000       0.2275E-2     1.217   
   -3.020       0.6606E-8     1.000       0.2280E-2     1.217   
   -3.010       0.6629E-8     1.000       0.2285E-2     1.217   
   -3.000       0.6653E-8     1.000       0.2290E-2     1.218   
   -2.990       0.6677E-8     1.000       0.2295E-2     1.218   
   -2.980       0.6701E-8     1.000       0.2300E-2     1.218   
   -2.970       0.6725E-8     1.000       0.2305E-2     1.218   
   -2.960       0.6750E-8     1.000       0.2310E-2     1.218   
   -2.950       0.6774E-8     1.000       0.2315E-2     1.219   
   -2.940       0.6799E-8     1.000       0.2320E-2     1.219   
   -2.930       0.6824E-8     1.000       0.2325E-2     1.219   
   -2.920       0.6848E-8     1.000       0.2330E-2     1.219   
   -2.910       0.6873E-8     1.000       0.2336E-2     1.220   
   -2.900       0.6899E-8     1.000       0.2341E-2     1.220   
   -2.890       0.6924E-8     1.000       0.2346E-2     1.220   
   -2.880       0.6949E-8     1.000       0.2351E-2     1.220   
   -2.870       0.6975E-8     1.000       0.2356E-2     1.221   
   -2.860       0.7000E-8     1.000       0.2362E-2     1.221   
   -2.850       0.7026E-8     1.000       0.2367E-2     1.221   
   -2.840       0.7052E-8     1.000       0.2372E-2     1.221   
   -2.830       0.7078E-8     1.000       0.2377E-2     1.222   
   -2.820       0.7105E-8     1.000       0.2383E-2     1.222   
   -2.810       0.7131E-8     1.000       0.2388E-2     1.222   
   -2.800       0.7158E-8     1.000       0.2393E-2     1.222   
   -2.790       0.7184E-8     1.000       0.2399E-2     1.222   
   -2.780       0.7211E-8     1.000       0.2404E-2     1.223   
   -2.770       0.7238E-8     1.000       0.2409E-2     1.223   
   -2.760       0.7265E-8     1.000       0.2415E-2     1.223   
   -2.750       0.7293E-8     1.000       0.2420E-2     1.223   
   -2.740       0.7320E-8     1.000       0.2426E-2     1.224   
   -2.730       0.7348E-8     1.000       0.2431E-2     1.224   
   -2.720       0.7376E-8     1.000       0.2437E-2     1.224   
   -2.710       0.7404E-8     1.000       0.2442E-2     1.224   
   -2.700       0.7432E-8     1.000       0.2448E-2     1.225   
   -2.690       0.7460E-8     1.000       0.2453E-2     1.225   
   -2.680       0.7488E-8     1.000       0.2459E-2     1.225   
   -2.670       0.7517E-8     1.000       0.2465E-2     1.225   
   -2.660       0.7546E-8     1.000       0.2470E-2     1.226   
   -2.650       0.7575E-8     1.000       0.2476E-2     1.226   
   -2.640       0.7604E-8     1.000       0.2481E-2     1.226   
   -2.630       0.7633E-8     1.000       0.2487E-2     1.226   
   -2.620       0.7663E-8     1.000       0.2493E-2     1.227   
   -2.610       0.7692E-8     1.000       0.2499E-2     1.227   
   -2.600       0.7722E-8     1.000       0.2504E-2     1.227   
   -2.590       0.7752E-8     1.000       0.2510E-2     1.227   
   -2.580       0.7782E-8     1.000       0.2516E-2     1.228   
   -2.570       0.7812E-8     1.000       0.2522E-2     1.228   
   -2.560       0.7843E-8     1.000       0.2527E-2     1.228   
   -2.550       0.7873E-8     1.000       0.2533E-2     1.228   
   -2.540       0.7904E-8     1.000       0.2539E-2     1.229   
   -2.530       0.7935E-8     1.000       0.2545E-2     1.229   
   -2.520       0.7966E-8     1.000       0.2551E-2     1.229   
   -2.510       0.7998E-8     1.000       0.2557E-2     1.229   
   -2.500       0.8029E-8     1.000       0.2563E-2     1.230   
   -2.490       0.8061E-8     1.000       0.2569E-2     1.230   
   -2.480       0.8093E-8     1.000       0.2575E-2     1.230   
   -2.470       0.8125E-8     1.000       0.2581E-2     1.230   
   -2.460       0.8157E-8     1.000       0.2587E-2     1.231   
   -2.450       0.8190E-8     1.000       0.2593E-2     1.231   
   -2.440       0.8223E-8     1.000       0.2599E-2     1.231   
   -2.430       0.8256E-8     1.000       0.2605E-2     1.231   
   -2.420       0.8289E-8     1.000       0.2611E-2     1.232   
   -2.410       0.8322E-8     1.000       0.2617E-2     1.232   
   -2.400       0.8355E-8     1.000       0.2623E-2     1.232   
   -2.390       0.8389E-8     1.000       0.2629E-2     1.233   
   -2.380       0.8423E-8     1.000       0.2636E-2     1.233   
   -2.370       0.8457E-8     1.000       0.2642E-2     1.233   
   -2.360       0.8492E-8     1.000       0.2648E-2     1.233   
   -2.350       0.8526E-8     1.000       0.2654E-2     1.234   
   -2.340       0.8561E-8     1.000       0.2661E-2     1.234   
   -2.330       0.8596E-8     1.000       0.2667E-2     1.234   
   -2.320       0.8631E-8     1.000       0.2673E-2     1.234   
   -2.310       0.8666E-8     1.000       0.2680E-2     1.235   
   -2.300       0.8702E-8     1.000       0.2686E-2     1.235   
   -2.290       0.8738E-8     1.000       0.2693E-2     1.235   
   -2.280       0.8774E-8     1.000       0.2699E-2     1.235   
   -2.270       0.8810E-8     1.000       0.2705E-2     1.236   
   -2.260       0.8847E-8     1.000       0.2712E-2     1.236   
   -2.250       0.8883E-8     1.000       0.2718E-2     1.236   
   -2.240       0.8920E-8     1.000       0.2725E-2     1.237   
   -2.230       0.8957E-8     1.000       0.2732E-2     1.237   
   -2.220       0.8995E-8     1.000       0.2738E-2     1.237   
   -2.210       0.9033E-8     1.000       0.2745E-2     1.237   
   -2.200       0.9070E-8     1.000       0.2751E-2     1.238   
   -2.190       0.9109E-8     1.000       0.2758E-2     1.238   
   -2.180       0.9147E-8     1.000       0.2765E-2     1.238   
   -2.170       0.9186E-8     1.000       0.2771E-2     1.238   
   -2.160       0.9224E-8     1.000       0.2778E-2     1.239   
   -2.150       0.9263E-8     1.000       0.2785E-2     1.239   
   -2.140       0.9303E-8     1.000       0.2792E-2     1.239   
   -2.130       0.9342E-8     1.000       0.2798E-2     1.240   
   -2.120       0.9382E-8     1.000       0.2805E-2     1.240   
   -2.110       0.9422E-8     1.000       0.2812E-2     1.240   
   -2.100       0.9463E-8     1.000       0.2819E-2     1.240   
   -2.090       0.9503E-8     1.000       0.2826E-2     1.241   
   -2.080       0.9544E-8     1.000       0.2833E-2     1.241   
   -2.070       0.9585E-8     1.000       0.2840E-2     1.241   
   -2.060       0.9627E-8     1.000       0.2847E-2     1.242   
   -2.050       0.9669E-8     1.000       0.2854E-2     1.242   
   -2.040       0.9711E-8     1.000       0.2861E-2     1.242   
   -2.030       0.9753E-8     1.000       0.2868E-2     1.242   
   -2.020       0.9795E-8     1.000       0.2875E-2     1.243   
   -2.010       0.9838E-8     1.000       0.2882E-2     1.243   
   -2.000       0.9881E-8     1.000       0.2889E-2     1.243   
   -1.990       0.9925E-8     1.000       0.2896E-2     1.244   
   -1.980       0.9968E-8     1.000       0.2904E-2     1.244   
   -1.970       0.1001E-7     1.000       0.2911E-2     1.244   
   -1.960       0.1006E-7     1.000       0.2918E-2     1.244   
   -1.950       0.1010E-7     1.000       0.2925E-2     1.245   
   -1.940       0.1015E-7     1.000       0.2933E-2     1.245   
   -1.930       0.1019E-7     1.000       0.2940E-2     1.245   
   -1.920       0.1024E-7     1.000       0.2948E-2     1.246   
   -1.910       0.1028E-7     1.000       0.2955E-2     1.246   
   -1.900       0.1033E-7     1.000       0.2962E-2     1.246   
   -1.890       0.1037E-7     1.000       0.2970E-2     1.247   
   -1.880       0.1042E-7     1.000       0.2977E-2     1.247   
   -1.870       0.1047E-7     1.000       0.2985E-2     1.247   
   -1.860       0.1052E-7     1.000       0.2992E-2     1.247   
   -1.850       0.1056E-7     1.000       0.3000E-2     1.248   
   -1.840       0.1061E-7     1.000       0.3008E-2     1.248   
   -1.830       0.1066E-7     1.000       0.3015E-2     1.248   
   -1.820       0.1071E-7     1.000       0.3023E-2     1.249   
   -1.810       0.1076E-7     1.000       0.3031E-2     1.249   
   -1.800       0.1081E-7     1.000       0.3038E-2     1.249   
   -1.790       0.1086E-7     1.000       0.3046E-2     1.250   
   -1.780       0.1091E-7     1.000       0.3054E-2     1.250   
   -1.770       0.1096E-7     1.000       0.3062E-2     1.250   
   -1.760       0.1101E-7     1.000       0.3070E-2     1.250   
   -1.750       0.1106E-7     1.000       0.3077E-2     1.251   
   -1.740       0.1111E-7     1.000       0.3085E-2     1.251   
   -1.730       0.1116E-7     1.000       0.3093E-2     1.251   
   -1.720       0.1121E-7     1.000       0.3101E-2     1.252   
   -1.710       0.1126E-7     1.000       0.3109E-2     1.252   
   -1.700       0.1132E-7     1.000       0.3117E-2     1.252   
   -1.690       0.1137E-7     1.000       0.3125E-2     1.253   
   -1.680       0.1142E-7     1.000       0.3134E-2     1.253   
   -1.670       0.1148E-7     1.000       0.3142E-2     1.253   
   -1.660       0.1153E-7     1.000       0.3150E-2     1.254   
   -1.650       0.1159E-7     1.000       0.3158E-2     1.254   
   -1.640       0.1164E-7     1.000       0.3166E-2     1.254   
   -1.630       0.1170E-7     1.000       0.3175E-2     1.254   
   -1.620       0.1175E-7     1.000       0.3183E-2     1.255   
   -1.610       0.1181E-7     1.000       0.3191E-2     1.255   
   -1.600       0.1187E-7     1.000       0.3200E-2     1.255   
   -1.590       0.1192E-7     1.000       0.3208E-2     1.256   
   -1.580       0.1198E-7     1.000       0.3217E-2     1.256   
   -1.570       0.1204E-7     1.000       0.3225E-2     1.256   
   -1.560       0.1210E-7     1.000       0.3234E-2     1.257   
   -1.550       0.1216E-7     1.000       0.3242E-2     1.257   
   -1.540       0.1222E-7     1.000       0.3251E-2     1.257   
   -1.530       0.1227E-7     1.000       0.3259E-2     1.258   
   -1.520       0.1234E-7     1.000       0.3268E-2     1.258   
   -1.510       0.1240E-7     1.000       0.3277E-2     1.258   
   -1.500       0.1246E-7     1.000       0.3285E-2     1.259   
   -1.490       0.1252E-7     1.000       0.3294E-2     1.259   
   -1.480       0.1258E-7     1.000       0.3303E-2     1.259   
   -1.470       0.1264E-7     1.000       0.3312E-2     1.260   
   -1.460       0.1270E-7     1.000       0.3321E-2     1.260   
   -1.450       0.1277E-7     1.000       0.3330E-2     1.260   
   -1.440       0.1283E-7     1.000       0.3339E-2     1.261   
   -1.430       0.1290E-7     1.000       0.3347E-2     1.261   
   -1.420       0.1296E-7     1.000       0.3357E-2     1.261   
   -1.410       0.1303E-7     1.000       0.3366E-2     1.262   
   -1.400       0.1309E-7     1.000       0.3375E-2     1.262   
   -1.390       0.1316E-7     1.000       0.3384E-2     1.262   
   -1.380       0.1322E-7     1.000       0.3393E-2     1.263   
   -1.370       0.1329E-7     1.000       0.3402E-2     1.263   
   -1.360       0.1336E-7     1.000       0.3411E-2     1.263   
   -1.350       0.1343E-7     1.000       0.3421E-2     1.264   
   -1.340       0.1350E-7     1.000       0.3430E-2     1.264   
   -1.330       0.1357E-7     1.000       0.3439E-2     1.264   
   -1.320       0.1364E-7     1.000       0.3449E-2     1.265   
   -1.310       0.1371E-7     1.000       0.3458E-2     1.265   
   -1.300       0.1378E-7     1.000       0.3468E-2     1.265   
   -1.290       0.1385E-7     1.000       0.3477E-2     1.266   
   -1.280       0.1392E-7     1.000       0.3487E-2     1.266   
   -1.270       0.1399E-7     1.000       0.3497E-2     1.266   
   -1.260       0.1407E-7     1.000       0.3506E-2     1.267   
   -1.250       0.1414E-7     1.000       0.3516E-2     1.267   
   -1.240       0.1421E-7     1.000       0.3526E-2     1.268   
   -1.230       0.1429E-7     1.000       0.3535E-2     1.268   
   -1.220       0.1436E-7     1.000       0.3545E-2     1.268   
   -1.210       0.1444E-7     1.000       0.3555E-2     1.269   
   -1.200       0.1452E-7     1.000       0.3565E-2     1.269   
   -1.190       0.1459E-7     1.000       0.3575E-2     1.269   
   -1.180       0.1467E-7     1.000       0.3585E-2     1.270   
   -1.170       0.1475E-7     1.000       0.3595E-2     1.270   
   -1.160       0.1483E-7     1.000       0.3605E-2     1.270   
   -1.150       0.1491E-7     1.000       0.3615E-2     1.271   
   -1.140       0.1499E-7     1.000       0.3625E-2     1.271   
   -1.130       0.1507E-7     1.000       0.3636E-2     1.271   
   -1.120       0.1515E-7     1.000       0.3646E-2     1.272   
   -1.110       0.1523E-7     1.000       0.3656E-2     1.272   
   -1.100       0.1532E-7     1.000       0.3667E-2     1.273   
   -1.090       0.1540E-7     1.000       0.3677E-2     1.273   
   -1.080       0.1549E-7     1.000       0.3687E-2     1.273   
   -1.070       0.1557E-7     1.000       0.3698E-2     1.274   
   -1.060       0.1566E-7     1.000       0.3708E-2     1.274   
   -1.050       0.1574E-7     1.000       0.3719E-2     1.274   
   -1.040       0.1583E-7     1.000       0.3730E-2     1.275   
   -1.030       0.1592E-7     1.000       0.3740E-2     1.275   
   -1.020       0.1601E-7     1.000       0.3751E-2     1.276   
   -1.010       0.1610E-7     1.000       0.3762E-2     1.276   
   -1.000       0.1619E-7     1.000       0.3773E-2     1.276   
   -.9900       0.1628E-7     1.000       0.3784E-2     1.277   
   -.9800       0.1637E-7     1.000       0.3795E-2     1.277   
   -.9700       0.1646E-7     1.000       0.3805E-2     1.277   
   -.9600       0.1656E-7     1.000       0.3817E-2     1.278   
   -.9500       0.1665E-7     1.000       0.3828E-2     1.278   
   -.9400       0.1675E-7     1.000       0.3839E-2     1.279   
   -.9300       0.1684E-7     1.000       0.3850E-2     1.279   
   -.9200       0.1694E-7     1.000       0.3861E-2     1.279   
   -.9100       0.1704E-7     1.000       0.3872E-2     1.280   
   -.9000       0.1713E-7     1.000       0.3884E-2     1.280   
   -.8900       0.1723E-7     1.000       0.3895E-2     1.280   
   -.8800       0.1733E-7     1.000       0.3907E-2     1.281   
   -.8700       0.1743E-7     1.000       0.3918E-2     1.281   
   -.8600       0.1754E-7     1.000       0.3930E-2     1.282   
   -.8500       0.1764E-7     1.000       0.3941E-2     1.282   
   -.8400       0.1774E-7     1.000       0.3953E-2     1.282   
   -.8300       0.1785E-7     1.000       0.3964E-2     1.283   
   -.8200       0.1795E-7     1.000       0.3976E-2     1.283   
   -.8100       0.1806E-7     1.000       0.3988E-2     1.284   
   -.8000       0.1816E-7     1.000       0.4000E-2     1.284   
   -.7900       0.1827E-7     1.000       0.4012E-2     1.284   
   -.7800       0.1838E-7     1.000       0.4024E-2     1.285   
   -.7700       0.1849E-7     1.000       0.4036E-2     1.285   
   -.7600       0.1860E-7     1.000       0.4048E-2     1.286   
   -.7500       0.1872E-7     1.000       0.4060E-2     1.286   
   -.7400       0.1883E-7     1.000       0.4072E-2     1.286   
   -.7300       0.1894E-7     1.000       0.4084E-2     1.287   
   -.7200       0.1906E-7     1.000       0.4097E-2     1.287   
   -.7100       0.1917E-7     1.000       0.4109E-2     1.288   
   -.7000       0.1929E-7     1.000       0.4122E-2     1.288   
   -.6900       0.1941E-7     1.000       0.4134E-2     1.289   
   -.6800       0.1953E-7     1.000       0.4147E-2     1.289   
   -.6700       0.1965E-7     1.000       0.4159E-2     1.289   
   -.6600       0.1977E-7     1.000       0.4172E-2     1.290   
   -.6500       0.1990E-7     1.000       0.4185E-2     1.290   
   -.6400       0.2002E-7     1.000       0.4197E-2     1.291   
   -.6300       0.2014E-7     1.000       0.4210E-2     1.291   
   -.6200       0.2027E-7     1.000       0.4223E-2     1.291   
   -.6100       0.2040E-7     1.000       0.4236E-2     1.292   
   -.6000       0.2053E-7     1.000       0.4249E-2     1.292   
   -.5900       0.2066E-7     1.000       0.4262E-2     1.293   
   -.5800       0.2079E-7     1.000       0.4275E-2     1.293   
   -.5700       0.2092E-7     1.000       0.4289E-2     1.294   
   -.5600       0.2106E-7     1.000       0.4302E-2     1.294   
   -.5500       0.2119E-7     1.000       0.4315E-2     1.294   
   -.5400       0.2133E-7     1.000       0.4329E-2     1.295   
   -.5300       0.2146E-7     1.000       0.4342E-2     1.295   
   -.5200       0.2160E-7     1.000       0.4356E-2     1.296   
   -.5100       0.2174E-7     1.000       0.4369E-2     1.296   
   -.5000       0.2189E-7     1.000       0.4383E-2     1.297   
   -.4900       0.2203E-7     1.000       0.4397E-2     1.297   
   -.4800       0.2217E-7     1.000       0.4410E-2     1.297   
   -.4700       0.2232E-7     1.000       0.4424E-2     1.298   
   -.4600       0.2247E-7     1.000       0.4438E-2     1.298   
   -.4500       0.2262E-7     1.000       0.4452E-2     1.299   
   -.4400       0.2277E-7     1.000       0.4466E-2     1.299   
   -.4300       0.2292E-7     1.000       0.4481E-2     1.300   
   -.4200       0.2307E-7     1.000       0.4495E-2     1.300   
   -.4100       0.2323E-7     1.000       0.4509E-2     1.301   
   -.4000       0.2338E-7     1.000       0.4523E-2     1.301   
   -.3900       0.2354E-7     1.000       0.4538E-2     1.301   
   -.3800       0.2370E-7     1.000       0.4552E-2     1.302   
   -.3700       0.2386E-7     1.000       0.4567E-2     1.302   
   -.3600       0.2403E-7     1.000       0.4582E-2     1.303   
   -.3500       0.2419E-7     1.000       0.4596E-2     1.303   
   -.3400       0.2436E-7     1.000       0.4611E-2     1.304   
   -.3300       0.2453E-7     1.000       0.4626E-2     1.304   
   -.3200       0.2470E-7     1.000       0.4641E-2     1.305   
   -.3100       0.2487E-7     1.000       0.4656E-2     1.305   
   -.3000       0.2504E-7     1.000       0.4671E-2     1.306   
   -.2900       0.2522E-7     1.000       0.4686E-2     1.306   
   -.2800       0.2539E-7     1.000       0.4702E-2     1.307   
   -.2700       0.2557E-7     1.000       0.4717E-2     1.307   
   -.2600       0.2575E-7     1.000       0.4732E-2     1.308   
   -.2500       0.2594E-7     1.000       0.4748E-2     1.308   
   -.2400       0.2612E-7     1.000       0.4763E-2     1.308   
   -.2300       0.2631E-7     1.000       0.4779E-2     1.309   
   -.2200       0.2650E-7     1.000       0.4795E-2     1.309   
   -.2100       0.2669E-7     1.000       0.4811E-2     1.310   
   -.2000       0.2688E-7     1.000       0.4827E-2     1.310   
   -.1900       0.2708E-7     1.000       0.4843E-2     1.311   
   -.1800       0.2727E-7     1.000       0.4859E-2     1.311   
   -.1700       0.2747E-7     1.000       0.4875E-2     1.312   
   -.1600       0.2767E-7     1.000       0.4891E-2     1.312   
   -.1500       0.2788E-7     1.000       0.4907E-2     1.313   
   -.1400       0.2808E-7     1.000       0.4924E-2     1.313   
   -.1300       0.2829E-7     1.000       0.4940E-2     1.314   
   -.1200       0.2850E-7     1.000       0.4957E-2     1.314   
   -.1100       0.2871E-7     1.000       0.4973E-2     1.315   
   -.1000       0.2893E-7     1.000       0.4990E-2     1.315   
   -.9000E-1    0.2915E-7     1.000       0.5007E-2     1.316   
   -.8000E-1    0.2937E-7     1.000       0.5024E-2     1.316   
   -.7000E-1    0.2959E-7     1.000       0.5041E-2     1.317   
   -.6000E-1    0.2982E-7     1.000       0.5058E-2     1.317   
   -.5000E-1    0.3004E-7     1.000       0.5075E-2     1.318   
   -.4000E-1    0.3028E-7     1.000       0.5093E-2     1.318   
   -.3000E-1    0.3051E-7     1.000       0.5110E-2     1.319   
   -.2000E-1    0.3074E-7     1.000       0.5128E-2     1.319   
   -.1000E-1    0.3098E-7     1.000       0.5145E-2     1.320   
    0.000       0.3122E-7     1.000       0.5163E-2     1.320   
   0.1000E-1    0.3147E-7     1.000       0.5181E-2     1.321   
   0.2000E-1    0.3172E-7     1.000       0.5198E-2     1.321   
   0.3000E-1    0.3197E-7     1.000       0.5216E-2     1.322   
   0.4000E-1    0.3222E-7     1.000       0.5234E-2     1.322   
   0.5000E-1    0.3248E-7     1.000       0.5253E-2     1.323   
   0.6000E-1    0.3273E-7     1.000       0.5271E-2     1.323   
   0.7000E-1    0.3300E-7     1.000       0.5289E-2     1.324   
   0.8000E-1    0.3326E-7     1.000       0.5308E-2     1.325   
   0.9000E-1    0.3353E-7     1.000       0.5326E-2     1.325   
   0.1000       0.3380E-7     1.000       0.5345E-2     1.326   
   0.1100       0.3408E-7     1.000       0.5364E-2     1.326   
   0.1200       0.3436E-7     1.000       0.5382E-2     1.327   
   0.1300       0.3464E-7     1.000       0.5401E-2     1.327   
   0.1400       0.3492E-7     1.000       0.5421E-2     1.328   
   0.1500       0.3521E-7     1.000       0.5440E-2     1.328   
   0.1600       0.3551E-7     1.000       0.5459E-2     1.329   
   0.1700       0.3580E-7     1.000       0.5478E-2     1.329   
   0.1800       0.3610E-7     1.000       0.5498E-2     1.330   
   0.1900       0.3641E-7     1.000       0.5518E-2     1.330   
   0.2000       0.3671E-7     1.000       0.5537E-2     1.331   
   0.2100       0.3703E-7     1.000       0.5557E-2     1.332   
   0.2200       0.3734E-7     1.000       0.5577E-2     1.332   
   0.2300       0.3766E-7     1.000       0.5597E-2     1.333   
   0.2400       0.3799E-7     1.000       0.5617E-2     1.333   
   0.2500       0.3831E-7     1.000       0.5638E-2     1.334   
   0.2600       0.3865E-7     1.000       0.5658E-2     1.334   
   0.2700       0.3898E-7     1.000       0.5678E-2     1.335   
   0.2800       0.3932E-7     1.000       0.5699E-2     1.336   
   0.2900       0.3967E-7     1.000       0.5720E-2     1.336   
   0.3000       0.4002E-7     1.000       0.5741E-2     1.337   
   0.3100       0.4037E-7     1.000       0.5762E-2     1.337   
   0.3200       0.4073E-7     1.000       0.5783E-2     1.338   
   0.3300       0.4110E-7     1.000       0.5804E-2     1.338   
   0.3400       0.4147E-7     1.000       0.5825E-2     1.339   
   0.3500       0.4184E-7     1.000       0.5847E-2     1.340   
   0.3600       0.4222E-7     1.000       0.5869E-2     1.340   
   0.3700       0.4261E-7     1.000       0.5890E-2     1.341   
   0.3800       0.4300E-7     1.000       0.5912E-2     1.341   
   0.3900       0.4339E-7     1.000       0.5934E-2     1.342   
   0.4000       0.4379E-7     1.000       0.5956E-2     1.343   
   0.4100       0.4420E-7     1.000       0.5978E-2     1.343   
   0.4200       0.4461E-7     1.000       0.6001E-2     1.344   
   0.4300       0.4503E-7     1.000       0.6023E-2     1.344   
   0.4400       0.4545E-7     1.000       0.6046E-2     1.345   
   0.4500       0.4588E-7     1.000       0.6069E-2     1.346   
   0.4600       0.4632E-7     1.000       0.6092E-2     1.346   
   0.4700       0.4676E-7     1.000       0.6115E-2     1.347   
   0.4800       0.4721E-7     1.000       0.6138E-2     1.347   
   0.4900       0.4766E-7     1.000       0.6161E-2     1.348   
   0.5000       0.4812E-7     1.000       0.6185E-2     1.349   
   0.5100       0.4859E-7     1.000       0.6208E-2     1.349   
   0.5200       0.4907E-7     1.000       0.6232E-2     1.350   
   0.5300       0.4955E-7     1.000       0.6256E-2     1.350   
   0.5400       0.5004E-7     1.000       0.6280E-2     1.351   
   0.5500       0.5053E-7     1.000       0.6304E-2     1.352   
   0.5600       0.5104E-7     1.000       0.6329E-2     1.352   
   0.5700       0.5155E-7     1.000       0.6353E-2     1.353   
   0.5800       0.5207E-7     1.000       0.6378E-2     1.354   
   0.5900       0.5260E-7     1.000       0.6402E-2     1.354   
   0.6000       0.5313E-7     1.000       0.6427E-2     1.355   
   0.6100       0.5368E-7     1.000       0.6452E-2     1.356   
   0.6200       0.5423E-7     1.000       0.6478E-2     1.356   
   0.6300       0.5479E-7     1.000       0.6503E-2     1.357   
   0.6400       0.5536E-7     1.000       0.6529E-2     1.357   
   0.6500       0.5593E-7     1.000       0.6554E-2     1.358   
   0.6600       0.5652E-7     1.000       0.6580E-2     1.359   
   0.6700       0.5712E-7     1.000       0.6606E-2     1.359   
   0.6800       0.5772E-7     1.000       0.6632E-2     1.360   
   0.6900       0.5834E-7     1.000       0.6659E-2     1.361   
   0.7000       0.5897E-7     1.000       0.6685E-2     1.361   
   0.7100       0.5960E-7     1.000       0.6712E-2     1.362   
   0.7200       0.6025E-7     1.000       0.6739E-2     1.363   
   0.7300       0.6090E-7     1.000       0.6766E-2     1.363   
   0.7400       0.6157E-7     1.000       0.6793E-2     1.364   
   0.7500       0.6225E-7     1.000       0.6820E-2     1.365   
   0.7600       0.6294E-7     1.000       0.6848E-2     1.365   
   0.7700       0.6364E-7     1.000       0.6876E-2     1.366   
   0.7800       0.6435E-7     1.000       0.6904E-2     1.367   
   0.7900       0.6508E-7     1.000       0.6932E-2     1.368   
   0.8000       0.6582E-7     1.000       0.6960E-2     1.368   
   0.8100       0.6657E-7     1.000       0.6988E-2     1.369   
   0.8200       0.6733E-7     1.000       0.7017E-2     1.370   
   0.8300       0.6811E-7     1.000       0.7046E-2     1.370   
   0.8400       0.6890E-7     1.000       0.7075E-2     1.371   
   0.8500       0.6970E-7     1.000       0.7104E-2     1.372   
   0.8600       0.7052E-7     1.000       0.7134E-2     1.372   
   0.8700       0.7135E-7     1.000       0.7163E-2     1.373   
   0.8800       0.7220E-7     1.000       0.7193E-2     1.374   
   0.8900       0.7306E-7     1.000       0.7223E-2     1.375   
   0.9000       0.7394E-7     1.000       0.7253E-2     1.375   
   0.9100       0.7483E-7     1.000       0.7283E-2     1.376   
   0.9200       0.7574E-7     1.000       0.7314E-2     1.377   
   0.9300       0.7667E-7     1.000       0.7345E-2     1.378   
   0.9400       0.7761E-7     1.000       0.7376E-2     1.378   
   0.9500       0.7857E-7     1.000       0.7407E-2     1.379   
   0.9600       0.7955E-7     1.000       0.7438E-2     1.380   
   0.9700       0.8055E-7     1.000       0.7470E-2     1.381   
   0.9800       0.8157E-7     1.000       0.7502E-2     1.381   
   0.9900       0.8260E-7     1.000       0.7534E-2     1.382   
    1.000       0.8366E-7     1.000       0.7566E-2     1.383   
    1.010       0.8474E-7     1.000       0.7598E-2     1.384   
    1.020       0.8583E-7     1.000       0.7631E-2     1.384   
    1.030       0.8695E-7     1.000       0.7664E-2     1.385   
    1.040       0.8809E-7     1.000       0.7697E-2     1.386   
    1.050       0.8926E-7     1.000       0.7731E-2     1.387   
    1.060       0.9044E-7     1.000       0.7764E-2     1.387   
    1.070       0.9165E-7     1.000       0.7798E-2     1.388   
    1.080       0.9289E-7     1.000       0.7832E-2     1.389   
    1.090       0.9415E-7     1.000       0.7866E-2     1.390   
    1.100       0.9544E-7     1.000       0.7901E-2     1.390   
    1.110       0.9675E-7     1.000       0.7936E-2     1.391   
    1.120       0.9809E-7     1.000       0.7971E-2     1.392   
    1.130       0.9946E-7     1.000       0.8006E-2     1.393   
    1.140       0.1009E-6     1.000       0.8042E-2     1.394   
    1.150       0.1023E-6     1.000       0.8077E-2     1.394   
    1.160       0.1037E-6     1.000       0.8113E-2     1.395   
    1.170       0.1052E-6     1.000       0.8150E-2     1.396   
    1.180       0.1067E-6     1.000       0.8186E-2     1.397   
    1.190       0.1083E-6     1.000       0.8223E-2     1.398   
    1.200       0.1099E-6     1.000       0.8260E-2     1.399   
    1.210       0.1115E-6     1.000       0.8297E-2     1.399   
    1.220       0.1132E-6     1.000       0.8335E-2     1.400   
    1.230       0.1149E-6     1.000       0.8373E-2     1.401   
    1.240       0.1166E-6     1.000       0.8411E-2     1.402   
    1.250       0.1184E-6     1.000       0.8449E-2     1.403   
    1.260       0.1202E-6     1.000       0.8488E-2     1.404   
    1.270       0.1221E-6     1.000       0.8527E-2     1.404   
    1.280       0.1240E-6     1.000       0.8566E-2     1.405   
    1.290       0.1259E-6     1.000       0.8606E-2     1.406   
    1.300       0.1279E-6     1.000       0.8646E-2     1.407   
    1.310       0.1299E-6     1.000       0.8686E-2     1.408   
    1.320       0.1320E-6     1.000       0.8726E-2     1.409   
    1.330       0.1342E-6     1.000       0.8767E-2     1.410   
    1.340       0.1364E-6     1.000       0.8808E-2     1.410   
    1.350       0.1386E-6     1.000       0.8849E-2     1.411   
    1.360       0.1409E-6     1.000       0.8891E-2     1.412   
    1.370       0.1433E-6     1.000       0.8933E-2     1.413   
    1.380       0.1457E-6     1.000       0.8975E-2     1.414   
    1.390       0.1482E-6     1.000       0.9018E-2     1.415   
    1.400       0.1507E-6     1.000       0.9061E-2     1.416   
    1.410       0.1533E-6     1.000       0.9104E-2     1.417   
    1.420       0.1560E-6     1.000       0.9148E-2     1.418   
    1.430       0.1588E-6     1.000       0.9192E-2     1.419   
    1.440       0.1616E-6     1.000       0.9236E-2     1.419   
    1.450       0.1645E-6     1.000       0.9280E-2     1.420   
    1.460       0.1675E-6     1.000       0.9325E-2     1.421   
    1.470       0.1706E-6     1.000       0.9371E-2     1.422   
    1.480       0.1737E-6     1.000       0.9416E-2     1.423   
    1.490       0.1770E-6     1.000       0.9462E-2     1.424   
    1.500       0.1803E-6     1.000       0.9509E-2     1.425   
    1.510       0.1837E-6     1.000       0.9555E-2     1.426   
    1.520       0.1872E-6     1.000       0.9602E-2     1.427   
    1.530       0.1909E-6     1.000       0.9650E-2     1.428   
    1.540       0.1946E-6     1.000       0.9698E-2     1.429   
    1.550       0.1984E-6     1.000       0.9746E-2     1.430   
    1.560       0.2024E-6     1.000       0.9794E-2     1.431   
    1.570       0.2065E-6     1.000       0.9843E-2     1.432   
    1.580       0.2107E-6     1.000       0.9893E-2     1.433   
    1.590       0.2150E-6     1.000       0.9943E-2     1.434   
    1.600       0.2195E-6     1.000       0.9993E-2     1.435   
    1.610       0.2241E-6     1.000       0.1004E-1     1.436   
    1.620       0.2289E-6     1.000       0.1009E-1     1.437   
    1.630       0.2338E-6     1.000       0.1015E-1     1.438   
    1.640       0.2388E-6     1.000       0.1020E-1     1.439   
    1.650       0.2441E-6     1.000       0.1025E-1     1.440   
    1.660       0.2495E-6     1.000       0.1030E-1     1.441   
    1.670       0.2551E-6     1.000       0.1036E-1     1.442   
    1.680       0.2609E-6     1.000       0.1041E-1     1.443   
    1.690       0.2669E-6     1.000       0.1046E-1     1.444   
    1.700       0.2731E-6     1.000       0.1052E-1     1.445   
    1.710       0.2795E-6     1.000       0.1057E-1     1.446   
    1.720       0.2861E-6     1.000       0.1063E-1     1.447   
    1.730       0.2930E-6     1.000       0.1068E-1     1.448   
    1.740       0.3001E-6     1.000       0.1074E-1     1.449   
    1.750       0.3075E-6     1.000       0.1080E-1     1.450   
    1.760       0.3152E-6     1.000       0.1085E-1     1.451   
    1.770       0.3232E-6     1.000       0.1091E-1     1.453   
    1.780       0.3315E-6     1.000       0.1097E-1     1.454   
    1.790       0.3401E-6     1.000       0.1103E-1     1.455   
    1.800       0.3490E-6     1.000       0.1109E-1     1.456   
    1.810       0.3583E-6     1.000       0.1115E-1     1.457   
    1.820       0.3680E-6     1.000       0.1121E-1     1.458   
    1.830       0.3780E-6     1.000       0.1127E-1     1.459   
    1.840       0.3885E-6     1.000       0.1133E-1     1.460   
    1.850       0.3994E-6     1.000       0.1139E-1     1.461   
    1.860       0.4108E-6     1.000       0.1145E-1     1.463   
    1.870       0.4227E-6     1.000       0.1152E-1     1.464   
    1.880       0.4352E-6     1.000       0.1158E-1     1.465   
    1.890       0.4481E-6     1.000       0.1165E-1     1.466   
    1.900       0.4617E-6     1.000       0.1171E-1     1.467   
    1.910       0.4759E-6     1.000       0.1178E-1     1.468   
    1.920       0.4907E-6     1.000       0.1184E-1     1.470   
    1.930       0.5063E-6     1.000       0.1191E-1     1.471   
    1.940       0.5226E-6     1.000       0.1197E-1     1.472   
    1.950       0.5398E-6     1.000       0.1204E-1     1.473   
    1.960       0.5577E-6     1.000       0.1211E-1     1.474   
    1.970       0.5766E-6     1.000       0.1218E-1     1.476   
    1.980       0.5965E-6     1.000       0.1225E-1     1.477   
    1.990       0.6174E-6     1.000       0.1232E-1     1.478   
    2.000       0.6395E-6     1.000       0.1239E-1     1.479   
    2.010       0.6627E-6     1.000       0.1246E-1     1.480   
    2.020       0.6872E-6     1.000       0.1253E-1     1.482   
    2.030       0.7131E-6     1.000       0.1261E-1     1.483   
    2.040       0.7405E-6     1.000       0.1268E-1     1.484   
    2.050       0.7695E-6     1.000       0.1275E-1     1.486   
    2.060       0.8003E-6     1.000       0.1283E-1     1.487   
    2.070       0.8329E-6     1.000       0.1290E-1     1.488   
    2.080       0.8676E-6     1.000       0.1298E-1     1.489   
    2.090       0.9044E-6     1.000       0.1306E-1     1.491   
    2.100       0.9437E-6     1.000       0.1314E-1     1.492   
    2.110       0.9856E-6     1.000       0.1321E-1     1.493   
    2.120       0.1030E-5     1.000       0.1329E-1     1.495   
    2.130       0.1078E-5     1.000       0.1337E-1     1.496   
    2.140       0.1129E-5     1.000       0.1345E-1     1.497   
    2.150       0.1184E-5     1.000       0.1354E-1     1.499   
    2.160       0.1243E-5     1.000       0.1362E-1     1.500   
    2.170       0.1306E-5     1.000       0.1370E-1     1.501   
    2.180       0.1375E-5     1.000       0.1379E-1     1.503   
    2.190       0.1449E-5     1.000       0.1387E-1     1.504   
    2.200       0.1528E-5     1.000       0.1396E-1     1.506   
    2.210       0.1615E-5     1.000       0.1404E-1     1.507   
    2.220       0.1709E-5     1.000       0.1413E-1     1.508   
    2.230       0.1811E-5     1.000       0.1422E-1     1.510   
    2.240       0.1923E-5     1.000       0.1431E-1     1.511   
    2.250       0.2044E-5     1.000       0.1440E-1     1.513   
    2.260       0.2178E-5     1.000       0.1449E-1     1.514   
    2.270       0.2324E-5     1.000       0.1458E-1     1.515   
    2.280       0.2485E-5     1.000       0.1468E-1     1.517   
    2.290       0.2663E-5     1.000       0.1477E-1     1.518   
    2.300       0.2860E-5     1.000       0.1487E-1     1.520   
    2.310       0.3078E-5     1.000       0.1496E-1     1.521   
    2.320       0.3320E-5     1.000       0.1506E-1     1.523   
    2.330       0.3590E-5     1.000       0.1516E-1     1.524   
    2.340       0.3891E-5     1.000       0.1526E-1     1.526   
    2.350       0.4228E-5     1.000       0.1536E-1     1.527   
    2.360       0.4605E-5     1.000       0.1546E-1     1.529   
    2.370       0.5028E-5     1.000       0.1556E-1     1.530   
    2.380       0.5502E-5     1.000       0.1567E-1     1.532   
    2.390       0.6033E-5     1.000       0.1577E-1     1.534   
    2.400       0.6627E-5     1.000       0.1588E-1     1.535   
    2.410       0.7289E-5     1.000       0.1598E-1     1.537   
    2.420       0.8020E-5     1.000       0.1609E-1     1.538   
    2.430       0.8820E-5     1.000       0.1620E-1     1.540   
    2.440       0.9682E-5     1.000       0.1631E-1     1.542   
    2.450       0.1059E-4     1.000       0.1642E-1     1.543   
    2.460       0.1152E-4     1.000       0.1654E-1     1.545   
    2.470       0.1244E-4     1.000       0.1665E-1     1.547   
    2.480       0.1329E-4     1.000       0.1677E-1     1.548   
    2.490       0.1401E-4     1.000       0.1689E-1     1.550   
    2.500       0.1456E-4     1.000       0.1700E-1     1.552   
    2.510       0.1490E-4     1.000       0.1712E-1     1.553   
    2.520       0.1499E-4     1.000       0.1725E-1     1.555   
    2.530       0.1487E-4     1.000       0.1737E-1     1.557   
    2.540       0.1457E-4     1.000       0.1749E-1     1.558   
    2.550       0.1414E-4     1.000       0.1762E-1     1.560   
    2.560       0.1365E-4     1.000       0.1775E-1     1.562   
    2.570       0.1315E-4     1.000       0.1788E-1     1.564   
    2.580       0.1270E-4     1.000       0.1801E-1     1.566   
    2.590       0.1231E-4     1.000       0.1814E-1     1.567   
    2.600       0.1202E-4     1.000       0.1827E-1     1.569   
    2.610       0.1181E-4     1.000       0.1841E-1     1.571   
    2.620       0.1169E-4     1.000       0.1854E-1     1.573   
    2.630       0.1163E-4     1.000       0.1868E-1     1.575   
    2.640       0.1161E-4     1.000       0.1882E-1     1.577   
    2.650       0.1159E-4     1.000       0.1897E-1     1.578   
    2.660       0.1152E-4     1.000       0.1911E-1     1.580   
    2.670       0.1138E-4     1.000       0.1926E-1     1.582   
    2.680       0.1112E-4     1.000       0.1940E-1     1.584   
    2.690       0.1075E-4     1.000       0.1955E-1     1.586   
    2.700       0.1027E-4     1.000       0.1971E-1     1.588   
    2.710       0.9698E-5     1.000       0.1986E-1     1.590   
    2.720       0.9066E-5     1.000       0.2002E-1     1.592   
    2.730       0.8406E-5     1.000       0.2017E-1     1.594   
    2.740       0.7746E-5     1.000       0.2033E-1     1.596   
    2.750       0.7107E-5     1.000       0.2050E-1     1.598   
    2.760       0.6505E-5     1.000       0.2066E-1     1.600   
    2.770       0.5947E-5     1.000       0.2083E-1     1.602   
    2.780       0.5437E-5     1.000       0.2100E-1     1.604   
    2.790       0.4974E-5     1.000       0.2117E-1     1.606   
    2.800       0.4556E-5     1.000       0.2134E-1     1.609   
    2.810       0.4181E-5     1.000       0.2152E-1     1.611   
    2.820       0.3845E-5     1.000       0.2169E-1     1.613   
    2.830       0.3543E-5     1.000       0.2188E-1     1.615   
    2.840       0.3272E-5     1.000       0.2206E-1     1.617   
    2.850       0.3029E-5     1.000       0.2225E-1     1.619   
    2.860       0.2811E-5     1.000       0.2244E-1     1.622   
    2.870       0.2614E-5     1.000       0.2263E-1     1.624   
    2.880       0.2437E-5     1.000       0.2282E-1     1.626   
    2.890       0.2276E-5     1.000       0.2302E-1     1.628   
    2.900       0.2130E-5     1.000       0.2322E-1     1.631   
    2.910       0.1998E-5     1.000       0.2342E-1     1.633   
    2.920       0.1877E-5     1.000       0.2363E-1     1.635   
    2.930       0.1767E-5     1.000       0.2384E-1     1.638   
    2.940       0.1666E-5     1.000       0.2406E-1     1.640   
    2.950       0.1574E-5     1.000       0.2427E-1     1.642   
    2.960       0.1489E-5     1.000       0.2449E-1     1.645   
    2.970       0.1410E-5     1.000       0.2472E-1     1.647   
    2.980       0.1338E-5     1.000       0.2494E-1     1.650   
    2.990       0.1271E-5     1.000       0.2517E-1     1.652   
    3.000       0.1209E-5     1.000       0.2541E-1     1.655   
    3.010       0.1152E-5     1.000       0.2565E-1     1.657   
    3.020       0.1098E-5     1.000       0.2589E-1     1.660   
    3.030       0.1048E-5     1.000       0.2614E-1     1.663   
    3.040       0.1002E-5     1.000       0.2639E-1     1.665   
    3.050       0.9583E-6     1.000       0.2664E-1     1.668   
    3.060       0.9176E-6     1.000       0.2690E-1     1.670   
    3.070       0.8794E-6     1.000       0.2717E-1     1.673   
    3.080       0.8436E-6     1.000       0.2744E-1     1.676   
    3.090       0.8100E-6     1.000       0.2771E-1     1.679   
    3.100       0.7783E-6     1.000       0.2799E-1     1.681   
    3.110       0.7485E-6     1.000       0.2828E-1     1.684   
    3.120       0.7204E-6     1.000       0.2857E-1     1.687   
    3.130       0.6938E-6     1.000       0.2886E-1     1.690   
    3.140       0.6687E-6     1.000       0.2916E-1     1.693   
    3.150       0.6450E-6     1.000       0.2947E-1     1.696   
    3.160       0.6224E-6     1.000       0.2978E-1     1.699   
    3.170       0.6011E-6     1.000       0.3010E-1     1.702   
    3.180       0.5808E-6     1.000       0.3042E-1     1.705   
    3.190       0.5616E-6     1.000       0.3075E-1     1.708   
    3.200       0.5433E-6     1.000       0.3109E-1     1.711   
    3.210       0.5259E-6     1.000       0.3144E-1     1.714   
    3.220       0.5093E-6     1.000       0.3179E-1     1.717   
    3.230       0.4935E-6     1.000       0.3215E-1     1.720   
    3.240       0.4784E-6     1.000       0.3252E-1     1.723   
    3.250       0.4640E-6     1.000       0.3289E-1     1.727   
    3.260       0.4503E-6     1.000       0.3328E-1     1.730   
    3.270       0.4371E-6     1.000       0.3367E-1     1.733   
    3.280       0.4246E-6     1.000       0.3407E-1     1.736   
    3.290       0.4125E-6     1.000       0.3448E-1     1.740   
    3.300       0.4010E-6     1.000       0.3490E-1     1.743   
    3.310       0.3900E-6     1.000       0.3533E-1     1.747   
    3.320       0.3794E-6     1.000       0.3577E-1     1.750   
    3.330       0.3692E-6     1.000       0.3622E-1     1.754   
    3.340       0.3594E-6     1.000       0.3668E-1     1.757   
    3.350       0.3501E-6     1.000       0.3716E-1     1.761   
    3.360       0.3411E-6     1.000       0.3764E-1     1.765   
    3.370       0.3324E-6     1.000       0.3814E-1     1.769   
    3.380       0.3240E-6     1.000       0.3865E-1     1.772   
    3.390       0.3160E-6     1.000       0.3918E-1     1.776   
    3.400       0.3083E-6     1.000       0.3972E-1     1.780   
    3.410       0.3008E-6     1.000       0.4028E-1     1.784   
    3.420       0.2937E-6     1.000       0.4085E-1     1.788   
    3.430       0.2867E-6     1.000       0.4144E-1     1.792   
    3.440       0.2800E-6     1.000       0.4204E-1     1.796   
    3.450       0.2736E-6     1.000       0.4267E-1     1.800   
    3.460       0.2674E-6     1.000       0.4331E-1     1.805   
    3.470       0.2613E-6     1.000       0.4397E-1     1.809   
    3.480       0.2555E-6     1.000       0.4466E-1     1.813   
    3.490       0.2499E-6     1.000       0.4536E-1     1.818   
    3.500       0.2445E-6     1.000       0.4609E-1     1.822   
    3.510       0.2392E-6     1.000       0.4685E-1     1.827   
    3.520       0.2341E-6     1.000       0.4763E-1     1.831   
    3.530       0.2292E-6     1.000       0.4844E-1     1.836   
    3.540       0.2244E-6     1.000       0.4928E-1     1.841   
    3.550       0.2198E-6     1.000       0.5015E-1     1.846   
    3.560       0.2153E-6     1.000       0.5106E-1     1.851   
    3.570       0.2109E-6     1.000       0.5200E-1     1.856   
    3.580       0.2067E-6     1.000       0.5297E-1     1.861   
    3.590       0.2026E-6     1.000       0.5399E-1     1.866   
    3.600       0.1986E-6     1.000       0.5505E-1     1.871   
    3.610       0.1948E-6     1.000       0.5616E-1     1.877   
    3.620       0.1910E-6     1.000       0.5731E-1     1.882   
    3.630       0.1874E-6     1.000       0.5852E-1     1.888   
    3.640       0.1839E-6     1.000       0.5979E-1     1.893   
    3.650       0.1804E-6     1.000       0.6112E-1     1.899   
    3.660       0.1771E-6     1.000       0.6251E-1     1.905   
    3.670       0.1738E-6     1.000       0.6397E-1     1.911   
    3.680       0.1707E-6     1.000       0.6551E-1     1.917   
    3.690       0.1676E-6     1.000       0.6714E-1     1.924   
    3.700       0.1646E-6     1.000       0.6885E-1     1.930   
    3.710       0.1617E-6     1.000       0.7067E-1     1.937   
    3.720       0.1589E-6     1.000       0.7259E-1     1.944   
    3.730       0.1561E-6     1.000       0.7463E-1     1.951   
    3.740       0.1534E-6     1.000       0.7679E-1     1.958   
    3.750       0.1508E-6     1.000       0.7910E-1     1.965   
    3.760       0.1482E-6     1.000       0.8157E-1     1.972   
    3.770       0.1458E-6     1.000       0.8420E-1     1.980   
    3.780       0.1433E-6     1.000       0.8702E-1     1.988   
    3.790       0.1410E-6     1.000       0.9006E-1     1.996   
    3.800       0.1387E-6     1.000       0.9332E-1     2.004   
    3.810       0.1364E-6     1.000       0.9685E-1     2.012   
    3.820       0.1342E-6     1.000       0.1007        2.021   
    3.830       0.1321E-6     1.000       0.1048        2.030   
    3.840       0.1300E-6     1.000       0.1093        2.039   
    3.850       0.1279E-6     1.000       0.1142        2.049   
    3.860       0.1259E-6     1.000       0.1196        2.058   
    3.870       0.1240E-6     1.000       0.1254        2.068   
    3.880       0.1221E-6     1.000       0.1319        2.078   
    3.890       0.1202E-6     1.000       0.1391        2.089   
    3.900       0.1184E-6     1.000       0.1470        2.099   
    3.910       0.1166E-6     1.000       0.1557        2.110   
    3.920       0.1149E-6     1.000       0.1655        2.121   
    3.930       0.1132E-6     1.000       0.1763        2.132   
    3.940       0.1115E-6     1.000       0.1884        2.143   
    3.950       0.1099E-6     1.000       0.2020        2.154   
    3.960       0.1083E-6     1.000       0.2172        2.165   
    3.970       0.1067E-6     1.000       0.2342        2.175   
    3.980       0.1052E-6     1.000       0.2531        2.184   
    3.990       0.1037E-6     1.000       0.2743        2.192   
    4.000       0.1023E-6     1.000       0.2976        2.198   
    4.010       0.1009E-6     1.000       0.3232        2.201   
    4.020       0.9945E-7     1.000       0.3509        2.201   
    4.030       0.9808E-7     1.000       0.3801        2.197   
    4.040       0.9674E-7     1.000       0.4101        2.187   
    4.050       0.9543E-7     1.000       0.4397        2.172   
    4.060       0.9414E-7     1.000       0.4672        2.150   
    4.070       0.9288E-7     1.000       0.4907        2.122   
    4.080       0.9165E-7     1.000       0.5080        2.089   
    4.090       0.9044E-7     1.000       0.5176        2.052   
    4.100       0.8925E-7     1.000       0.5184        2.014   
    4.110       0.8808E-7     1.000       0.5105        1.978   
    4.120       0.8694E-7     1.000       0.4949        1.945   
    4.130       0.8582E-7     1.000       0.4733        1.918   
    4.140       0.8473E-7     1.000       0.4478        1.898   
    4.150       0.8365E-7     1.000       0.4202        1.884   
    4.160       0.8259E-7     1.000       0.3924        1.876   
    4.170       0.8156E-7     1.000       0.3654        1.874   
    4.180       0.8054E-7     1.000       0.3400        1.875   
    4.190       0.7954E-7     1.000       0.3167        1.881   
    4.200       0.7856E-7     1.000       0.2957        1.889   
    4.210       0.7760E-7     1.000       0.2769        1.899   
    4.220       0.7665E-7     1.000       0.2602        1.911   
    4.230       0.7573E-7     1.000       0.2456        1.924   
    4.240       0.7482E-7     1.000       0.2328        1.937   
    4.250       0.7392E-7     1.000       0.2216        1.951   
    4.260       0.7305E-7     1.000       0.2119        1.966   
    4.270       0.7218E-7     1.000       0.2034        1.980   
    4.280       0.7134E-7     1.000       0.1961        1.995   
    4.290       0.7050E-7     1.000       0.1899        2.010   
    4.300       0.6969E-7     1.000       0.1845        2.025   
    4.310       0.6888E-7     1.000       0.1799        2.040   
    4.320       0.6809E-7     1.000       0.1759        2.055   
    4.330       0.6732E-7     1.000       0.1727        2.070   
    4.340       0.6655E-7     1.000       0.1699        2.085   
    4.350       0.6580E-7     1.000       0.1677        2.100   
    4.360       0.6506E-7     1.000       0.1660        2.115   
    4.370       0.6434E-7     1.000       0.1646        2.130   
    4.380       0.6363E-7     1.000       0.1637        2.145   
    4.390       0.6293E-7     1.000       0.1630        2.160   
    4.400       0.6224E-7     1.000       0.1627        2.175   
    4.410       0.6156E-7     1.000       0.1627        2.190   
    4.420       0.6089E-7     1.000       0.1630        2.206   
    4.430       0.6023E-7     1.000       0.1635        2.221   
    4.440       0.5959E-7     1.000       0.1643        2.237   
    4.450       0.5895E-7     1.000       0.1653        2.252   
    4.460       0.5833E-7     1.000       0.1666        2.268   
    4.470       0.5771E-7     1.000       0.1680        2.284   
    4.480       0.5710E-7     1.000       0.1697        2.300   
    4.490       0.5651E-7     1.000       0.1716        2.316   
    4.500       0.5592E-7     1.000       0.1737        2.333   
    4.510       0.5534E-7     1.000       0.1760        2.350   
    4.520       0.5477E-7     1.000       0.1785        2.367   
    4.530       0.5421E-7     1.000       0.1811        2.384   
    4.540       0.5366E-7     1.000       0.1840        2.402   
    4.550       0.5312E-7     1.000       0.1871        2.420   
    4.560       0.5258E-7     1.000       0.1904        2.438   
    4.570       0.5206E-7     1.000       0.1940        2.456   
    4.580       0.5154E-7     1.000       0.1977        2.475   
    4.590       0.5102E-7     1.000       0.2016        2.494   
    4.600       0.5052E-7     1.000       0.2058        2.514   
    4.610       0.5002E-7     1.000       0.2102        2.534   
    4.620       0.4953E-7     1.000       0.2149        2.554   
    4.630       0.4905E-7     1.000       0.2198        2.575   
    4.640       0.4858E-7     1.000       0.2250        2.596   
    4.650       0.4811E-7     1.000       0.2305        2.618   
    4.660       0.4765E-7     1.000       0.2362        2.640   
    4.670       0.4719E-7     1.000       0.2423        2.663   
    4.680       0.4675E-7     1.000       0.2487        2.687   
    4.690       0.4630E-7     1.000       0.2554        2.711   
    4.700       0.4587E-7     1.000       0.2625        2.735   
    4.710       0.4544E-7     1.000       0.2699        2.761   
    4.720       0.4501E-7     1.000       0.2778        2.786   
    4.730       0.4460E-7     1.000       0.2861        2.813   
    4.740       0.4418E-7     1.000       0.2948        2.841   
    4.750       0.4378E-7     1.000       0.3040        2.869   
    4.760       0.4338E-7     1.000       0.3137        2.898   
    4.770       0.4298E-7     1.000       0.3240        2.928   
    4.780       0.4259E-7     1.000       0.3349        2.959   
    4.790       0.4221E-7     1.000       0.3464        2.990   
    4.800       0.4183E-7     1.000       0.3585        3.023   
    4.810       0.4145E-7     1.000       0.3714        3.057   
    4.820       0.4109E-7     1.000       0.3851        3.092   
    4.830       0.4072E-7     1.000       0.3996        3.128   
    4.840       0.4036E-7     1.000       0.4150        3.165   
    4.850       0.4001E-7     1.000       0.4314        3.204   
    4.860       0.3966E-7     1.000       0.4489        3.244   
    4.870       0.3931E-7     1.000       0.4675        3.286   
    4.880       0.3897E-7     1.000       0.4873        3.329   
    4.890       0.3863E-7     1.000       0.5086        3.373   
    4.900       0.3830E-7     1.000       0.5313        3.420   
    4.910       0.3797E-7     1.000       0.5557        3.468   
    4.920       0.3765E-7     1.000       0.5818        3.518   
    4.930       0.3733E-7     1.000       0.6100        3.570   
    4.940       0.3701E-7     1.000       0.6402        3.624   
    4.950       0.3670E-7     1.000       0.6729        3.680   
    4.960       0.3640E-7     1.000       0.7082        3.739   
    4.970       0.3609E-7     1.000       0.7464        3.800   
    4.980       0.3579E-7     1.000       0.7878        3.864   
    4.990       0.3550E-7     1.000       0.8328        3.930   
    5.000       0.3520E-7     1.000       0.8818        4.000   
    5.010       0.3491E-7     1.000       0.9353        4.072   
    5.020       0.3463E-7     1.000       0.9938        4.148   
    5.030       0.3435E-7     1.000        1.058        4.226   
    5.040       0.3407E-7     1.000        1.128        4.308   
    5.050       0.3379E-7     1.000        1.206        4.393   
    5.060       0.3352E-7     1.000        1.292        4.482   
    5.070       0.3325E-7     1.000        1.386        4.574   
    5.080       0.3299E-7     1.000        1.492        4.669   
    5.090       0.3272E-7     1.000        1.608        4.767   
    5.100       0.3247E-7     1.000        1.739        4.868   
    5.110       0.3221E-7     1.000        1.884        4.970   
    5.120       0.3196E-7     1.000        2.047        5.072   
    5.130       0.3171E-7     1.000        2.230        5.175   
    5.140       0.3146E-7     1.000        2.435        5.274   
    5.150       0.3122E-7     1.000        2.665        5.367   
    5.160       0.3097E-7     1.000        2.923        5.452   
    5.170       0.3074E-7     1.000        3.211        5.522   
    5.180       0.3050E-7     1.000        3.532        5.571   
    5.190       0.3027E-7     1.000        3.888        5.591   
    5.200       0.3004E-7     1.000        4.277        5.571   
    5.210       0.2981E-7     1.000        4.696        5.501   
    5.220       0.2958E-7     1.000        5.139        5.366   
    5.230       0.2936E-7     1.000        5.593        5.155   
    5.240       0.2914E-7     1.000        6.038        4.857   
    5.250       0.2892E-7     1.000        6.452        4.468   
    5.260       0.2871E-7     1.000        6.806        3.993   
    5.270       0.2849E-7     1.000        7.073        3.447   
    5.280       0.2828E-7     1.000        7.234        2.857   
    5.290       0.2807E-7     1.000        7.280        2.257   
    5.300       0.2787E-7     1.000        7.216        1.683   
    5.310       0.2767E-7     1.000        7.062        1.161   
    5.320       0.2746E-7     1.000        6.843       0.7106   
    5.330       0.2726E-7     1.000        6.588       0.3354   
    5.340       0.2707E-7     1.000        6.321       0.2999E-1
    5.350       0.2687E-7     1.000        6.061       -.2182   
    5.360       0.2668E-7     1.000        5.816       -.4253   
    5.370       0.2649E-7     1.000        5.590       -.6070   
    5.380       0.2630E-7     1.000        5.377       -.7758   
    5.390       0.2611E-7     1.000        5.169       -.9392   
    5.400       0.2593E-7     1.000        4.957       -1.099   
    5.410       0.2575E-7     1.000        4.732       -1.251   
    5.420       0.2556E-7     1.000        4.492       -1.388   
    5.430       0.2539E-7     1.000        4.236       -1.502   
    5.440       0.2521E-7     1.000        3.971       -1.587   
    5.450       0.2503E-7     1.000        3.702       -1.638   
    5.460       0.2486E-7     1.000        3.438       -1.657   
    5.470       0.2469E-7     1.000        3.185       -1.646   
    5.480       0.2452E-7     1.000        2.948       -1.608   
    5.490       0.2435E-7     1.000        2.730       -1.550   
    5.500       0.2418E-7     1.000        2.532       -1.475   
    5.510       0.2402E-7     1.000        2.355       -1.388   
    5.520       0.2386E-7     1.000        2.198       -1.293   
    5.530       0.2369E-7     1.000        2.059       -1.192   
    5.540       0.2354E-7     1.000        1.937       -1.088   
    5.550       0.2338E-7     1.000        1.831       -.9819   
    5.560       0.2322E-7     1.000        1.738       -.8752   
    5.570       0.2307E-7     1.000        1.659       -.7685   
    5.580       0.2291E-7     1.000        1.592       -.6625   
    5.590       0.2276E-7     1.000        1.536       -.5573   
    5.600       0.2261E-7     1.000        1.491       -.4532   
    5.610       0.2246E-7     1.000        1.455       -.3502   
    5.620       0.2231E-7     1.000        1.429       -.2485   
    5.630       0.2217E-7     1.000        1.413       -.1481   
    5.640       0.2202E-7     1.000        1.406       -.4915E-1
    5.650       0.2188E-7     1.000        1.409       0.4828E-1
    5.660       0.2174E-7     1.000        1.421       0.1439   
    5.670       0.2160E-7     1.000        1.444       0.2375   
    5.680       0.2146E-7     1.000        1.478       0.3286   
    5.690       0.2132E-7     1.000        1.523       0.4164   
    5.700       0.2118E-7     1.000        1.581       0.5001   
    5.710       0.2105E-7     1.000        1.653       0.5782   
    5.720       0.2092E-7     1.000        1.738       0.6491   
    5.730       0.2078E-7     1.000        1.840       0.7102   
    5.740       0.2065E-7     1.000        1.957       0.7585   
    5.750       0.2052E-7     1.000        2.090       0.7900   
    5.760       0.2039E-7     1.000        2.239       0.7998   
    5.770       0.2027E-7     1.000        2.400       0.7825   
    5.780       0.2014E-7     1.000        2.570       0.7321   
    5.790       0.2001E-7     1.000        2.742       0.6432   
    5.800       0.1989E-7     1.000        2.907       0.5118   
    5.810       0.1977E-7     1.000        3.051       0.3373   
    5.820       0.1965E-7     1.000        3.161       0.1234   
    5.830       0.1952E-7     1.000        3.226       -.1205   
    5.840       0.1941E-7     1.000        3.236       -.3804   
    5.850       0.1929E-7     1.000        3.189       -.6393   
    5.860       0.1917E-7     1.000        3.089       -.8808   
    5.870       0.1905E-7     1.000        2.946       -1.092   
    5.880       0.1894E-7     1.000        2.772       -1.264   
    5.890       0.1882E-7     1.000        2.580       -1.395   
    5.900       0.1871E-7     1.000        2.382       -1.486   
    5.910       0.1860E-7     1.000        2.188       -1.541   
    5.920       0.1849E-7     1.000        2.002       -1.568   
    5.930       0.1838E-7     1.000        1.829       -1.570   
    5.940       0.1827E-7     1.000        1.670       -1.555   
    5.950       0.1816E-7     1.000        1.526       -1.525   
    5.960       0.1805E-7     1.000        1.397       -1.486   
    5.970       0.1795E-7     1.000        1.281       -1.441   
    5.980       0.1784E-7     1.000        1.177       -1.391   
    5.990       0.1774E-7     1.000        1.085       -1.338   
    6.000       0.1763E-7     1.000        1.003       -1.284   
    6.010       0.1753E-7     1.000       0.9288       -1.229   
    6.020       0.1743E-7     1.000       0.8627       -1.175   
    6.030       0.1733E-7     1.000       0.8035       -1.122   
    6.040       0.1723E-7     1.000       0.7502       -1.070   
    6.050       0.1713E-7     1.000       0.7022       -1.019   
    6.060       0.1703E-7     1.000       0.6588       -.9700   
    6.070       0.1693E-7     1.000       0.6195       -.9223   
    6.080       0.1684E-7     1.000       0.5838       -.8762   
    6.090       0.1674E-7     1.000       0.5513       -.8317   
    6.100       0.1665E-7     1.000       0.5216       -.7888   
    6.110       0.1655E-7     1.000       0.4944       -.7474   
    6.120       0.1646E-7     1.000       0.4694       -.7075   
    6.130       0.1637E-7     1.000       0.4465       -.6691   
    6.140       0.1627E-7     1.000       0.4254       -.6320   
    6.150       0.1618E-7     1.000       0.4058       -.5963   
    6.160       0.1609E-7     1.000       0.3878       -.5618   
    6.170       0.1600E-7     1.000       0.3710       -.5285   
    6.180       0.1591E-7     1.000       0.3554       -.4964   
    6.190       0.1583E-7     1.000       0.3409       -.4654   
    6.200       0.1574E-7     1.000       0.3274       -.4354   
    6.210       0.1565E-7     1.000       0.3147       -.4064   
    6.220       0.1557E-7     1.000       0.3029       -.3783   
    6.230       0.1548E-7     1.000       0.2918       -.3511   
    6.240       0.1540E-7     1.000       0.2814       -.3248   
    6.250       0.1531E-7     1.000       0.2716       -.2993   
    6.260       0.1523E-7     1.000       0.2624       -.2746   
    6.270       0.1515E-7     1.000       0.2537       -.2506   
    6.280       0.1507E-7     1.000       0.2455       -.2273   
    6.290       0.1499E-7     1.000       0.2378       -.2047   
    6.300       0.1491E-7     1.000       0.2305       -.1827   
    6.310       0.1483E-7     1.000       0.2236       -.1613   
    6.320       0.1475E-7     1.000       0.2170       -.1405   
    6.330       0.1467E-7     1.000       0.2108       -.1202   
    6.340       0.1459E-7     1.000       0.2048       -.1005   
    6.350       0.1451E-7     1.000       0.1992       -.8131E-1
    6.360       0.1444E-7     1.000       0.1938       -.6258E-1
    6.370       0.1436E-7     1.000       0.1887       -.4431E-1
    6.380       0.1428E-7     1.000       0.1839       -.2648E-1
    6.390       0.1421E-7     1.000       0.1792       -.9079E-2
    6.400       0.1414E-7     1.000       0.1748       0.7914E-2
    6.410       0.1406E-7     1.000       0.1706       0.2452E-1
    6.420       0.1399E-7     1.000       0.1666       0.4075E-1
    6.430       0.1392E-7     1.000       0.1627       0.5662E-1
    6.440       0.1384E-7     1.000       0.1590       0.7215E-1
    6.450       0.1377E-7     1.000       0.1555       0.8734E-1
    6.460       0.1370E-7     1.000       0.1521       0.1022   
    6.470       0.1363E-7     1.000       0.1488       0.1168   
    6.480       0.1356E-7     1.000       0.1457       0.1311   
    6.490       0.1349E-7     1.000       0.1427       0.1451   
    6.500       0.1342E-7     1.000       0.1398       0.1588   
    6.510       0.1336E-7     1.000       0.1371       0.1723   
    6.520       0.1329E-7     1.000       0.1344       0.1855   
    6.530       0.1322E-7     1.000       0.1319       0.1984   
    6.540       0.1315E-7     1.000       0.1294       0.2112   
    6.550       0.1309E-7     1.000       0.1271       0.2237   
    6.560       0.1302E-7     1.000       0.1248       0.2360   
    6.570       0.1296E-7     1.000       0.1226       0.2481   
    6.580       0.1289E-7     1.000       0.1206       0.2599   
    6.590       0.1283E-7     1.000       0.1185       0.2716   
    6.600       0.1277E-7     1.000       0.1166       0.2831   
    6.610       0.1270E-7     1.000       0.1147       0.2945   
    6.620       0.1264E-7     1.000       0.1130       0.3056   
    6.630       0.1258E-7     1.000       0.1112       0.3166   
    6.640       0.1251E-7     1.000       0.1096       0.3274   
    6.650       0.1245E-7     1.000       0.1080       0.3381   
    6.660       0.1239E-7     1.000       0.1065       0.3486   
    6.670       0.1233E-7     1.000       0.1050       0.3590   
    6.680       0.1227E-7     1.000       0.1036       0.3692   
    6.690       0.1221E-7     1.000       0.1022       0.3793   
    6.700       0.1215E-7     1.000       0.1009       0.3893   
    6.710       0.1209E-7     1.000       0.9966E-1    0.3991   
    6.720       0.1204E-7     1.000       0.9847E-1    0.4088   
    6.730       0.1198E-7     1.000       0.9732E-1    0.4185   
    6.740       0.1192E-7     1.000       0.9623E-1    0.4280   
    6.750       0.1186E-7     1.000       0.9519E-1    0.4374   
    6.760       0.1181E-7     1.000       0.9419E-1    0.4467   
    6.770       0.1175E-7     1.000       0.9325E-1    0.4559   
    6.780       0.1170E-7     1.000       0.9236E-1    0.4650   
    6.790       0.1164E-7     1.000       0.9151E-1    0.4740   
    6.800       0.1158E-7     1.000       0.9072E-1    0.4829   
    6.810       0.1153E-7     1.000       0.8997E-1    0.4918   
    6.820       0.1148E-7     1.000       0.8928E-1    0.5006   
    6.830       0.1142E-7     1.000       0.8863E-1    0.5093   
    6.840       0.1137E-7     1.000       0.8804E-1    0.5179   
    6.850       0.1131E-7     1.000       0.8751E-1    0.5265   
    6.860       0.1126E-7     1.000       0.8703E-1    0.5350   
    6.870       0.1121E-7     1.000       0.8661E-1    0.5435   
    6.880       0.1116E-7     1.000       0.8625E-1    0.5519   
    6.890       0.1111E-7     1.000       0.8596E-1    0.5603   
    6.900       0.1105E-7     1.000       0.8573E-1    0.5686   
    6.910       0.1100E-7     1.000       0.8558E-1    0.5768   
    6.920       0.1095E-7     1.000       0.8551E-1    0.5851   
    6.930       0.1090E-7     1.000       0.8552E-1    0.5933   
    6.940       0.1085E-7     1.000       0.8563E-1    0.6014   
    6.950       0.1080E-7     1.000       0.8584E-1    0.6096   
    6.960       0.1075E-7     1.000       0.8616E-1    0.6177   
    6.970       0.1071E-7     1.000       0.8661E-1    0.6257   
    6.980       0.1066E-7     1.000       0.8719E-1    0.6337   
    6.990       0.1061E-7     1.000       0.8793E-1    0.6417   
    7.000       0.1056E-7     1.000       0.8883E-1    0.6496   
    7.010       0.1051E-7     1.000       0.8993E-1    0.6575   
    7.020       0.1047E-7     1.000       0.9123E-1    0.6652   
    7.030       0.1042E-7     1.000       0.9277E-1    0.6729   
    7.040       0.1037E-7     1.000       0.9456E-1    0.6804   
    7.050       0.1033E-7     1.000       0.9661E-1    0.6877   
    7.060       0.1028E-7     1.000       0.9894E-1    0.6947   
    7.070       0.1023E-7     1.000       0.1015       0.7014   
    7.080       0.1019E-7     1.000       0.1044       0.7076   
    7.090       0.1014E-7     1.000       0.1074       0.7134   
    7.100       0.1010E-7     1.000       0.1105       0.7185   
    7.110       0.1005E-7     1.000       0.1136       0.7229   
    7.120       0.1001E-7     1.000       0.1163       0.7266   
    7.130       0.9966E-8     1.000       0.1187       0.7296   
    7.140       0.9922E-8     1.000       0.1202       0.7320   
    7.150       0.9879E-8     1.000       0.1210       0.7340   
    7.160       0.9836E-8     1.000       0.1207       0.7360   
    7.170       0.9793E-8     1.000       0.1196       0.7383   
    7.180       0.9751E-8     1.000       0.1176       0.7410   
    7.190       0.9708E-8     1.000       0.1151       0.7443   
    7.200       0.9667E-8     1.000       0.1122       0.7484   
    7.210       0.9625E-8     1.000       0.1092       0.7532   
    7.220       0.9583E-8     1.000       0.1062       0.7587   
    7.230       0.9542E-8     1.000       0.1034       0.7647   
    7.240       0.9501E-8     1.000       0.1008       0.7713   
    7.250       0.9461E-8     1.000       0.9852E-1    0.7782   
    7.260       0.9420E-8     1.000       0.9652E-1    0.7854   
    7.270       0.9380E-8     1.000       0.9480E-1    0.7928   
    7.280       0.9340E-8     1.000       0.9338E-1    0.8005   
    7.290       0.9301E-8     1.000       0.9222E-1    0.8082   
    7.300       0.9262E-8     1.000       0.9131E-1    0.8161   
    7.310       0.9222E-8     1.000       0.9063E-1    0.8241   
    7.320       0.9184E-8     1.000       0.9017E-1    0.8321   
    7.330       0.9145E-8     1.000       0.8992E-1    0.8403   
    7.340       0.9107E-8     1.000       0.8985E-1    0.8485   
    7.350       0.9069E-8     1.000       0.8997E-1    0.8567   
    7.360       0.9031E-8     1.000       0.9027E-1    0.8650   
    7.370       0.8993E-8     1.000       0.9073E-1    0.8734   
    7.380       0.8956E-8     1.000       0.9137E-1    0.8819   
    7.390       0.8918E-8     1.000       0.9217E-1    0.8904   
    7.400       0.8881E-8     1.000       0.9314E-1    0.8990   
    7.410       0.8845E-8     1.000       0.9428E-1    0.9078   
    7.420       0.8808E-8     1.000       0.9560E-1    0.9166   
    7.430       0.8772E-8     1.000       0.9710E-1    0.9255   
    7.440       0.8736E-8     1.000       0.9879E-1    0.9346   
    7.450       0.8700E-8     1.000       0.1007       0.9438   
    7.460       0.8665E-8     1.000       0.1028       0.9531   
    7.470       0.8629E-8     1.000       0.1052       0.9626   
    7.480       0.8594E-8     1.000       0.1078       0.9723   
    7.490       0.8559E-8     1.000       0.1106       0.9822   
    7.500       0.8524E-8     1.000       0.1138       0.9922   
    7.510       0.8490E-8     1.000       0.1173        1.002   
    7.520       0.8456E-8     1.000       0.1211        1.013   
    7.530       0.8421E-8     1.000       0.1254        1.024   
    7.540       0.8387E-8     1.000       0.1301        1.035   
    7.550       0.8354E-8     1.000       0.1353        1.046   
    7.560       0.8320E-8     1.000       0.1410        1.057   
    7.570       0.8287E-8     1.000       0.1474        1.069   
    7.580       0.8254E-8     1.000       0.1544        1.081   
    7.590       0.8221E-8     1.000       0.1623        1.093   
    7.600       0.8188E-8     1.000       0.1710        1.106   
    7.610       0.8156E-8     1.000       0.1807        1.119   
    7.620       0.8124E-8     1.000       0.1916        1.132   
    7.630       0.8091E-8     1.000       0.2038        1.145   
    7.640       0.8059E-8     1.000       0.2174        1.159   
    7.650       0.8028E-8     1.000       0.2328        1.172   
    7.660       0.7996E-8     1.000       0.2500        1.186   
    7.670       0.7965E-8     1.000       0.2694        1.199   
    7.680       0.7934E-8     1.000       0.2913        1.211   
    7.690       0.7903E-8     1.000       0.3159        1.223   
    7.700       0.7872E-8     1.000       0.3435        1.233   
    7.710       0.7841E-8     1.000       0.3745        1.241   
    7.720       0.7811E-8     1.000       0.4088        1.246   
    7.730       0.7780E-8     1.000       0.4466        1.247   
    7.740       0.7750E-8     1.000       0.4876        1.244   
    7.750       0.7720E-8     1.000       0.5313        1.233   
    7.760       0.7691E-8     1.000       0.5764        1.215   
    7.770       0.7661E-8     1.000       0.6212        1.188   
    7.780       0.7632E-8     1.000       0.6632        1.151   
    7.790       0.7602E-8     1.000       0.6995        1.104   
    7.800       0.7573E-8     1.000       0.7268        1.048   
    7.810       0.7544E-8     1.000       0.7424       0.9860   
    7.820       0.7516E-8     1.000       0.7446       0.9214   
    7.830       0.7487E-8     1.000       0.7331       0.8583   
    7.840       0.7459E-8     1.000       0.7093       0.8004   
    7.850       0.7430E-8     1.000       0.6756       0.7507   
    7.860       0.7402E-8     1.000       0.6353       0.7107   
    7.870       0.7374E-8     1.000       0.5914       0.6807   
    7.880       0.7347E-8     1.000       0.5465       0.6602   
    7.890       0.7319E-8     1.000       0.5026       0.6481   
    7.900       0.7291E-8     1.000       0.4611       0.6428   
    7.910       0.7264E-8     1.000       0.4226       0.6431   
    7.920       0.7237E-8     1.000       0.3876       0.6476   
    7.930       0.7210E-8     1.000       0.3561       0.6553   
    7.940       0.7183E-8     1.000       0.3279       0.6652   
    7.950       0.7156E-8     1.000       0.3028       0.6768   
    7.960       0.7130E-8     1.000       0.2806       0.6895   
    7.970       0.7103E-8     1.000       0.2609       0.7029   
    7.980       0.7077E-8     1.000       0.2434       0.7168   
    7.990       0.7051E-8     1.000       0.2280       0.7308   
    8.000       0.7025E-8     1.000       0.2143       0.7448   
    8.010       0.6999E-8     1.000       0.2022       0.7588   
    8.020       0.6973E-8     1.000       0.1914       0.7727   
    8.030       0.6948E-8     1.000       0.1819       0.7863   
    8.040       0.6923E-8     1.000       0.1734       0.7998   
    8.050       0.6897E-8     1.000       0.1658       0.8130   
    8.060       0.6872E-8     1.000       0.1591       0.8260   
    8.070       0.6847E-8     1.000       0.1531       0.8387   
    8.080       0.6822E-8     1.000       0.1478       0.8513   
    8.090       0.6798E-8     1.000       0.1431       0.8636   
    8.100       0.6773E-8     1.000       0.1389       0.8757   
    8.110       0.6748E-8     1.000       0.1352       0.8876   
    8.120       0.6724E-8     1.000       0.1320       0.8993   
    8.130       0.6700E-8     1.000       0.1291       0.9109   
    8.140       0.6676E-8     1.000       0.1267       0.9223   
    8.150       0.6652E-8     1.000       0.1246       0.9336   
    8.160       0.6628E-8     1.000       0.1228       0.9448   
    8.170       0.6604E-8     1.000       0.1213       0.9559   
    8.180       0.6581E-8     1.000       0.1202       0.9669   
    8.190       0.6557E-8     1.000       0.1193       0.9778   
    8.200       0.6534E-8     1.000       0.1187       0.9887   
    8.210       0.6511E-8     1.000       0.1183       0.9996   
    8.220       0.6488E-8     1.000       0.1183        1.010   
    8.230       0.6465E-8     1.000       0.1185        1.021   
    8.240       0.6442E-8     1.000       0.1189        1.032   
    8.250       0.6420E-8     1.000       0.1197        1.043   
    8.260       0.6397E-8     1.000       0.1207        1.054   
    8.270       0.6375E-8     1.000       0.1220        1.065   
    8.280       0.6352E-8     1.000       0.1237        1.076   
    8.290       0.6330E-8     1.000       0.1257        1.087   
    8.300       0.6308E-8     1.000       0.1280        1.098   
    8.310       0.6286E-8     1.000       0.1308        1.109   
    8.320       0.6264E-8     1.000       0.1339        1.121   
    8.330       0.6242E-8     1.000       0.1376        1.132   
    8.340       0.6221E-8     1.000       0.1417        1.144   
    8.350       0.6199E-8     1.000       0.1464        1.156   
    8.360       0.6178E-8     1.000       0.1517        1.167   
    8.370       0.6156E-8     1.000       0.1576        1.179   
    8.380       0.6135E-8     1.000       0.1643        1.191   
    8.390       0.6114E-8     1.000       0.1718        1.203   
    8.400       0.6093E-8     1.000       0.1802        1.214   
    8.410       0.6072E-8     1.000       0.1894        1.226   
    8.420       0.6051E-8     1.000       0.1997        1.237   
    8.430       0.6031E-8     1.000       0.2110        1.248   
    8.440       0.6010E-8     1.000       0.2235        1.259   
    8.450       0.5990E-8     1.000       0.2372        1.269   
    8.460       0.5969E-8     1.000       0.2523        1.279   
    8.470       0.5949E-8     1.000       0.2690        1.288   
    8.480       0.5929E-8     1.000       0.2875        1.295   
    8.490       0.5909E-8     1.000       0.3080        1.302   
    8.500       0.5889E-8     1.000       0.3305        1.306   
    8.510       0.5869E-8     1.000       0.3550        1.307   
    8.520       0.5850E-8     1.000       0.3812        1.304   
    8.530       0.5830E-8     1.000       0.4084        1.297   
    8.540       0.5810E-8     1.000       0.4355        1.284   
    8.550       0.5791E-8     1.000       0.4610        1.266   
    8.560       0.5772E-8     1.000       0.4832        1.241   
    8.570       0.5752E-8     1.000       0.5000        1.211   
    8.580       0.5733E-8     1.000       0.5097        1.177   
    8.590       0.5714E-8     1.000       0.5111        1.141   
    8.600       0.5695E-8     1.000       0.5042        1.107   
    8.610       0.5676E-8     1.000       0.4896        1.075   
    8.620       0.5658E-8     1.000       0.4690        1.049   
    8.630       0.5639E-8     1.000       0.4442        1.028   
    8.640       0.5620E-8     1.000       0.4172        1.014   
    8.650       0.5602E-8     1.000       0.3897        1.006   
    8.660       0.5583E-8     1.000       0.3627        1.003   
    8.670       0.5565E-8     1.000       0.3373        1.005   
    8.680       0.5547E-8     1.000       0.3138        1.010   
    8.690       0.5529E-8     1.000       0.2924        1.017   
    8.700       0.5511E-8     1.000       0.2733        1.027   
    8.710       0.5493E-8     1.000       0.2563        1.038   
    8.720       0.5475E-8     1.000       0.2413        1.051   
    8.730       0.5457E-8     1.000       0.2280        1.064   
    8.740       0.5439E-8     1.000       0.2164        1.077   
    8.750       0.5422E-8     1.000       0.2063        1.091   
    8.760       0.5404E-8     1.000       0.1974        1.105   
    8.770       0.5387E-8     1.000       0.1897        1.119   
    8.780       0.5369E-8     1.000       0.1829        1.134   
    8.790       0.5352E-8     1.000       0.1771        1.148   
    8.800       0.5335E-8     1.000       0.1720        1.162   
    8.810       0.5318E-8     1.000       0.1677        1.176   
    8.820       0.5301E-8     1.000       0.1639        1.190   
    8.830       0.5284E-8     1.000       0.1608        1.204   
    8.840       0.5267E-8     1.000       0.1581        1.218   
    8.850       0.5250E-8     1.000       0.1559        1.232   
    8.860       0.5234E-8     1.000       0.1541        1.246   
    8.870       0.5217E-8     1.000       0.1527        1.260   
    8.880       0.5200E-8     1.000       0.1517        1.274   
    8.890       0.5184E-8     1.000       0.1509        1.288   
    8.900       0.5168E-8     1.000       0.1505        1.302   
    8.910       0.5151E-8     1.000       0.1503        1.316   
    8.920       0.5135E-8     1.000       0.1504        1.330   
    8.930       0.5119E-8     1.000       0.1508        1.344   
    8.940       0.5103E-8     1.000       0.1514        1.359   
    8.950       0.5087E-8     1.000       0.1523        1.373   
    8.960       0.5071E-8     1.000       0.1534        1.388   
    8.970       0.5055E-8     1.000       0.1547        1.402   
    8.980       0.5039E-8     1.000       0.1562        1.417   
    8.990       0.5024E-8     1.000       0.1579        1.432   
    9.000       0.5008E-8     1.000       0.1599        1.447   
    9.010       0.4992E-8     1.000       0.1621        1.462   
    9.020       0.4977E-8     1.000       0.1645        1.478   
    9.030       0.4962E-8     1.000       0.1671        1.494   
    9.040       0.4946E-8     1.000       0.1700        1.510   
    9.050       0.4931E-8     1.000       0.1731        1.526   
    9.060       0.4916E-8     1.000       0.1765        1.543   
    9.070       0.4901E-8     1.000       0.1801        1.559   
    9.080       0.4886E-8     1.000       0.1840        1.577   
    9.090       0.4871E-8     1.000       0.1882        1.594   
    9.100       0.4856E-8     1.000       0.1926        1.612   
    9.110       0.4841E-8     1.000       0.1974        1.631   
    9.120       0.4826E-8     1.000       0.2025        1.649   
    9.130       0.4811E-8     1.000       0.2080        1.669   
    9.140       0.4797E-8     1.000       0.2139        1.688   
    9.150       0.4782E-8     1.000       0.2201        1.709   
    9.160       0.4768E-8     1.000       0.2268        1.729   
    9.170       0.4753E-8     1.000       0.2339        1.751   
    9.180       0.4739E-8     1.000       0.2416        1.773   
    9.190       0.4724E-8     1.000       0.2498        1.795   
    9.200       0.4710E-8     1.000       0.2585        1.818   
    9.210       0.4696E-8     1.000       0.2679        1.842   
    9.220       0.4682E-8     1.000       0.2781        1.867   
    9.230       0.4668E-8     1.000       0.2889        1.892   
    9.240       0.4654E-8     1.000       0.3006        1.918   
    9.250       0.4640E-8     1.000       0.3132        1.946   
    9.260       0.4626E-8     1.000       0.3269        1.974   
    9.270       0.4612E-8     1.000       0.3416        2.003   
    9.280       0.4598E-8     1.000       0.3575        2.033   
    9.290       0.4585E-8     1.000       0.3749        2.064   
    9.300       0.4571E-8     1.000       0.3937        2.096   
    9.310       0.4557E-8     1.000       0.4143        2.129   
    9.320       0.4544E-8     1.000       0.4367        2.163   
    9.330       0.4531E-8     1.000       0.4613        2.199   
    9.340       0.4517E-8     1.000       0.4883        2.236   
    9.350       0.4504E-8     1.000       0.5180        2.274   
    9.360       0.4491E-8     1.000       0.5507        2.313   
    9.370       0.4477E-8     1.000       0.5869        2.354   
    9.380       0.4464E-8     1.000       0.6270        2.395   
    9.390       0.4451E-8     1.000       0.6716        2.437   
    9.400       0.4438E-8     1.000       0.7211        2.480   
    9.410       0.4425E-8     1.000       0.7764        2.523   
    9.420       0.4412E-8     1.000       0.8381        2.565   
    9.430       0.4399E-8     1.000       0.9069        2.606   
    9.440       0.4386E-8     1.000       0.9837        2.646   
    9.450       0.4374E-8     1.000        1.069        2.681   
    9.460       0.4361E-8     1.000        1.164        2.711   
    9.470       0.4348E-8     1.000        1.268        2.733   
    9.480       0.4336E-8     1.000        1.382        2.745   
    9.490       0.4323E-8     1.000        1.504        2.743   
    9.500       0.4311E-8     1.000        1.632        2.724   
    9.510       0.4298E-8     1.000        1.763        2.684   
    9.520       0.4286E-8     1.000        1.891        2.621   
    9.530       0.4274E-8     1.000        2.009        2.534   
    9.540       0.4261E-8     1.000        2.110        2.425   
    9.550       0.4249E-8     1.000        2.186        2.299   
    9.560       0.4237E-8     1.000        2.231        2.163   
    9.570       0.4225E-8     1.000        2.244        2.029   
    9.580       0.4213E-8     1.000        2.227        1.906   
    9.590       0.4201E-8     1.000        2.185        1.802   
    9.600       0.4189E-8     1.000        2.126        1.723   
    9.610       0.4177E-8     1.000        2.059        1.671   
    9.620       0.4165E-8     1.000        1.991        1.646   
    9.630       0.4153E-8     1.000        1.928        1.645   
    9.640       0.4142E-8     1.000        1.876        1.665   
    9.650       0.4130E-8     1.000        1.837        1.701   
    9.660       0.4118E-8     1.000        1.813        1.751   
    9.670       0.4107E-8     1.000        1.806        1.812   
    9.680       0.4095E-8     1.000        1.817        1.879   
    9.690       0.4084E-8     1.000        1.846        1.952   
    9.700       0.4072E-8     1.000        1.895        2.027   
    9.710       0.4061E-8     1.000        1.964        2.102   
    9.720       0.4049E-8     1.000        2.054        2.175   
    9.730       0.4038E-8     1.000        2.166        2.242   
    9.740       0.4027E-8     1.000        2.301        2.301   
    9.750       0.4016E-8     1.000        2.461        2.346   
    9.760       0.4004E-8     1.000        2.645        2.373   
    9.770       0.3993E-8     1.000        2.854        2.374   
    9.780       0.3982E-8     1.000        3.085        2.343   
    9.790       0.3971E-8     1.000        3.334        2.271   
    9.800       0.3960E-8     1.000        3.593        2.149   
    9.810       0.3949E-8     1.000        3.851        1.969   
    9.820       0.3938E-8     1.000        4.091        1.727   
    9.830       0.3927E-8     1.000        4.296        1.423   
    9.840       0.3917E-8     1.000        4.445        1.067   
    9.850       0.3906E-8     1.000        4.522       0.6737   
    9.860       0.3895E-8     1.000        4.516       0.2664   
    9.870       0.3885E-8     1.000        4.428       -.1300   
    9.880       0.3874E-8     1.000        4.265       -.4924   
    9.890       0.3863E-8     1.000        4.045       -.8041   
    9.900       0.3853E-8     1.000        3.786       -1.056   
    9.910       0.3842E-8     1.000        3.508       -1.246   
    9.920       0.3832E-8     1.000        3.226       -1.380   
    9.930       0.3821E-8     1.000        2.951       -1.463   
    9.940       0.3811E-8     1.000        2.692       -1.505   
    9.950       0.3801E-8     1.000        2.453       -1.514   
    9.960       0.3790E-8     1.000        2.235       -1.499   
    9.970       0.3780E-8     1.000        2.039       -1.464   
    9.980       0.3770E-8     1.000        1.864       -1.417   
    9.990       0.3760E-8     1.000        1.708       -1.360   
    10.00       0.3750E-8     1.000        1.570       -1.296   
# 
# 03/14/2019 at 10:15 YAMBO @ bacalhau [start]
# 03/14/2019 at 10:15                  [end]
#  
# Timing   [Min/Max/Average]: 12s/12s/12s
#
# .-Input file : yambo.in
# | optics                         # [R OPT] Optics
# | bse                            # [R BSE] Bethe Salpeter Equation.
# | bss                            # [R BSS] Bethe Salpeter Equation solver
# | em1s                           # [R Xs] Static Inverse Dielectric Matrix
# | BoseTemp= 0.000000     eV      # Bosonic Temperature
# | FFTGvecs=  3473        RL      # [FFT] Plane-waves
# | X_Threads= 1                   # [OPENMP/X] Number of threads for response functions
# | DIP_Threads= 1                 # [OPENMP/X] Number of threads for dipoles
# | K_Threads= 1                   # [OPENMP/BSK] Number of threads for response functions
# | Chimod= "HARTREE"              # [X] IP/Hartree/ALDA/LRC/PF/BSfxc
# | BSEmod= "resonant"             # [BSE] resonant/retarded/coupling
# | BSKmod= "SEX"                  # [BSE] IP/Hartree/HF/ALDA/SEX/BSfxc
# | BSSmod= "s"                    # [BSS] (h)aydock/(d)iagonalization/(i)nversion/(t)ddft`
# | BSENGexx=  51          RL      # [BSK] Exchange components
# | BSENGBlk=  51          RL      # [BSK] Screened interaction block size
# | #WehCpl                        # [BSK] eh interaction included also in coupling
# | % BSEQptR
# |   1 |  4 |                     # [BSK] Transferred momenta range
# | %
# | % BSEBands
# |   3 | 10 |                     # [BSK] Bands range
# | %
# | % BEnRange
# | -10.00000 | 10.00000 | eV      # [BSS] Energy range
# | %
# | % BDmRange
# |   0.10000 |  0.10000 | eV      # [BSS] Damping range
# | %
# | BEnSteps= 2001                 # [BSS] Energy steps
# | % BLongDir
# | 0.5774E-5 |0.5774E-5 |0.5774E-5 |        # [BSS] [cc] Electric Field
# | %
# | BSSNEig=  5                    # [SLEPC] Number of eigenvalues to compute
# | % BndsRnXs
# |    1 |  60 |                   # [Xs] Polarization function bands
# | %
# | NGsBlkXs=  51          RL      # [Xs] Response block size
# | % DmRngeXs
# | 0.1000E-2 |0.1000E-2 | eV      # [Xs] Damping range
# | %
# | % LongDrXs
# | 0.1000E-4 | 0.000    | 0.000    |        # [Xs] [cc] Electric Field
# | %
