#                                                           
#  /$$     /$$ /$$$$$$  /$$      /$$ /$$$$$$$   /$$$$$$     
# |  $$   /$$//$$__  $$| $$$    /$$$| $$__  $$ /$$__  $$    
#  \  $$ /$$/| $$  \ $$| $$$$  /$$$$| $$  \ $$| $$  \ $$    
#   \  $$$$/ | $$$$$$$$| $$ $$/$$ $$| $$$$$$$ | $$  | $$    
#    \  $$/  | $$__  $$| $$  $$$| $$| $$__  $$| $$  | $$    
#     | $$   | $$  | $$| $$\  $ | $$| $$  \ $$| $$  | $$    
#     | $$   | $$  | $$| $$ \/  | $$| $$$$$$$/|  $$$$$$/    
#     |__/   |__/  |__/|__/     |__/|_______/  \______/     
#                                                           
#       Version 4.3.0 Revision 15341 Hash c146fb2           
#                     MPI+SLK Build                         
#               http://www.yambo-code.org                   
#
# Joint density of states @ Q(1) [q->0 direction] :0.5774E-5 0.5774E-5 0.5774E-5
#
# - Energies      are Teter 93(XC)
# - The Green`s function is Resonant -
#
#   BSK|Identifier              :932
#      |Dimension               :96
#      |Bands                   :3 - 10
#      |Exchange           [res]: yes
#      |Correlation        [res]: yes
#      |Kernel`s coupling       : no
#      |Exchange           [cpl]: no
#      |Correlation        [cpl]: no
#      |W interaction is bare   : no
#      |ALDA kernel in R-space  : no
#      |RL vectors    [exchange]:51
#      |RL vectors [correlation]:51
#      |E/h energy range    [ev]:-1.000000 - -1.000000
#      |Coupling range     [o/o]: 100.0000 -  100.0000
#    W |Interaction is diagonal : no
#      |Matrix size             :51
#      |Bands                   :1 - 60
#      |e/h energy range    [ev]:-1.000000 - -1.000000
#      |Poles              [o/o]: 100.0000
#      |RL vectors in the sum   :3473
#      |[r,Vnl] included        : yes
#      |Field direction         :0.1000E-4  0.000000  0.000000
#      |Coulomb Cutoff          :none
#      |xc-Kernel               :none
#   RIM|RL components      [col]:0
#      |Random points      [col]:0
#
#    E/ev[1]      jdos-Im[2]   jdos-Re[3]   jdoso-Im[4]  jdoso-Re[5]  jdos`-Im[6]  jdos`-Re[7]
#
   -10.00000      0.01055      1.88633      0.01007      1.85102
    -9.99000      0.01056      1.88739      0.01008      1.85203
    -9.98000      0.01057      1.88844      0.01009      1.85304
    -9.97000      0.01058      1.88950      0.01010      1.85405
    -9.96000      0.01060      1.89056      0.01012      1.85506
    -9.95000      0.01061      1.89162      0.01013      1.85607
    -9.94000      0.01062      1.89268      0.01014      1.85709
    -9.93000      0.01063      1.89374      0.01015      1.85810
    -9.92000      0.01064      1.89481      0.01016      1.85912
    -9.91000      0.01066      1.89587      0.01017      1.86013
    -9.90000      0.01067      1.89694      0.01018      1.86115
    -9.89000      0.01068      1.89801      0.01020      1.86217
    -9.88000      0.01069      1.89907      0.01021      1.86319
    -9.87000      0.01071      1.90014      0.01022      1.86421
    -9.86000      0.01072      1.90122      0.01023      1.86523
    -9.85000      0.01073      1.90229      0.01024      1.86626
    -9.84000      0.01074      1.90336      0.01025      1.86728
    -9.83000      0.01076      1.90444      0.01027      1.86831
    -9.82000      0.01077      1.90551      0.01028      1.86933
    -9.81000      0.01078      1.90659      0.01029      1.87036
    -9.80000      0.01079      1.90767      0.01030      1.87139
    -9.79000      0.01081      1.90875      0.01031      1.87242
    -9.78000      0.01082      1.90983      0.01032      1.87345
    -9.77000      0.01083      1.91091      0.01034      1.87449
    -9.76000      0.01085      1.91200      0.01035      1.87552
    -9.75000      0.01086      1.91308      0.01036      1.87656
    -9.74000      0.01087      1.91417      0.01037      1.87759
    -9.73000      0.01088      1.91526      0.01038      1.87863
    -9.72000      0.01090      1.91635      0.01039      1.87967
    -9.71000      0.01091      1.91744      0.01041      1.88071
    -9.70000      0.01092      1.91853      0.01042      1.88175
    -9.69000      0.01094      1.91962      0.01043      1.88279
    -9.68000      0.01095      1.92071      0.01044      1.88384
    -9.67000      0.01096      1.92181      0.01045      1.88488
    -9.66000      0.01097      1.92291      0.01047      1.88592
    -9.65000      0.01099      1.92401      0.01048      1.88697
    -9.64000      0.01100      1.92510      0.01049      1.88802
    -9.63000      0.01101      1.92620      0.01050      1.88907
    -9.62000      0.01103      1.92731      0.01051      1.89012
    -9.61000      0.01104      1.92841      0.01053      1.89117
    -9.60000      0.01105      1.92951      0.01054      1.89223
    -9.59000      0.01107      1.93062      0.01055      1.89328
    -9.58000      0.01108      1.93173      0.01056      1.89434
    -9.57000      0.01109      1.93284      0.01057      1.89539
    -9.56000      0.01111      1.93395      0.01059      1.89645
    -9.55000      0.01112      1.93506      0.01060      1.89751
    -9.54000      0.01113      1.93617      0.01061      1.89857
    -9.53000      0.01115      1.93728      0.01062      1.89963
    -9.52000      0.01116      1.93840      0.01063      1.90069
    -9.51000      0.01117      1.93952      0.01065      1.90176
    -9.50000      0.01119      1.94063      0.01066      1.90282
    -9.49000      0.01120      1.94175      0.01067      1.90389
    -9.48000      0.01121      1.94287      0.01068      1.90496
    -9.47000      0.01123      1.94399      0.01070      1.90603
    -9.46000      0.01124      1.94512      0.01071      1.90710
    -9.45000      0.01125      1.94624      0.01072      1.90817
    -9.44000      0.01127      1.94737      0.01073      1.90924
    -9.43000      0.01128      1.94850      0.01075      1.91031
    -9.42000      0.01129      1.94962      0.01076      1.91139
    -9.41000      0.01131      1.95075      0.01077      1.91247
    -9.40000      0.01132      1.95188      0.01078      1.91354
    -9.39000      0.01133      1.95302      0.01080      1.91462
    -9.38000      0.01135      1.95415      0.01081      1.91570
    -9.37000      0.01136      1.95529      0.01082      1.91678
    -9.36000      0.01138      1.95642      0.01083      1.91787
    -9.35000      0.01139      1.95756      0.01085      1.91895
    -9.34000      0.01140      1.95870      0.01086      1.92004
    -9.33000      0.01142      1.95984      0.01087      1.92112
    -9.32000      0.01143      1.96098      0.01088      1.92221
    -9.31000      0.01144      1.96213      0.01090      1.92330
    -9.30000      0.01146      1.96327      0.01091      1.92439
    -9.29000      0.01147      1.96442      0.01092      1.92548
    -9.28000      0.01149      1.96557      0.01093      1.92657
    -9.27000      0.01150      1.96672      0.01095      1.92767
    -9.26000      0.01151      1.96787      0.01096      1.92876
    -9.25000      0.01153      1.96902      0.01097      1.92986
    -9.24000      0.01154      1.97017      0.01099      1.93096
    -9.23000      0.01156      1.97133      0.01100      1.93205
    -9.22000      0.01157      1.97248      0.01101      1.93316
    -9.21000      0.01158      1.97364      0.01102      1.93426
    -9.20000      0.01160      1.97480      0.01104      1.93536
    -9.19000      0.01161      1.97596      0.01105      1.93647
    -9.18000      0.01163      1.97712      0.01106      1.93757
    -9.17000      0.01164      1.97829      0.01108      1.93868
    -9.16000      0.01166      1.97945      0.01109      1.93979
    -9.15000      0.01167      1.98062      0.01110      1.94089
    -9.14000      0.01168      1.98178      0.01112      1.94201
    -9.13000      0.01170      1.98295      0.01113      1.94312
    -9.12000      0.01171      1.98412      0.01114      1.94423
    -9.11000      0.01173      1.98530      0.01116      1.94535
    -9.10000      0.01174      1.98647      0.01117      1.94646
    -9.09000      0.01176      1.98764      0.01118      1.94758
    -9.08000      0.01177      1.98882      0.01119      1.94870
    -9.07000      0.01178      1.99000      0.01121      1.94982
    -9.06000      0.01180      1.99118      0.01122      1.95094
    -9.05000      0.01181      1.99236      0.01123      1.95206
    -9.04000      0.01183      1.99354      0.01125      1.95319
    -9.03000      0.01184      1.99472      0.01126      1.95431
    -9.02000      0.01186      1.99591      0.01127      1.95544
    -9.01000      0.01187      1.99709      0.01129      1.95657
    -9.00000      0.01189      1.99828      0.01130      1.95770
    -8.99000      0.01190      1.99947      0.01131      1.95883
    -8.98000      0.01192      2.00066      0.01133      1.95996
    -8.97000      0.01193      2.00186      0.01134      1.96109
    -8.96000      0.01195      2.00305      0.01136      1.96223
    -8.95000      0.01196      2.00424      0.01137      1.96336
    -8.94000      0.01198      2.00544      0.01138      1.96450
    -8.93000      0.01199      2.00664      0.01140      1.96564
    -8.92000      0.01201      2.00784      0.01141      1.96678
    -8.91000      0.01202      2.00904      0.01142      1.96792
    -8.90000      0.01204      2.01024      0.01144      1.96906
    -8.89000      0.01205      2.01145      0.01145      1.97021
    -8.88000      0.01207      2.01265      0.01146      1.97135
    -8.87000      0.01208      2.01386      0.01148      1.97250
    -8.86000      0.01210      2.01507      0.01149      1.97365
    -8.85000      0.01211      2.01628      0.01151      1.97480
    -8.84000      0.01213      2.01749      0.01152      1.97595
    -8.83000      0.01214      2.01870      0.01153      1.97710
    -8.82000      0.01216      2.01992      0.01155      1.97826
    -8.81000      0.01217      2.02114      0.01156      1.97941
    -8.80000      0.01219      2.02235      0.01158      1.98057
    -8.79000      0.01220      2.02357      0.01159      1.98173
    -8.78000      0.01222      2.02479      0.01160      1.98289
    -8.77000      0.01223      2.02602      0.01162      1.98405
    -8.76000      0.01225      2.02724      0.01163      1.98521
    -8.75000      0.01226      2.02847      0.01165      1.98637
    -8.74000      0.01228      2.02969      0.01166      1.98754
    -8.73000      0.01230      2.03092      0.01167      1.98871
    -8.72000      0.01231      2.03215      0.01169      1.98987
    -8.71000      0.01233      2.03338      0.01170      1.99104
    -8.70000      0.01234      2.03462      0.01172      1.99221
    -8.69000      0.01236      2.03585      0.01173      1.99339
    -8.68000      0.01237      2.03709      0.01174      1.99456
    -8.67000      0.01239      2.03833      0.01176      1.99574
    -8.66000      0.01240      2.03957      0.01177      1.99691
    -8.65000      0.01242      2.04081      0.01179      1.99809
    -8.64000      0.01244      2.04205      0.01180      1.99927
    -8.63000      0.01245      2.04329      0.01182      2.00045
    -8.62000      0.01247      2.04454      0.01183      2.00163
    -8.61000      0.01248      2.04579      0.01185      2.00282
    -8.60000      0.01250      2.04704      0.01186      2.00400
    -8.59000      0.01252      2.04829      0.01187      2.00519
    -8.58000      0.01253      2.04954      0.01189      2.00638
    -8.57000      0.01255      2.05079      0.01190      2.00756
    -8.56000      0.01256      2.05205      0.01192      2.00876
    -8.55000      0.01258      2.05330      0.01193      2.00995
    -8.54000      0.01260      2.05456      0.01195      2.01114
    -8.53000      0.01261      2.05582      0.01196      2.01234
    -8.52000      0.01263      2.05709      0.01198      2.01353
    -8.51000      0.01264      2.05835      0.01199      2.01473
    -8.50000      0.01266      2.05961      0.01201      2.01593
    -8.49000      0.01268      2.06088      0.01202      2.01713
    -8.48000      0.01269      2.06215      0.01204      2.01833
    -8.47000      0.01271      2.06342      0.01205      2.01954
    -8.46000      0.01273      2.06469      0.01206      2.02075
    -8.45000      0.01274      2.06596      0.01208      2.02195
    -8.44000      0.01276      2.06724      0.01209      2.02316
    -8.43000      0.01277      2.06851      0.01211      2.02437
    -8.42000      0.01279      2.06979      0.01212      2.02558
    -8.41000      0.01281      2.07107      0.01214      2.02680
    -8.40000      0.01282      2.07235      0.01215      2.02801
    -8.39000      0.01284      2.07364      0.01217      2.02923
    -8.38000      0.01286      2.07492      0.01218      2.03045
    -8.37000      0.01287      2.07621      0.01220      2.03166
    -8.36000      0.01289      2.07750      0.01222      2.03288
    -8.35000      0.01291      2.07879      0.01223      2.03411
    -8.34000      0.01292      2.08008      0.01225      2.03533
    -8.33000      0.01294      2.08137      0.01226      2.03655
    -8.32000      0.01296      2.08267      0.01228      2.03778
    -8.31000      0.01297      2.08396      0.01229      2.03901
    -8.30000      0.01299      2.08526      0.01231      2.04024
    -8.29000      0.01301      2.08656      0.01232      2.04147
    -8.28000      0.01303      2.08786      0.01234      2.04270
    -8.27000      0.01304      2.08917      0.01235      2.04394
    -8.26000      0.01306      2.09047      0.01237      2.04517
    -8.25000      0.01308      2.09178      0.01238      2.04641
    -8.24000      0.01309      2.09309      0.01240      2.04765
    -8.23000      0.01311      2.09440      0.01241      2.04889
    -8.22000      0.01313      2.09571      0.01243      2.05013
    -8.21000      0.01314      2.09702      0.01245      2.05138
    -8.20000      0.01316      2.09834      0.01246      2.05262
    -8.19000      0.01318      2.09965      0.01248      2.05387
    -8.18000      0.01320      2.10097      0.01249      2.05512
    -8.17000      0.01321      2.10229      0.01251      2.05637
    -8.16000      0.01323      2.10361      0.01252      2.05762
    -8.15000      0.01325      2.10494      0.01254      2.05887
    -8.14000      0.01327      2.10626      0.01256      2.06013
    -8.13000      0.01328      2.10759      0.01257      2.06138
    -8.12000      0.01330      2.10892      0.01259      2.06264
    -8.11000      0.01332      2.11025      0.01260      2.06390
    -8.10000      0.01334      2.11158      0.01262      2.06516
    -8.09000      0.01335      2.11292      0.01264      2.06642
    -8.08000      0.01337      2.11425      0.01265      2.06769
    -8.07000      0.01339      2.11559      0.01267      2.06895
    -8.06000      0.01341      2.11693      0.01268      2.07022
    -8.05000      0.01342      2.11827      0.01270      2.07149
    -8.04000      0.01344      2.11962      0.01272      2.07276
    -8.03000      0.01346      2.12096      0.01273      2.07403
    -8.02000      0.01348      2.12231      0.01275      2.07531
    -8.01000      0.01350      2.12366      0.01276      2.07658
    -8.00000      0.01351      2.12501      0.01278      2.07786
    -7.99000      0.01353      2.12636      0.01280      2.07914
    -7.98000      0.01355      2.12771      0.01281      2.08042
    -7.97000      0.01357      2.12907      0.01283      2.08170
    -7.96000      0.01359      2.13043      0.01285      2.08299
    -7.95000      0.01360      2.13179      0.01286      2.08427
    -7.94000      0.01362      2.13315      0.01288      2.08556
    -7.93000      0.01364      2.13451      0.01289      2.08684
    -7.92000      0.01366      2.13588      0.01291      2.08814
    -7.91000      0.01368      2.13724      0.01293      2.08943
    -7.90000      0.01370      2.13861      0.01294      2.09072
    -7.89000      0.01371      2.13998      0.01296      2.09202
    -7.88000      0.01373      2.14135      0.01298      2.09331
    -7.87000      0.01375      2.14273      0.01299      2.09461
    -7.86000      0.01377      2.14410      0.01301      2.09591
    -7.85000      0.01379      2.14548      0.01303      2.09721
    -7.84000      0.01381      2.14686      0.01304      2.09852
    -7.83000      0.01383      2.14824      0.01306      2.09982
    -7.82000      0.01384      2.14962      0.01308      2.10113
    -7.81000      0.01386      2.15101      0.01309      2.10244
    -7.80000      0.01388      2.15240      0.01311      2.10375
    -7.79000      0.01390      2.15379      0.01313      2.10506
    -7.78000      0.01392      2.15518      0.01315      2.10637
    -7.77000      0.01394      2.15657      0.01316      2.10769
    -7.76000      0.01396      2.15796      0.01318      2.10901
    -7.75000      0.01398      2.15936      0.01320      2.11032
    -7.74000      0.01399      2.16076      0.01321      2.11165
    -7.73000      0.01401      2.16216      0.01323      2.11297
    -7.72000      0.01403      2.16356      0.01325      2.11429
    -7.71000      0.01405      2.16497      0.01327      2.11562
    -7.70000      0.01407      2.16637      0.01328      2.11694
    -7.69000      0.01409      2.16778      0.01330      2.11827
    -7.68000      0.01411      2.16919      0.01332      2.11960
    -7.67000      0.01413      2.17060      0.01333      2.12093
    -7.66000      0.01415      2.17202      0.01335      2.12227
    -7.65000      0.01417      2.17343      0.01337      2.12361
    -7.64000      0.01419      2.17485      0.01339      2.12494
    -7.63000      0.01421      2.17627      0.01340      2.12628
    -7.62000      0.01423      2.17769      0.01342      2.12762
    -7.61000      0.01424      2.17911      0.01344      2.12896
    -7.60000      0.01426      2.18054      0.01346      2.13031
    -7.59000      0.01428      2.18196      0.01347      2.13166
    -7.58000      0.01430      2.18339      0.01349      2.13301
    -7.57000      0.01432      2.18483      0.01351      2.13436
    -7.56000      0.01434      2.18626      0.01353      2.13571
    -7.55000      0.01436      2.18769      0.01355      2.13706
    -7.54000      0.01438      2.18913      0.01356      2.13841
    -7.53000      0.01440      2.19057      0.01358      2.13977
    -7.52000      0.01442      2.19201      0.01360      2.14113
    -7.51000      0.01444      2.19345      0.01362      2.14249
    -7.50000      0.01446      2.19490      0.01363      2.14386
    -7.49000      0.01448      2.19635      0.01365      2.14522
    -7.48000      0.01450      2.19779      0.01367      2.14658
    -7.47000      0.01452      2.19925      0.01369      2.14795
    -7.46000      0.01454      2.20070      0.01371      2.14932
    -7.45000      0.01456      2.20215      0.01372      2.15069
    -7.44000      0.01458      2.20361      0.01374      2.15207
    -7.43000      0.01460      2.20507      0.01376      2.15344
    -7.42000      0.01462      2.20653      0.01378      2.15482
    -7.41000      0.01464      2.20799      0.01380      2.15620
    -7.40000      0.01466      2.20946      0.01382      2.15758
    -7.39000      0.01468      2.21093      0.01383      2.15896
    -7.38000      0.01471      2.21240      0.01385      2.16035
    -7.37000      0.01473      2.21387      0.01387      2.16173
    -7.36000      0.01475      2.21534      0.01389      2.16312
    -7.35000      0.01477      2.21682      0.01391      2.16451
    -7.34000      0.01479      2.21829      0.01393      2.16590
    -7.33000      0.01481      2.21977      0.01395      2.16729
    -7.32000      0.01483      2.22126      0.01396      2.16869
    -7.31000      0.01485      2.22274      0.01398      2.17009
    -7.30000      0.01487      2.22423      0.01400      2.17149
    -7.29000      0.01489      2.22571      0.01402      2.17289
    -7.28000      0.01491      2.22720      0.01404      2.17429
    -7.27000      0.01493      2.22870      0.01406      2.17569
    -7.26000      0.01495      2.23019      0.01408      2.17710
    -7.25000      0.01498      2.23169      0.01410      2.17851
    -7.24000      0.01500      2.23318      0.01411      2.17992
    -7.23000      0.01502      2.23469      0.01413      2.18133
    -7.22000      0.01504      2.23619      0.01415      2.18275
    -7.21000      0.01506      2.23769      0.01417      2.18416
    -7.20000      0.01508      2.23920      0.01419      2.18558
    -7.19000      0.01510      2.24071      0.01421      2.18700
    -7.18000      0.01512      2.24222      0.01423      2.18842
    -7.17000      0.01515      2.24373      0.01425      2.18985
    -7.16000      0.01517      2.24525      0.01427      2.19127
    -7.15000      0.01519      2.24677      0.01429      2.19270
    -7.14000      0.01521      2.24829      0.01431      2.19413
    -7.13000      0.01523      2.24981      0.01433      2.19556
    -7.12000      0.01525      2.25133      0.01434      2.19699
    -7.11000      0.01528      2.25286      0.01436      2.19843
    -7.10000      0.01530      2.25439      0.01438      2.19986
    -7.09000      0.01532      2.25592      0.01440      2.20130
    -7.08000      0.01534      2.25745      0.01442      2.20274
    -7.07000      0.01536      2.25899      0.01444      2.20419
    -7.06000      0.01539      2.26052      0.01446      2.20563
    -7.05000      0.01541      2.26206      0.01448      2.20708
    -7.04000      0.01543      2.26360      0.01450      2.20853
    -7.03000      0.01545      2.26515      0.01452      2.20998
    -7.02000      0.01547      2.26669      0.01454      2.21143
    -7.01000      0.01550      2.26824      0.01456      2.21289
    -7.00000      0.01552      2.26979      0.01458      2.21435
    -6.99000      0.01554      2.27135      0.01460      2.21580
    -6.98000      0.01556      2.27290      0.01462      2.21726
    -6.97000      0.01559      2.27446      0.01464      2.21873
    -6.96000      0.01561      2.27602      0.01466      2.22019
    -6.95000      0.01563      2.27758      0.01468      2.22166
    -6.94000      0.01565      2.27914      0.01470      2.22313
    -6.93000      0.01568      2.28071      0.01472      2.22460
    -6.92000      0.01570      2.28228      0.01474      2.22607
    -6.91000      0.01572      2.28385      0.01476      2.22755
    -6.90000      0.01574      2.28542      0.01478      2.22902
    -6.89000      0.01577      2.28700      0.01480      2.23050
    -6.88000      0.01579      2.28858      0.01482      2.23198
    -6.87000      0.01581      2.29016      0.01484      2.23347
    -6.86000      0.01584      2.29174      0.01486      2.23495
    -6.85000      0.01586      2.29332      0.01488      2.23644
    -6.84000      0.01588      2.29491      0.01491      2.23793
    -6.83000      0.01591      2.29650      0.01493      2.23942
    -6.82000      0.01593      2.29809      0.01495      2.24091
    -6.81000      0.01595      2.29968      0.01497      2.24241
    -6.80000      0.01598      2.30128      0.01499      2.24391
    -6.79000      0.01600      2.30288      0.01501      2.24541
    -6.78000      0.01602      2.30448      0.01503      2.24691
    -6.77000      0.01605      2.30608      0.01505      2.24841
    -6.76000      0.01607      2.30769      0.01507      2.24992
    -6.75000      0.01609      2.30930      0.01509      2.25143
    -6.74000      0.01612      2.31091      0.01511      2.25294
    -6.73000      0.01614      2.31252      0.01513      2.25445
    -6.72000      0.01616      2.31413      0.01516      2.25596
    -6.71000      0.01619      2.31575      0.01518      2.25748
    -6.70000      0.01621      2.31737      0.01520      2.25900
    -6.69000      0.01624      2.31899      0.01522      2.26052
    -6.68000      0.01626      2.32062      0.01524      2.26204
    -6.67000      0.01628      2.32225      0.01526      2.26357
    -6.66000      0.01631      2.32387      0.01528      2.26509
    -6.65000      0.01633      2.32551      0.01531      2.26662
    -6.64000      0.01636      2.32714      0.01533      2.26816
    -6.63000      0.01638      2.32878      0.01535      2.26969
    -6.62000      0.01641      2.33042      0.01537      2.27122
    -6.61000      0.01643      2.33206      0.01539      2.27276
    -6.60000      0.01645      2.33370      0.01541      2.27430
    -6.59000      0.01648      2.33535      0.01543      2.27584
    -6.58000      0.01650      2.33700      0.01546      2.27739
    -6.57000      0.01653      2.33865      0.01548      2.27894
    -6.56000      0.01655      2.34030      0.01550      2.28048
    -6.55000      0.01658      2.34196      0.01552      2.28204
    -6.54000      0.01660      2.34362      0.01554      2.28359
    -6.53000      0.01663      2.34528      0.01557      2.28514
    -6.52000      0.01665      2.34694      0.01559      2.28670
    -6.51000      0.01668      2.34861      0.01561      2.28826
    -6.50000      0.01670      2.35028      0.01563      2.28982
    -6.49000      0.01673      2.35195      0.01566      2.29139
    -6.48000      0.01675      2.35362      0.01568      2.29295
    -6.47000      0.01678      2.35530      0.01570      2.29452
    -6.46000      0.01680      2.35698      0.01572      2.29609
    -6.45000      0.01683      2.35866      0.01574      2.29767
    -6.44000      0.01685      2.36034      0.01577      2.29924
    -6.43000      0.01688      2.36203      0.01579      2.30082
    -6.42000      0.01690      2.36372      0.01581      2.30240
    -6.41000      0.01693      2.36541      0.01583      2.30398
    -6.40000      0.01696      2.36710      0.01586      2.30557
    -6.39000      0.01698      2.36880      0.01588      2.30715
    -6.38000      0.01701      2.37050      0.01590      2.30874
    -6.37000      0.01703      2.37220      0.01593      2.31033
    -6.36000      0.01706      2.37391      0.01595      2.31193
    -6.35000      0.01708      2.37561      0.01597      2.31352
    -6.34000      0.01711      2.37732      0.01599      2.31512
    -6.33000      0.01714      2.37903      0.01602      2.31672
    -6.32000      0.01716      2.38075      0.01604      2.31832
    -6.31000      0.01719      2.38247      0.01606      2.31993
    -6.30000      0.01722      2.38419      0.01609      2.32154
    -6.29000      0.01724      2.38591      0.01611      2.32315
    -6.28000      0.01727      2.38763      0.01613      2.32476
    -6.27000      0.01729      2.38936      0.01616      2.32637
    -6.26000      0.01732      2.39109      0.01618      2.32799
    -6.25000      0.01735      2.39283      0.01620      2.32961
    -6.24000      0.01737      2.39456      0.01623      2.33123
    -6.23000      0.01740      2.39630      0.01625      2.33285
    -6.22000      0.01743      2.39804      0.01627      2.33448
    -6.21000      0.01745      2.39979      0.01630      2.33611
    -6.20000      0.01748      2.40153      0.01632      2.33774
    -6.19000      0.01751      2.40328      0.01635      2.33937
    -6.18000      0.01754      2.40503      0.01637      2.34101
    -6.17000      0.01756      2.40679      0.01639      2.34265
    -6.16000      0.01759      2.40855      0.01642      2.34429
    -6.15000      0.01762      2.41031      0.01644      2.34593
    -6.14000      0.01764      2.41207      0.01647      2.34757
    -6.13000      0.01767      2.41383      0.01649      2.34922
    -6.12000      0.01770      2.41560      0.01651      2.35087
    -6.11000      0.01773      2.41737      0.01654      2.35253
    -6.10000      0.01775      2.41915      0.01656      2.35418
    -6.09000      0.01778      2.42092      0.01659      2.35583
    -6.08000      0.01781      2.42270      0.01661      2.35750
    -6.07000      0.01784      2.42449      0.01664      2.35916
    -6.06000      0.01787      2.42627      0.01666      2.36082
    -6.05000      0.01789      2.42806      0.01668      2.36249
    -6.04000      0.01792      2.42985      0.01671      2.36416
    -6.03000      0.01795      2.43164      0.01673      2.36583
    -6.02000      0.01798      2.43344      0.01676      2.36751
    -6.01000      0.01801      2.43524      0.01678      2.36918
    -6.00000      0.01803      2.43704      0.01681      2.37086
    -5.99000      0.01806      2.43884      0.01683      2.37254
    -5.98000      0.01809      2.44065      0.01686      2.37423
    -5.97000      0.01812      2.44246      0.01688      2.37592
    -5.96000      0.01815      2.44428      0.01691      2.37760
    -5.95000      0.01818      2.44609      0.01693      2.37929
    -5.94000      0.01821      2.44791      0.01696      2.38099
    -5.93000      0.01823      2.44973      0.01698      2.38269
    -5.92000      0.01826      2.45156      0.01701      2.38439
    -5.91000      0.01829      2.45338      0.01703      2.38609
    -5.90000      0.01832      2.45521      0.01706      2.38779
    -5.89000      0.01835      2.45705      0.01709      2.38950
    -5.88000      0.01838      2.45888      0.01711      2.39121
    -5.87000      0.01841      2.46072      0.01714      2.39292
    -5.86000      0.01844      2.46256      0.01716      2.39464
    -5.85000      0.01847      2.46441      0.01719      2.39635
    -5.84000      0.01850      2.46626      0.01721      2.39807
    -5.83000      0.01853      2.46811      0.01724      2.39980
    -5.82000      0.01856      2.46996      0.01727      2.40152
    -5.81000      0.01859      2.47182      0.01729      2.40325
    -5.80000      0.01862      2.47368      0.01732      2.40498
    -5.79000      0.01864      2.47554      0.01734      2.40671
    -5.78000      0.01867      2.47741      0.01737      2.40845
    -5.77000      0.01870      2.47928      0.01740      2.41019
    -5.76000      0.01873      2.48115      0.01742      2.41193
    -5.75000      0.01876      2.48302      0.01745      2.41367
    -5.74000      0.01880      2.48490      0.01747      2.41542
    -5.73000      0.01883      2.48678      0.01750      2.41717
    -5.72000      0.01886      2.48867      0.01753      2.41891
    -5.71000      0.01889      2.49055      0.01755      2.42067
    -5.70000      0.01892      2.49244      0.01758      2.42243
    -5.69000      0.01895      2.49434      0.01761      2.42418
    -5.68000      0.01898      2.49623      0.01763      2.42594
    -5.67000      0.01901      2.49813      0.01766      2.42771
    -5.66000      0.01904      2.50003      0.01769      2.42948
    -5.65000      0.01907      2.50194      0.01771      2.43125
    -5.64000      0.01910      2.50385      0.01774      2.43302
    -5.63000      0.01913      2.50576      0.01777      2.43480
    -5.62000      0.01916      2.50767      0.01780      2.43657
    -5.61000      0.01919      2.50959      0.01782      2.43836
    -5.60000      0.01923      2.51151      0.01785      2.44014
    -5.59000      0.01926      2.51343      0.01788      2.44192
    -5.58000      0.01929      2.51536      0.01791      2.44371
    -5.57000      0.01932      2.51729      0.01793      2.44550
    -5.56000      0.01935      2.51923      0.01796      2.44730
    -5.55000      0.01938      2.52116      0.01799      2.44910
    -5.54000      0.01942      2.52310      0.01802      2.45090
    -5.53000      0.01945      2.52504      0.01804      2.45270
    -5.52000      0.01948      2.52699      0.01807      2.45451
    -5.51000      0.01951      2.52894      0.01810      2.45631
    -5.50000      0.01954      2.53089      0.01813      2.45813
    -5.49000      0.01958      2.53285      0.01816      2.45994
    -5.48000      0.01961      2.53481      0.01818      2.46176
    -5.47000      0.01964      2.53677      0.01821      2.46358
    -5.46000      0.01967      2.53873      0.01824      2.46540
    -5.45000      0.01971      2.54070      0.01827      2.46722
    -5.44000      0.01974      2.54267      0.01830      2.46905
    -5.43000      0.01977      2.54465      0.01832      2.47088
    -5.42000      0.01980      2.54663      0.01835      2.47271
    -5.41000      0.01984      2.54861      0.01838      2.47455
    -5.40000      0.01987      2.55059      0.01841      2.47639
    -5.39000      0.01990      2.55258      0.01844      2.47823
    -5.38000      0.01994      2.55457      0.01847      2.48008
    -5.37000      0.01997      2.55657      0.01850      2.48193
    -5.36000      0.02000      2.55857      0.01853      2.48377
    -5.35000      0.02004      2.56057      0.01855      2.48563
    -5.34000      0.02007      2.56257      0.01858      2.48749
    -5.33000      0.02010      2.56458      0.01861      2.48935
    -5.32000      0.02014      2.56659      0.01864      2.49121
    -5.31000      0.02017      2.56861      0.01867      2.49307
    -5.30000      0.02020      2.57063      0.01870      2.49494
    -5.29000      0.02024      2.57265      0.01873      2.49681
    -5.28000      0.02027      2.57468      0.01876      2.49869
    -5.27000      0.02031      2.57670      0.01879      2.50056
    -5.26000      0.02034      2.57874      0.01882      2.50245
    -5.25000      0.02038      2.58077      0.01885      2.50433
    -5.24000      0.02041      2.58281      0.01888      2.50622
    -5.23000      0.02044      2.58485      0.01891      2.50810
    -5.22000      0.02048      2.58690      0.01894      2.51000
    -5.21000      0.02051      2.58895      0.01897      2.51189
    -5.20000      0.02055      2.59100      0.01900      2.51379
    -5.19000      0.02058      2.59306      0.01903      2.51569
    -5.18000      0.02062      2.59512      0.01906      2.51759
    -5.17000      0.02065      2.59718      0.01909      2.51950
    -5.16000      0.02069      2.59925      0.01912      2.52141
    -5.15000      0.02072      2.60132      0.01915      2.52332
    -5.14000      0.02076      2.60339      0.01918      2.52524
    -5.13000      0.02079      2.60547      0.01921      2.52716
    -5.12000      0.02083      2.60755      0.01924      2.52908
    -5.11000      0.02087      2.60963      0.01927      2.53101
    -5.10000      0.02090      2.61172      0.01930      2.53294
    -5.09000      0.02094      2.61381      0.01933      2.53487
    -5.08000      0.02097      2.61591      0.01936      2.53680
    -5.07000      0.02101      2.61801      0.01940      2.53874
    -5.06000      0.02105      2.62011      0.01943      2.54068
    -5.05000      0.02108      2.62222      0.01946      2.54262
    -5.04000      0.02112      2.62433      0.01949      2.54457
    -5.03000      0.02115      2.62644      0.01952      2.54652
    -5.02000      0.02119      2.62856      0.01955      2.54847
    -5.01000      0.02123      2.63068      0.01958      2.55043
    -5.00000      0.02126      2.63280      0.01962      2.55239
    -4.99000      0.02130      2.63493      0.01965      2.55435
    -4.98000      0.02134      2.63706      0.01968      2.55632
    -4.97000      0.02138      2.63920      0.01971      2.55829
    -4.96000      0.02141      2.64133      0.01974      2.56026
    -4.95000      0.02145      2.64348      0.01977      2.56224
    -4.94000      0.02149      2.64562      0.01981      2.56422
    -4.93000      0.02153      2.64777      0.01984      2.56620
    -4.92000      0.02156      2.64993      0.01987      2.56818
    -4.91000      0.02160      2.65209      0.01990      2.57017
    -4.90000      0.02164      2.65425      0.01994      2.57216
    -4.89000      0.02168      2.65641      0.01997      2.57416
    -4.88000      0.02171      2.65858      0.02000      2.57616
    -4.87000      0.02175      2.66076      0.02003      2.57816
    -4.86000      0.02179      2.66293      0.02007      2.58016
    -4.85000      0.02183      2.66511      0.02010      2.58217
    -4.84000      0.02187      2.66730      0.02013      2.58418
    -4.83000      0.02191      2.66949      0.02016      2.58620
    -4.82000      0.02194      2.67168      0.02020      2.58822
    -4.81000      0.02198      2.67387      0.02023      2.59024
    -4.80000      0.02202      2.67607      0.02026      2.59226
    -4.79000      0.02206      2.67828      0.02030      2.59429
    -4.78000      0.02210      2.68048      0.02033      2.59632
    -4.77000      0.02214      2.68270      0.02036      2.59835
    -4.76000      0.02218      2.68491      0.02040      2.60039
    -4.75000      0.02222      2.68713      0.02043      2.60243
    -4.74000      0.02226      2.68935      0.02047      2.60448
    -4.73000      0.02230      2.69158      0.02050      2.60653
    -4.72000      0.02234      2.69381      0.02053      2.60858
    -4.71000      0.02238      2.69605      0.02057      2.61063
    -4.70000      0.02242      2.69829      0.02060      2.61269
    -4.69000      0.02246      2.70053      0.02064      2.61475
    -4.68000      0.02250      2.70278      0.02067      2.61682
    -4.67000      0.02254      2.70503      0.02070      2.61888
    -4.66000      0.02258      2.70729      0.02074      2.62096
    -4.65000      0.02262      2.70955      0.02077      2.62303
    -4.64000      0.02266      2.71181      0.02081      2.62511
    -4.63000      0.02270      2.71408      0.02084      2.62719
    -4.62000      0.02274      2.71635      0.02088      2.62928
    -4.61000      0.02278      2.71862      0.02091      2.63137
    -4.60000      0.02282      2.72090      0.02095      2.63346
    -4.59000      0.02286      2.72319      0.02098      2.63556
    -4.58000      0.02291      2.72548      0.02102      2.63766
    -4.57000      0.02295      2.72777      0.02105      2.63976
    -4.56000      0.02299      2.73006      0.02109      2.64187
    -4.55000      0.02303      2.73237      0.02112      2.64398
    -4.54000      0.02307      2.73467      0.02116      2.64609
    -4.53000      0.02312      2.73698      0.02120      2.64821
    -4.52000      0.02316      2.73929      0.02123      2.65033
    -4.51000      0.02320      2.74161      0.02127      2.65245
    -4.50000      0.02324      2.74393      0.02130      2.65458
    -4.49000      0.02328      2.74626      0.02134      2.65671
    -4.48000      0.02333      2.74859      0.02138      2.65885
    -4.47000      0.02337      2.75092      0.02141      2.66099
    -4.46000      0.02341      2.75326      0.02145      2.66313
    -4.45000      0.02346      2.75560      0.02149      2.66528
    -4.44000      0.02350      2.75795      0.02152      2.66743
    -4.43000      0.02354      2.76030      0.02156      2.66958
    -4.42000      0.02359      2.76266      0.02160      2.67174
    -4.41000      0.02363      2.76502      0.02163      2.67390
    -4.40000      0.02367      2.76738      0.02167      2.67606
    -4.39000      0.02372      2.76975      0.02171      2.67823
    -4.38000      0.02376      2.77213      0.02174      2.68040
    -4.37000      0.02381      2.77450      0.02178      2.68258
    -4.36000      0.02385      2.77689      0.02182      2.68476
    -4.35000      0.02389      2.77927      0.02186      2.68694
    -4.34000      0.02394      2.78167      0.02189      2.68913
    -4.33000      0.02398      2.78406      0.02193      2.69132
    -4.32000      0.02403      2.78646      0.02197      2.69352
    -4.31000      0.02407      2.78886      0.02201      2.69571
    -4.30000      0.02412      2.79127      0.02204      2.69792
    -4.29000      0.02416      2.79369      0.02208      2.70012
    -4.28000      0.02421      2.79611      0.02212      2.70233
    -4.27000      0.02425      2.79853      0.02216      2.70454
    -4.26000      0.02430      2.80096      0.02220      2.70676
    -4.25000      0.02434      2.80339      0.02224      2.70898
    -4.24000      0.02439      2.80582      0.02227      2.71121
    -4.23000      0.02444      2.80826      0.02231      2.71344
    -4.22000      0.02448      2.81071      0.02235      2.71567
    -4.21000      0.02453      2.81316      0.02239      2.71791
    -4.20000      0.02458      2.81561      0.02243      2.72015
    -4.19000      0.02462      2.81807      0.02247      2.72239
    -4.18000      0.02467      2.82054      0.02251      2.72464
    -4.17000      0.02472      2.82301      0.02255      2.72689
    -4.16000      0.02476      2.82548      0.02259      2.72915
    -4.15000      0.02481      2.82796      0.02263      2.73141
    -4.14000      0.02486      2.83044      0.02267      2.73368
    -4.13000      0.02490      2.83293      0.02271      2.73594
    -4.12000      0.02495      2.83542      0.02275      2.73821
    -4.11000      0.02500      2.83792      0.02279      2.74049
    -4.10000      0.02505      2.84042      0.02283      2.74277
    -4.09000      0.02509      2.84293      0.02287      2.74505
    -4.08000      0.02514      2.84544      0.02291      2.74734
    -4.07000      0.02519      2.84795      0.02295      2.74963
    -4.06000      0.02524      2.85047      0.02299      2.75193
    -4.05000      0.02529      2.85300      0.02303      2.75423
    -4.04000      0.02534      2.85553      0.02307      2.75654
    -4.03000      0.02539      2.85807      0.02311      2.75885
    -4.02000      0.02544      2.86061      0.02315      2.76116
    -4.01000      0.02548      2.86315      0.02319      2.76347
    -4.00000      0.02553      2.86570      0.02323      2.76580
    -3.99000      0.02558      2.86826      0.02327      2.76812
    -3.98000      0.02563      2.87082      0.02332      2.77045
    -3.97000      0.02568      2.87338      0.02336      2.77278
    -3.96000      0.02573      2.87595      0.02340      2.77512
    -3.95000      0.02578      2.87853      0.02344      2.77746
    -3.94000      0.02583      2.88111      0.02348      2.77981
    -3.93000      0.02588      2.88369      0.02352      2.78215
    -3.92000      0.02593      2.88629      0.02357      2.78451
    -3.91000      0.02599      2.88888      0.02361      2.78687
    -3.90000      0.02604      2.89148      0.02365      2.78923
    -3.89000      0.02609      2.89409      0.02369      2.79160
    -3.88000      0.02614      2.89670      0.02374      2.79397
    -3.87000      0.02619      2.89931      0.02378      2.79634
    -3.86000      0.02624      2.90193      0.02382      2.79872
    -3.85000      0.02629      2.90456      0.02387      2.80111
    -3.84000      0.02635      2.90719      0.02391      2.80350
    -3.83000      0.02640      2.90983      0.02395      2.80589
    -3.82000      0.02645      2.91247      0.02399      2.80829
    -3.81000      0.02650      2.91512      0.02404      2.81069
    -3.80000      0.02655      2.91777      0.02408      2.81309
    -3.79000      0.02661      2.92043      0.02413      2.81550
    -3.78000      0.02666      2.92309      0.02417      2.81792
    -3.77000      0.02671      2.92576      0.02421      2.82034
    -3.76000      0.02677      2.92843      0.02426      2.82276
    -3.75000      0.02682      2.93111      0.02430      2.82519
    -3.74000      0.02687      2.93379      0.02435      2.82762
    -3.73000      0.02693      2.93648      0.02439      2.83005
    -3.72000      0.02698      2.93918      0.02444      2.83249
    -3.71000      0.02704      2.94188      0.02448      2.83494
    -3.70000      0.02709      2.94459      0.02453      2.83739
    -3.69000      0.02714      2.94730      0.02457      2.83985
    -3.68000      0.02720      2.95001      0.02462      2.84230
    -3.67000      0.02725      2.95274      0.02466      2.84477
    -3.66000      0.02731      2.95546      0.02471      2.84724
    -3.65000      0.02736      2.95820      0.02475      2.84971
    -3.64000      0.02742      2.96093      0.02480      2.85219
    -3.63000      0.02748      2.96368      0.02484      2.85467
    -3.62000      0.02753      2.96643      0.02489      2.85716
    -3.61000      0.02759      2.96918      0.02494      2.85964
    -3.60000      0.02764      2.97195      0.02498      2.86214
    -3.59000      0.02770      2.97471      0.02503      2.86464
    -3.58000      0.02776      2.97748      0.02507      2.86714
    -3.57000      0.02781      2.98026      0.02512      2.86965
    -3.56000      0.02787      2.98305      0.02517      2.87217
    -3.55000      0.02793      2.98583      0.02521      2.87469
    -3.54000      0.02798      2.98863      0.02526      2.87721
    -3.53000      0.02804      2.99143      0.02531      2.87974
    -3.52000      0.02810      2.99424      0.02536      2.88227
    -3.51000      0.02816      2.99705      0.02540      2.88481
    -3.50000      0.02822      2.99987      0.02545      2.88735
    -3.49000      0.02827      3.00269      0.02550      2.88990
    -3.48000      0.02833      3.00552      0.02555      2.89245
    -3.47000      0.02839      3.00836      0.02560      2.89501
    -3.46000      0.02845      3.01120      0.02564      2.89757
    -3.45000      0.02851      3.01404      0.02569      2.90013
    -3.44000      0.02857      3.01690      0.02574      2.90270
    -3.43000      0.02863      3.01976      0.02579      2.90528
    -3.42000      0.02869      3.02262      0.02584      2.90786
    -3.41000      0.02875      3.02549      0.02589      2.91045
    -3.40000      0.02881      3.02837      0.02594      2.91304
    -3.39000      0.02887      3.03125      0.02598      2.91564
    -3.38000      0.02893      3.03414      0.02603      2.91823
    -3.37000      0.02899      3.03704      0.02608      2.92084
    -3.36000      0.02905      3.03994      0.02613      2.92345
    -3.35000      0.02911      3.04285      0.02618      2.92606
    -3.34000      0.02917      3.04576      0.02623      2.92869
    -3.33000      0.02923      3.04868      0.02628      2.93131
    -3.32000      0.02930      3.05161      0.02633      2.93394
    -3.31000      0.02936      3.05454      0.02638      2.93658
    -3.30000      0.02942      3.05747      0.02643      2.93922
    -3.29000      0.02948      3.06042      0.02649      2.94186
    -3.28000      0.02954      3.06337      0.02654      2.94451
    -3.27000      0.02961      3.06633      0.02659      2.94717
    -3.26000      0.02967      3.06929      0.02664      2.94983
    -3.25000      0.02973      3.07226      0.02669      2.95250
    -3.24000      0.02980      3.07523      0.02674      2.95517
    -3.23000      0.02986      3.07822      0.02679      2.95784
    -3.22000      0.02993      3.08121      0.02684      2.96052
    -3.21000      0.02999      3.08420      0.02690      2.96321
    -3.20000      0.03005      3.08720      0.02695      2.96590
    -3.19000      0.03012      3.09021      0.02700      2.96860
    -3.18000      0.03018      3.09322      0.02705      2.97130
    -3.17000      0.03025      3.09625      0.02711      2.97401
    -3.16000      0.03031      3.09927      0.02716      2.97672
    -3.15000      0.03038      3.10231      0.02721      2.97944
    -3.14000      0.03045      3.10535      0.02726      2.98216
    -3.13000      0.03051      3.10839      0.02732      2.98489
    -3.12000      0.03058      3.11145      0.02737      2.98763
    -3.11000      0.03064      3.11451      0.02743      2.99037
    -3.10000      0.03071      3.11758      0.02748      2.99311
    -3.09000      0.03078      3.12065      0.02753      2.99586
    -3.08000      0.03085      3.12373      0.02759      2.99861
    -3.07000      0.03091      3.12682      0.02764      3.00137
    -3.06000      0.03098      3.12991      0.02770      3.00414
    -3.05000      0.03105      3.13301      0.02775      3.00691
    -3.04000      0.03112      3.13612      0.02780      3.00969
    -3.03000      0.03118      3.13923      0.02786      3.01247
    -3.02000      0.03125      3.14235      0.02791      3.01526
    -3.01000      0.03132      3.14548      0.02797      3.01806
    -3.00000      0.03139      3.14862      0.02803      3.02085
    -2.99000      0.03146      3.15176      0.02808      3.02366
    -2.98000      0.03153      3.15491      0.02814      3.02647
    -2.97000      0.03160      3.15806      0.02819      3.02929
    -2.96000      0.03167      3.16123      0.02825      3.03211
    -2.95000      0.03174      3.16439      0.02831      3.03494
    -2.94000      0.03181      3.16757      0.02836      3.03777
    -2.93000      0.03188      3.17076      0.02842      3.04061
    -2.92000      0.03195      3.17395      0.02848      3.04345
    -2.91000      0.03203      3.17714      0.02853      3.04630
    -2.90000      0.03210      3.18035      0.02859      3.04915
    -2.89000      0.03217      3.18356      0.02865      3.05202
    -2.88000      0.03224      3.18678      0.02871      3.05488
    -2.87000      0.03231      3.19001      0.02876      3.05776
    -2.86000      0.03239      3.19324      0.02882      3.06063
    -2.85000      0.03246      3.19649      0.02888      3.06352
    -2.84000      0.03253      3.19973      0.02894      3.06641
    -2.83000      0.03261      3.20299      0.02900      3.06930
    -2.82000      0.03268      3.20625      0.02905      3.07221
    -2.81000      0.03276      3.20952      0.02911      3.07511
    -2.80000      0.03283      3.21280      0.02917      3.07803
    -2.79000      0.03291      3.21609      0.02923      3.08095
    -2.78000      0.03298      3.21938      0.02929      3.08387
    -2.77000      0.03306      3.22268      0.02935      3.08681
    -2.76000      0.03313      3.22599      0.02941      3.08974
    -2.75000      0.03321      3.22931      0.02947      3.09269
    -2.74000      0.03328      3.23263      0.02953      3.09564
    -2.73000      0.03336      3.23596      0.02959      3.09859
    -2.72000      0.03344      3.23930      0.02965      3.10155
    -2.71000      0.03351      3.24265      0.02971      3.10452
    -2.70000      0.03359      3.24600      0.02977      3.10749
    -2.69000      0.03367      3.24936      0.02984      3.11047
    -2.68000      0.03375      3.25273      0.02990      3.11346
    -2.67000      0.03383      3.25611      0.02996      3.11645
    -2.66000      0.03390      3.25950      0.03002      3.11945
    -2.65000      0.03398      3.26289      0.03008      3.12246
    -2.64000      0.03406      3.26629      0.03015      3.12547
    -2.63000      0.03414      3.26970      0.03021      3.12848
    -2.62000      0.03422      3.27312      0.03027      3.13151
    -2.61000      0.03430      3.27654      0.03033      3.13453
    -2.60000      0.03438      3.27998      0.03040      3.13757
    -2.59000      0.03446      3.28342      0.03046      3.14061
    -2.58000      0.03454      3.28687      0.03052      3.14366
    -2.57000      0.03463      3.29032      0.03059      3.14672
    -2.56000      0.03471      3.29379      0.03065      3.14978
    -2.55000      0.03479      3.29726      0.03072      3.15284
    -2.54000      0.03487      3.30075      0.03078      3.15592
    -2.53000      0.03495      3.30424      0.03084      3.15900
    -2.52000      0.03504      3.30773      0.03091      3.16208
    -2.51000      0.03512      3.31124      0.03097      3.16518
    -2.50000      0.03520      3.31476      0.03104      3.16828
    -2.49000      0.03529      3.31828      0.03110      3.17139
    -2.48000      0.03537      3.32181      0.03117      3.17450
    -2.47000      0.03546      3.32535      0.03124      3.17762
    -2.46000      0.03554      3.32890      0.03130      3.18075
    -2.45000      0.03563      3.33246      0.03137      3.18388
    -2.44000      0.03571      3.33603      0.03144      3.18702
    -2.43000      0.03580      3.33960      0.03150      3.19016
    -2.42000      0.03589      3.34318      0.03157      3.19332
    -2.41000      0.03597      3.34677      0.03164      3.19648
    -2.40000      0.03606      3.35038      0.03170      3.19964
    -2.39000      0.03615      3.35398      0.03177      3.20281
    -2.38000      0.03624      3.35760      0.03184      3.20599
    -2.37000      0.03632      3.36123      0.03191      3.20918
    -2.36000      0.03641      3.36487      0.03198      3.21238
    -2.35000      0.03650      3.36851      0.03204      3.21558
    -2.34000      0.03659      3.37216      0.03211      3.21878
    -2.33000      0.03668      3.37583      0.03218      3.22200
    -2.32000      0.03677      3.37950      0.03225      3.22522
    -2.31000      0.03686      3.38318      0.03232      3.22845
    -2.30000      0.03695      3.38687      0.03239      3.23168
    -2.29000      0.03704      3.39056      0.03246      3.23492
    -2.28000      0.03713      3.39427      0.03253      3.23817
    -2.27000      0.03723      3.39799      0.03260      3.24143
    -2.26000      0.03732      3.40171      0.03267      3.24469
    -2.25000      0.03741      3.40545      0.03274      3.24796
    -2.24000      0.03750      3.40920      0.03282      3.25124
    -2.23000      0.03760      3.41295      0.03289      3.25452
    -2.22000      0.03769      3.41671      0.03296      3.25781
    -2.21000      0.03779      3.42048      0.03303      3.26112
    -2.20000      0.03788      3.42427      0.03310      3.26442
    -2.19000      0.03798      3.42806      0.03318      3.26773
    -2.18000      0.03807      3.43186      0.03325      3.27105
    -2.17000      0.03817      3.43567      0.03332      3.27438
    -2.16000      0.03826      3.43949      0.03340      3.27771
    -2.15000      0.03836      3.44332      0.03347      3.28106
    -2.14000      0.03846      3.44716      0.03354      3.28441
    -2.13000      0.03855      3.45101      0.03362      3.28777
    -2.12000      0.03865      3.45487      0.03369      3.29113
    -2.11000      0.03875      3.45874      0.03377      3.29450
    -2.10000      0.03885      3.46262      0.03384      3.29788
    -2.09000      0.03895      3.46650      0.03392      3.30127
    -2.08000      0.03905      3.47040      0.03399      3.30466
    -2.07000      0.03915      3.47431      0.03407      3.30806
    -2.06000      0.03925      3.47823      0.03414      3.31147
    -2.05000      0.03935      3.48216      0.03422      3.31489
    -2.04000      0.03945      3.48610      0.03430      3.31832
    -2.03000      0.03955      3.49004      0.03437      3.32175
    -2.02000      0.03966      3.49400      0.03445      3.32519
    -2.01000      0.03976      3.49797      0.03453      3.32864
    -2.00000      0.03986      3.50195      0.03461      3.33209
    -1.99000      0.03997      3.50594      0.03468      3.33556
    -1.98000      0.04007      3.50994      0.03476      3.33902
    -1.97000      0.04017      3.51395      0.03484      3.34251
    -1.96000      0.04028      3.51797      0.03492      3.34599
    -1.95000      0.04038      3.52200      0.03500      3.34949
    -1.94000      0.04049      3.52605      0.03508      3.35299
    -1.93000      0.04060      3.53010      0.03516      3.35650
    -1.92000      0.04070      3.53416      0.03524      3.36002
    -1.91000      0.04081      3.53824      0.03532      3.36354
    -1.90000      0.04092      3.54232      0.03540      3.36708
    -1.89000      0.04103      3.54642      0.03548      3.37063
    -1.88000      0.04114      3.55052      0.03556      3.37418
    -1.87000      0.04125      3.55464      0.03564      3.37773
    -1.86000      0.04135      3.55877      0.03572      3.38130
    -1.85000      0.04147      3.56291      0.03580      3.38488
    -1.84000      0.04158      3.56706      0.03589      3.38846
    -1.83000      0.04169      3.57122      0.03597      3.39205
    -1.82000      0.04180      3.57539      0.03605      3.39565
    -1.81000      0.04191      3.57958      0.03614      3.39926
    -1.80000      0.04202      3.58377      0.03622      3.40287
    -1.79000      0.04214      3.58798      0.03630      3.40650
    -1.78000      0.04225      3.59220      0.03639      3.41013
    -1.77000      0.04237      3.59643      0.03647      3.41378
    -1.76000      0.04248      3.60067      0.03656      3.41743
    -1.75000      0.04260      3.60492      0.03664      3.42109
    -1.74000      0.04271      3.60918      0.03673      3.42475
    -1.73000      0.04283      3.61346      0.03681      3.42843
    -1.72000      0.04295      3.61774      0.03690      3.43211
    -1.71000      0.04306      3.62204      0.03698      3.43581
    -1.70000      0.04318      3.62635      0.03707      3.43951
    -1.69000      0.04330      3.63068      0.03716      3.44322
    -1.68000      0.04342      3.63501      0.03725      3.44694
    -1.67000      0.04354      3.63936      0.03733      3.45067
    -1.66000      0.04366      3.64371      0.03742      3.45440
    -1.65000      0.04378      3.64808      0.03751      3.45815
    -1.64000      0.04390      3.65247      0.03760      3.46190
    -1.63000      0.04403      3.65686      0.03769      3.46566
    -1.62000      0.04415      3.66127      0.03778      3.46944
    -1.61000      0.04427      3.66569      0.03787      3.47322
    -1.60000      0.04440      3.67012      0.03796      3.47701
    -1.59000      0.04452      3.67456      0.03805      3.48081
    -1.58000      0.04465      3.67902      0.03814      3.48462
    -1.57000      0.04477      3.68349      0.03823      3.48843
    -1.56000      0.04490      3.68797      0.03832      3.49226
    -1.55000      0.04502      3.69246      0.03841      3.49609
    -1.54000      0.04515      3.69697      0.03850      3.49994
    -1.53000      0.04528      3.70149      0.03860      3.50380
    -1.52000      0.04541      3.70602      0.03869      3.50766
    -1.51000      0.04554      3.71057      0.03878      3.51153
    -1.50000      0.04567      3.71513      0.03888      3.51541
    -1.49000      0.04580      3.71970      0.03897      3.51930
    -1.48000      0.04593      3.72428      0.03906      3.52320
    -1.47000      0.04606      3.72888      0.03916      3.52711
    -1.46000      0.04620      3.73349      0.03925      3.53103
    -1.45000      0.04633      3.73811      0.03935      3.53496
    -1.44000      0.04646      3.74275      0.03945      3.53890
    -1.43000      0.04660      3.74740      0.03954      3.54285
    -1.42000      0.04673      3.75207      0.03964      3.54680
    -1.41000      0.04687      3.75675      0.03974      3.55077
    -1.40000      0.04701      3.76144      0.03983      3.55475
    -1.39000      0.04714      3.76614      0.03993      3.55874
    -1.38000      0.04728      3.77086      0.04003      3.56273
    -1.37000      0.04742      3.77559      0.04013      3.56674
    -1.36000      0.04756      3.78034      0.04023      3.57076
    -1.35000      0.04770      3.78510      0.04033      3.57478
    -1.34000      0.04784      3.78988      0.04043      3.57882
    -1.33000      0.04798      3.79467      0.04053      3.58286
    -1.32000      0.04813      3.79947      0.04063      3.58692
    -1.31000      0.04827      3.80429      0.04073      3.59099
    -1.30000      0.04841      3.80912      0.04083      3.59506
    -1.29000      0.04856      3.81396      0.04093      3.59915
    -1.28000      0.04871      3.81882      0.04103      3.60324
    -1.27000      0.04885      3.82370      0.04113      3.60735
    -1.26000      0.04900      3.82859      0.04124      3.61147
    -1.25000      0.04915      3.83349      0.04134      3.61560
    -1.24000      0.04930      3.83841      0.04144      3.61974
    -1.23000      0.04944      3.84335      0.04155      3.62388
    -1.22000      0.04959      3.84830      0.04165      3.62804
    -1.21000      0.04975      3.85326      0.04176      3.63221
    -1.20000      0.04990      3.85824      0.04186      3.63639
    -1.19000      0.05005      3.86323      0.04197      3.64058
    -1.18000      0.05020      3.86824      0.04208      3.64478
    -1.17000      0.05036      3.87327      0.04218      3.64899
    -1.16000      0.05051      3.87831      0.04229      3.65322
    -1.15000      0.05067      3.88337      0.04240      3.65745
    -1.14000      0.05083      3.88844      0.04251      3.66169
    -1.13000      0.05098      3.89353      0.04261      3.66595
    -1.12000      0.05114      3.89863      0.04272      3.67021
    -1.11000      0.05130      3.90375      0.04283      3.67449
    -1.10000      0.05146      3.90889      0.04294      3.67878
    -1.09000      0.05162      3.91404      0.04305      3.68307
    -1.08000      0.05178      3.91920      0.04316      3.68738
    -1.07000      0.05195      3.92439      0.04328      3.69171
    -1.06000      0.05211      3.92959      0.04339      3.69603
    -1.05000      0.05228      3.93480      0.04350      3.70038
    -1.04000      0.05244      3.94004      0.04361      3.70473
    -1.03000      0.05261      3.94528      0.04373      3.70910
    -1.02000      0.05278      3.95055      0.04384      3.71348
    -1.01000      0.05294      3.95583      0.04395      3.71786
    -1.00000      0.05311      3.96113      0.04407      3.72226
    -0.99000      0.05328      3.96645      0.04418      3.72667
    -0.98000      0.05346      3.97178      0.04430      3.73109
    -0.97000      0.05363      3.97714      0.04441      3.73553
    -0.96000      0.05380      3.98250      0.04453      3.73997
    -0.95000      0.05398      3.98789      0.04465      3.74443
    -0.94000      0.05415      3.99329      0.04477      3.74890
    -0.93000      0.05433      3.99871      0.04488      3.75338
    -0.92000      0.05450      4.00415      0.04500      3.75787
    -0.91000      0.05468      4.00961      0.04512      3.76238
    -0.90000      0.05486      4.01508      0.04524      3.76690
    -0.89000      0.05504      4.02057      0.04536      3.77142
    -0.88000      0.05522      4.02608      0.04548      3.77596
    -0.87000      0.05541      4.03161      0.04560      3.78052
    -0.86000      0.05559      4.03716      0.04573      3.78508
    -0.85000      0.05578      4.04272      0.04585      3.78966
    -0.84000      0.05596      4.04830      0.04597      3.79425
    -0.83000      0.05615      4.05391      0.04609      3.79885
    -0.82000      0.05634      4.05953      0.04622      3.80346
    -0.81000      0.05653      4.06517      0.04634      3.80809
    -0.80000      0.05672      4.07082      0.04647      3.81273
    -0.79000      0.05691      4.07650      0.04659      3.81738
    -0.78000      0.05710      4.08220      0.04672      3.82204
    -0.77000      0.05729      4.08791      0.04684      3.82672
    -0.76000      0.05749      4.09365      0.04697      3.83141
    -0.75000      0.05768      4.09940      0.04710      3.83611
    -0.74000      0.05788      4.10518      0.04723      3.84082
    -0.73000      0.05808      4.11097      0.04736      3.84555
    -0.72000      0.05828      4.11679      0.04749      3.85029
    -0.71000      0.05848      4.12262      0.04762      3.85504
    -0.70000      0.05868      4.12847      0.04775      3.85981
    -0.69000      0.05889      4.13435      0.04788      3.86459
    -0.68000      0.05909      4.14024      0.04801      3.86938
    -0.67000      0.05930      4.14616      0.04814      3.87419
    -0.66000      0.05951      4.15209      0.04828      3.87900
    -0.65000      0.05972      4.15805      0.04841      3.88384
    -0.64000      0.05993      4.16403      0.04854      3.88868
    -0.63000      0.06014      4.17002      0.04868      3.89354
    -0.62000      0.06035      4.17605      0.04881      3.89842
    -0.61000      0.06056      4.18209      0.04895      3.90330
    -0.60000      0.06078      4.18815      0.04909      3.90820
    -0.59000      0.06100      4.19423      0.04922      3.91311
    -0.58000      0.06121      4.20034      0.04936      3.91804
    -0.57000      0.06143      4.20647      0.04950      3.92298
    -0.56000      0.06166      4.21262      0.04964      3.92794
    -0.55000      0.06188      4.21879      0.04978      3.93291
    -0.54000      0.06210      4.22498      0.04992      3.93789
    -0.53000      0.06233      4.23120      0.05006      3.94289
    -0.52000      0.06255      4.23744      0.05020      3.94790
    -0.51000      0.06278      4.24370      0.05034      3.95292
    -0.50000      0.06301      4.24998      0.05049      3.95796
    -0.49000      0.06324      4.25629      0.05063      3.96301
    -0.48000      0.06348      4.26262      0.05077      3.96808
    -0.47000      0.06371      4.26898      0.05092      3.97317
    -0.46000      0.06395      4.27535      0.05107      3.97826
    -0.45000      0.06419      4.28176      0.05121      3.98337
    -0.44000      0.06443      4.28818      0.05136      3.98850
    -0.43000      0.06467      4.29463      0.05151      3.99364
    -0.42000      0.06491      4.30110      0.05166      3.99880
    -0.41000      0.06516      4.30760      0.05180      4.00397
    -0.40000      0.06540      4.31412      0.05195      4.00915
    -0.39000      0.06565      4.32067      0.05211      4.01435
    -0.38000      0.06590      4.32724      0.05226      4.01957
    -0.37000      0.06615      4.33384      0.05241      4.02480
    -0.36000      0.06640      4.34046      0.05256      4.03005
    -0.35000      0.06666      4.34711      0.05272      4.03531
    -0.34000      0.06692      4.35378      0.05287      4.04058
    -0.33000      0.06717      4.36048      0.05302      4.04588
    -0.32000      0.06743      4.36720      0.05318      4.05118
    -0.31000      0.06770      4.37395      0.05334      4.05651
    -0.30000      0.06796      4.38073      0.05349      4.06185
    -0.29000      0.06823      4.38753      0.05365      4.06720
    -0.28000      0.06850      4.39436      0.05381      4.07257
    -0.27000      0.06877      4.40122      0.05397      4.07796
    -0.26000      0.06904      4.40810      0.05413      4.08336
    -0.25000      0.06931      4.41501      0.05429      4.08878
    -0.24000      0.06959      4.42195      0.05445      4.09421
    -0.23000      0.06987      4.42892      0.05462      4.09967
    -0.22000      0.07015      4.43591      0.05478      4.10513
    -0.21000      0.07043      4.44293      0.05494      4.11062
    -0.20000      0.07071      4.44998      0.05511      4.11611
    -0.19000      0.07100      4.45706      0.05528      4.12163
    -0.18000      0.07129      4.46417      0.05544      4.12716
    -0.17000      0.07158      4.47130      0.05561      4.13272
    -0.16000      0.07187      4.47847      0.05578      4.13828
    -0.15000      0.07217      4.48566      0.05595      4.14386
    -0.14000      0.07246      4.49289      0.05612      4.14947
    -0.13000      0.07276      4.50014      0.05629      4.15508
    -0.12000      0.07307      4.50743      0.05646      4.16072
    -0.11000      0.07337      4.51474      0.05663      4.16637
    -0.10000      0.07368      4.52208      0.05681      4.17204
    -0.09000      0.07399      4.52946      0.05698      4.17772
    -0.08000      0.07430      4.53686      0.05716      4.18342
    -0.07000      0.07461      4.54430      0.05733      4.18915
    -0.06000      0.07493      4.55177      0.05751      4.19489
    -0.05000      0.07525      4.55927      0.05769      4.20064
    -0.04000      0.07557      4.56680      0.05787      4.20642
    -0.03000      0.07590      4.57437      0.05805      4.21221
    -0.02000      0.07622      4.58196      0.05823      4.21803
     -0.0100       0.0766       4.5896       0.0584       4.2239
     0.00000      0.07689      4.59726      0.05859      4.22970
      0.0100       0.0772       4.6050       0.0588       4.2356
     0.02000      0.07756      4.61268      0.05896      4.24145
     0.03000      0.07790      4.62045      0.05915      4.24735
     0.04000      0.07824      4.62824      0.05933      4.25327
     0.05000      0.07859      4.63608      0.05952      4.25921
     0.06000      0.07894      4.64394      0.05971      4.26517
     0.07000      0.07929      4.65184      0.05990      4.27115
     0.08000      0.07965      4.65978      0.06009      4.27714
     0.09000      0.08001      4.66775      0.06028      4.28315
     0.10000      0.08037      4.67576      0.06047      4.28919
     0.11000      0.08073      4.68381      0.06067      4.29524
     0.12000      0.08110      4.69189      0.06086      4.30132
     0.13000      0.08147      4.70000      0.06106      4.30741
     0.14000      0.08185      4.70816      0.06125      4.31352
     0.15000      0.08222      4.71635      0.06145      4.31965
     0.16000      0.08260      4.72458      0.06165      4.32580
     0.17000      0.08299      4.73285      0.06185      4.33197
     0.18000      0.08338      4.74116      0.06205      4.33817
     0.19000      0.08377      4.74950      0.06225      4.34438
     0.20000      0.08416      4.75789      0.06245      4.35061
     0.21000      0.08456      4.76631      0.06266      4.35686
     0.22000      0.08496      4.77477      0.06286      4.36313
     0.23000      0.08537      4.78328      0.06307      4.36943
     0.24000      0.08578      4.79182      0.06328      4.37574
     0.25000      0.08619      4.80041      0.06349      4.38207
     0.26000      0.08661      4.80903      0.06370      4.38843
     0.27000      0.08703      4.81770      0.06391      4.39481
     0.28000      0.08746      4.82642      0.06412      4.40120
     0.29000      0.08788      4.83517      0.06433      4.40762
     0.30000      0.08832      4.84397      0.06455      4.41406
     0.31000      0.08876      4.85280      0.06476      4.42052
     0.32000      0.08920      4.86169      0.06498      4.42700
     0.33000      0.08964      4.87062      0.06520      4.43351
     0.34000      0.09009      4.87959      0.06542      4.44003
     0.35000      0.09055      4.88860      0.06564      4.44658
     0.36000      0.09101      4.89767      0.06586      4.45316
     0.37000      0.09147      4.90678      0.06608      4.45975
     0.38000      0.09194      4.91593      0.06630      4.46636
     0.39000      0.09241      4.92513      0.06653      4.47300
     0.40000      0.09289      4.93438      0.06676      4.47966
     0.41000      0.09337      4.94368      0.06699      4.48634
     0.42000      0.09386      4.95302      0.06721      4.49305
     0.43000      0.09435      4.96242      0.06745      4.49977
     0.44000      0.09485      4.97186      0.06768      4.50653
     0.45000      0.09535      4.98135      0.06791      4.51330
     0.46000      0.09586      4.99090      0.06815      4.52010
     0.47000      0.09638      5.00049      0.06838      4.52692
     0.48000      0.09689      5.01014      0.06862      4.53377
     0.49000      0.09742      5.01983      0.06886      4.54064
     0.50000      0.09795      5.02958      0.06910      4.54753
     0.51000      0.09848      5.03938      0.06934      4.55445
     0.52000      0.09903      5.04924      0.06958      4.56139
     0.53000      0.09957      5.05915      0.06983      4.56836
     0.54000      0.10013      5.06911      0.07007      4.57535
     0.55000      0.10069      5.07913      0.07032      4.58236
     0.56000      0.10125      5.08921      0.07057      4.58940
     0.57000      0.10183      5.09934      0.07082      4.59646
     0.58000      0.10240      5.10953      0.07107      4.60355
     0.59000      0.10299      5.11978      0.07132      4.61067
     0.60000      0.10358      5.13008      0.07158      4.61781
     0.61000      0.10418      5.14045      0.07183      4.62498
     0.62000      0.10479      5.15088      0.07209      4.63216
     0.63000      0.10540      5.16136      0.07235      4.63938
     0.64000      0.10602      5.17191      0.07261      4.64662
     0.65000      0.10665      5.18252      0.07287      4.65389
     0.66000      0.10728      5.19319      0.07314      4.66119
     0.67000      0.10792      5.20392      0.07340      4.66851
     0.68000      0.10857      5.21472      0.07367      4.67586
     0.69000      0.10923      5.22558      0.07394      4.68323
     0.70000      0.10990      5.23651      0.07421      4.69064
     0.71000      0.11057      5.24751      0.07448      4.69807
     0.72000      0.11126      5.25857      0.07476      4.70552
     0.73000      0.11195      5.26970      0.07503      4.71301
     0.74000      0.11265      5.28090      0.07531      4.72052
     0.75000      0.11336      5.29218      0.07559      4.72806
     0.76000      0.11407      5.30351      0.07587      4.73563
     0.77000      0.11480      5.31493      0.07615      4.74322
     0.78000      0.11554      5.32641      0.07644      4.75084
     0.79000      0.11628      5.33797      0.07672      4.75850
     0.80000      0.11704      5.34961      0.07701      4.76617
     0.81000      0.11781      5.36131      0.07730      4.77388
     0.82000      0.11858      5.37309      0.07759      4.78163
     0.83000      0.11937      5.38496      0.07789      4.78939
     0.84000      0.12017      5.39690      0.07818      4.79719
     0.85000      0.12097      5.40892      0.07848      4.80501
     0.86000      0.12179      5.42102      0.07878      4.81287
     0.87000      0.12263      5.43320      0.07908      4.82076
     0.88000      0.12347      5.44547      0.07938      4.82868
     0.89000      0.12432      5.45782      0.07969      4.83662
     0.90000      0.12519      5.47025      0.08000      4.84460
     0.91000      0.12607      5.48277      0.08030      4.85261
     0.92000      0.12696      5.49538      0.08062      4.86065
     0.93000      0.12786      5.50808      0.08093      4.86872
     0.94000      0.12878      5.52086      0.08124      4.87682
     0.95000      0.12971      5.53374      0.08156      4.88495
     0.96000      0.13066      5.54671      0.08188      4.89312
     0.97000      0.13162      5.55978      0.08220      4.90132
     0.98000      0.13259      5.57294      0.08253      4.90955
     0.99000      0.13358      5.58620      0.08285      4.91781
     1.00000      0.13458      5.59956      0.08318      4.92610
     1.01000      0.13560      5.61301      0.08351      4.93442
     1.02000      0.13664      5.62657      0.08384      4.94279
     1.03000      0.13769      5.64023      0.08418      4.95118
     1.04000      0.13876      5.65400      0.08451      4.95961
     1.05000      0.13985      5.66787      0.08485      4.96807
     1.06000      0.14095      5.68185      0.08519      4.97656
     1.07000      0.14208      5.69594      0.08554      4.98509
     1.08000      0.14322      5.71014      0.08588      4.99365
     1.09000      0.14438      5.72445      0.08623      5.00226
     1.10000      0.14556      5.73888      0.08658      5.01088
     1.11000      0.14676      5.75343      0.08694      5.01955
     1.12000      0.14798      5.76810      0.08729      5.02825
     1.13000      0.14922      5.78288      0.08765      5.03700
     1.14000      0.15048      5.79779      0.08801      5.04576
     1.15000      0.15177      5.81283      0.08838      5.05458
     1.16000      0.15307      5.82799      0.08874      5.06342
     1.17000      0.15441      5.84329      0.08911      5.07231
     1.18000      0.15576      5.85872      0.08948      5.08123
     1.19000      0.15714      5.87427      0.08986      5.09019
     1.20000      0.15855      5.88997      0.09023      5.09918
     1.21000      0.15998      5.90581      0.09061      5.10822
     1.22000      0.16145      5.92179      0.09099      5.11729
     1.23000      0.16293      5.93791      0.09138      5.12640
     1.24000      0.16445      5.95418      0.09177      5.13555
     1.25000      0.16600      5.97060      0.09216      5.14473
     1.26000      0.16758      5.98718      0.09255      5.15396
     1.27000      0.16918      6.00391      0.09294      5.16322
     1.28000      0.17083      6.02080      0.09334      5.17253
     1.29000      0.17250      6.03785      0.09375      5.18187
     1.30000      0.17421      6.05507      0.09415      5.19125
     1.31000      0.17596      6.07245      0.09456      5.20068
     1.32000      0.17774      6.09001      0.09497      5.21015
     1.33000      0.17956      6.10775      0.09538      5.21965
     1.34000      0.18142      6.12566      0.09580      5.22920
     1.35000      0.18331      6.14376      0.09622      5.23880
     1.36000      0.18526      6.16204      0.09664      5.24843
     1.37000      0.18724      6.18052      0.09707      5.25810
     1.38000      0.18927      6.19919      0.09750      5.26782
     1.39000      0.19134      6.21806      0.09793      5.27758
     1.40000      0.19347      6.23714      0.09837      5.28738
     1.41000      0.19564      6.25642      0.09881      5.29723
     1.42000      0.19786      6.27592      0.09925      5.30712
     1.43000      0.20014      6.29564      0.09970      5.31706
    1.440000     0.202470     6.315579     0.100149     5.327044
    1.450000     0.204859     6.335751     0.100603     5.337064
    1.460000     0.207307     6.356157     0.101060     5.347136
    1.470000     0.209816     6.376801     0.101521     5.357256
    1.480000     0.212389     6.397693     0.101985     5.367418
    1.490000     0.215028     6.418835     0.102453     5.377625
    1.500000     0.217736     6.440234     0.102925     5.387887
    1.510000     0.220515     6.461900     0.103400     5.398189
    1.520001     0.223368     6.483840     0.103880     5.408540
    1.530001     0.226299     6.506055     0.104363     5.418939
    1.540001     0.229310     6.528560     0.104850     5.429384
    1.550001     0.232404     6.551357     0.105341     5.439882
    1.560001     0.235586     6.574453     0.105836     5.450424
    1.570001     0.238859     6.597857     0.106335     5.461019
    1.580001     0.242226     6.621585     0.106838     5.471669
    1.590001     0.245692     6.645639     0.107345     5.482362
    1.600001     0.249261     6.670029     0.107857     5.493110
    1.610000     0.252938     6.694764     0.108372     5.503907
    1.620000     0.256728     6.719855     0.108892     5.514757
    1.630000     0.260635     6.745314     0.109417     5.525656
    1.640000     0.264665     6.771152     0.109945     5.536610
    1.650000     0.268824     6.797375     0.110478     5.547616
    1.660000     0.273118     6.824002     0.111016     5.558675
    1.670000     0.277554     6.851041     0.111558     5.569786
    1.680000     0.282138     6.878507     0.112105     5.580954
    1.690000     0.286877     6.906415     0.112657     5.592179
    1.700000     0.291781     6.934773     0.113213     5.603458
    1.710000     0.296856     6.963605     0.113774     5.614789
    1.720000     0.302111     6.992919     0.114340     5.626178
    1.730000     0.307557     7.022735     0.114911     5.637625
    1.740000     0.313203     7.053065     0.115487     5.649127
    1.750000     0.319059     7.083939     0.116068     5.660685
    1.760000     0.325139     7.115362     0.116654     5.672303
    1.770000     0.331453     7.147363     0.117245     5.683985
    1.780000     0.338015     7.179960     0.117841     5.695718
    1.790000     0.344840     7.213174     0.118443     5.707515
    1.800000     0.351942     7.247029     0.119050     5.719371
    1.810000     0.359338     7.281550     0.119663     5.731290
    1.820000     0.367046     7.316761     0.120281     5.743268
    1.830000     0.375085     7.352691     0.120905     5.755310
    1.840000     0.383475     7.389366     0.121534     5.767415
    1.850000     0.392238     7.426814     0.122170     5.779577
    1.860000     0.401398     7.465075     0.122811     5.791810
    1.870000     0.410983     7.504178     0.123458     5.804101
    1.880000     0.421018     7.544151     0.124111     5.816459
    1.890001     0.431537     7.585049     0.124770     5.828882
    1.900001     0.442570     7.626894     0.125436     5.841377
    1.910001     0.454155     7.669737     0.126107     5.853932
    1.920001     0.466331     7.713616     0.126785     5.866551
    1.930001     0.479140     7.758585     0.127470     5.879243
    1.940001     0.492631     7.804691     0.128161     5.892002
    1.950001     0.506854     7.851989     0.128858     5.904829
    1.960001     0.521866     7.900524     0.129563     5.917729
    1.970001     0.537730     7.950376     0.130274     5.930695
    1.980000     0.554513     8.001595     0.130992     5.943735
    1.990000     0.572292     8.054248     0.131717     5.956845
    2.000000     0.591148     8.108408     0.132450     5.970034
    2.010000     0.611175     8.164156     0.133189     5.983292
    2.020000     0.632474     8.221568     0.133936     5.996623
    2.030000     0.655158     8.280728     0.134690     6.010029
    2.040000     0.679355     8.341731     0.135452     6.023510
    2.050000     0.705203     8.404666     0.136222     6.037068
    2.060000     0.732861     8.469642     0.136999     6.050700
    2.070000     0.762504     8.536767     0.137784     6.064418
    2.080000     0.794332     8.606145     0.138578     6.078206
    2.090000     0.828564     8.677899     0.139379     6.092077
    2.100000     0.865452     8.752151     0.140189     6.106026
    2.110000     0.905279     8.829032     0.141007     6.120057
    2.120000     0.948366     8.908670     0.141834     6.134170
    2.130000     0.995075     8.991201     0.142670     6.148366
    2.140000     1.045822     9.076762     0.143514     6.162650
    2.150000     1.101079     9.165476     0.144367     6.177011
    2.160000     1.161383     9.257480     0.145229     6.191456
    2.170000     1.227354     9.352879     0.146101     6.205993
    2.180000     1.299700     9.451764     0.146982     6.220617
    2.190000     1.379233     9.554209     0.147873     6.235328
    2.200000     1.466891     9.660226     0.148773     6.250125
    2.210000     1.563751     9.769773     0.149683     6.265015
    2.220000     1.671052     9.882717     0.150604     6.279996
    2.230000     1.790225     9.998804     0.151534     6.295066
     2.24000      1.92291     10.11761      0.15247      6.31023
     2.25000      2.07097     10.23847      0.15343      6.32550
     2.26000      2.23657     10.36043      0.15439      6.34085
     2.27000      2.42208     10.48209      0.15536      6.35630
     2.28000      2.63017     10.60147      0.15635      6.37185
     2.29000      2.86376     10.71590      0.15734      6.38750
     2.30000      3.12589     10.82172      0.15835      6.40324
     2.31000      3.41958     10.91403      0.15937      6.41909
     2.32000      3.74757     10.98640      0.16040      6.43503
     2.33000      4.11177     11.03055      0.16144      6.45109
     2.34000      4.51263     11.03613      0.16250      6.46724
     2.35000      4.94805     10.99069      0.16356      6.48350
     2.36000      5.41214     10.88003      0.16464      6.49987
     2.37000      5.89369     10.68928      0.16574      6.51634
     2.38000      6.37490     10.40494      0.16684      6.53292
     2.39000      6.83087     10.01798      0.16796      6.54962
    2.400000     7.230767     9.527713     0.169099     6.566424
    2.410000     7.541399     8.945422     0.170247     6.583350
    2.420000     7.733017     8.295927     0.171409     6.600383
    2.430000     7.786094     7.615739     0.172586     6.617531
    2.440000     7.696445     6.947323     0.173778     6.634797
    2.450000     7.476369     6.331149     0.174985     6.652184
    2.460000     7.151405     5.798521     0.176207     6.669695
    2.470000     6.754020     5.367645     0.177445     6.687319
    2.480000     6.317084     5.043602     0.178700     6.705077
    2.490000     5.869037     4.821157     0.179970     6.722949
    2.500000     5.431581     4.688674     0.181257     6.740957
    2.510000     5.019432     4.631697     0.182561     6.759089
    2.520000     4.641306     4.635532     0.183883     6.777355
    2.530000     4.301394     4.686788     0.185223     6.795750
    2.540000     4.000757     4.774052     0.186580     6.814279
    2.550000     3.738538     4.888032     0.187956     6.832942
    2.560000     3.512808     5.021403     0.189351     6.851741
    2.570000     3.321171     5.168506     0.190765     6.870685
    2.580000     3.161158     5.325045     0.192198     6.889766
    2.590000     3.030456     5.487770     0.193652     6.908993
    2.600000     2.927042     5.654227     0.195126     6.928357
    2.610000     2.849262     5.822511     0.196621     6.947877
    2.620001     2.795841     5.991107     0.198138     6.967540
    2.630001     2.765922     6.158655     0.199677     6.987360
    2.640001     2.759016     6.323884     0.201238     7.007329
    2.650001     2.774992     6.485419     0.202821     7.027453
    2.660001     2.814040     6.641637     0.204429     7.047737
    2.670001     2.876579     6.790514     0.206060     7.068177
    2.680001     2.963156     6.929454     0.207716     7.088784
    2.690001     3.074256     7.055115     0.209396     7.109553
    2.700001     3.210024     7.163253     0.211103     7.130497
    2.710001     3.369871     7.248587     0.212835     7.151599
    2.720001     3.551914     7.304825     0.214595     7.172881
    2.730000     3.752293     7.324894     0.216382     7.194333
    2.740000     3.964414     7.301560     0.218197     7.215972
    2.750000     4.178357     7.228549     0.220041     7.237783
    2.760000     4.380745     7.102214     0.221914     7.259781
    2.770000     4.555563     6.923488     0.223818     7.281966
    2.780000     4.686191     6.699548     0.225753     7.304341
    2.790000     4.758477     6.444326     0.227720     7.326901
    2.800000     4.764092     6.177126     0.229720     7.349662
    2.810000     4.702722     5.919436     0.231753     7.372622
    2.820000     4.582195     5.690909     0.233820     7.395782
    2.830000     4.416440     5.506033     0.235923     7.419151
    2.840000     4.222194     5.372556     0.238062     7.442729
    2.850000     4.015862     5.291849     0.240238     7.466518
    2.860000     3.811369     5.260466     0.242452     7.490518
    2.870000     3.619256     5.272124     0.244706     7.514742
    2.880000     3.446726     5.319364     0.247000     7.539192
    2.890000     3.298218     5.394722     0.249336     7.563859
    2.900000     3.176178     5.491371     0.251714     7.588773
    2.910000     3.081738     5.603336     0.254135     7.613911
    2.920000     3.015282     5.725478     0.256602     7.639299
    2.930000     2.976847     5.853329     0.259116     7.664929
    2.940000     2.966363     5.982855     0.261677     7.690800
    2.950000     2.983783     6.110182     0.264287     7.716933
    2.960000     3.029099     6.231324     0.266948     7.743321
    2.970000     3.102224     6.341901     0.269661     7.769970
    2.980000     3.202786     6.436911     0.272427     7.796894
    2.990001     3.329754     6.510533     0.275250     7.824088
    3.000001     3.480876     6.556045     0.278129     7.851566
    3.010001     3.652066     6.566060     0.281067     7.879317
    3.020001     3.836594     6.533008     0.284066     7.907373
    3.030000     4.024485     6.450223     0.287127     7.935711
    3.040000     4.202300     6.313521     0.290254     7.964359
    3.050000     4.353858     6.123151     0.293447     7.993317
    3.060000     4.462121     5.885512     0.296709     8.022585
    3.070000     4.512213     5.613795     0.300043     8.052181
    3.080000     4.494748     5.326806     0.303451     8.082100
    3.090000     4.408231     5.045918     0.306935     8.112357
    3.100000     4.259375     4.791066     0.310498     8.142957
    3.110000     4.061220     4.577290     0.314143     8.173907
    3.120000     3.829916     4.412977     0.317873     8.205215
    3.130000     3.581507     4.300059     0.321691     8.236892
    3.140000     3.329633     4.235507     0.325599     8.268943
    3.150000     3.084518     4.213310     0.329602     8.301378
    3.160000     2.852927     4.226215     0.333703     8.334203
    3.170000     2.638707     4.266957     0.337906     8.367436
    3.180000     2.443504     4.328982     0.342214     8.401075
    3.190000     2.267473     4.406738     0.346632     8.435138
    3.200000     2.109849     4.495740     0.351164     8.469636
    3.210000     1.969348     4.592474     0.355815     8.504574
    3.220000     1.844459     4.694252     0.360589     8.539972
    3.230000     1.733615     4.799064     0.365491     8.575828
    3.240000     1.635304     4.905432     0.370527     8.612169
    3.250000     1.548117     5.012293     0.375702     8.648991
    3.260000     1.470780     5.118894     0.381022     8.686327
    3.270000     1.402162     5.224714     0.386494     8.724173
    3.280000     1.341263     5.329421     0.392123     8.762559
    3.290000     1.287214     5.432799     0.397919     8.801485
    3.300000     1.239259     5.534743     0.403886     8.840981
    3.310000     1.196744     5.635201     0.410034     8.881045
    3.320000     1.159104     5.734185     0.416371     8.921702
    3.330000     1.125855     5.831743     0.422906     8.962979
    3.340000     1.096580     5.927940     0.429647     9.004886
    3.350001     1.070923     6.022876     0.436606     9.047447
    3.360001     1.048583     6.116639     0.443792     9.090659
    3.370001     1.029302     6.209345     0.451218     9.134578
    3.380001     1.012862     6.301111     0.458894     9.179202
    3.390001     0.999084     6.392054     0.466835     9.224562
    3.400001     0.987823     6.482301     0.475053     9.270680
    3.410001     0.978960     6.571968     0.483564     9.317586
    3.420001     0.972403     6.661185     0.492383     9.365294
    3.430001     0.968089     6.750068     0.501528     9.413837
    3.440001     0.965980     6.838740     0.511015     9.463263
    3.450001     0.966056     6.927328     0.520865     9.513568
    3.460001     0.968327     7.015949     0.531099     9.564815
    3.470001     0.972821     7.104722     0.541738     9.617010
    3.480000     0.979597     7.193770     0.552808     9.670212
    3.490000     0.988732     7.283214     0.564333     9.724448
    3.500000     1.000336     7.373166     0.576342     9.779757
    3.510000     1.014548     7.463740     0.588865     9.836182
    3.520000     1.031537     7.555048     0.601935     9.893765
    3.530000     1.051513     7.647195     0.615587     9.952552
     3.54000      1.07473      7.74028      0.62986     10.01260
     3.55000      1.10147      7.83439      0.64479     10.07395
     3.56000      1.13209      7.92959      0.66044     10.13666
     3.57000      1.16700      8.02594      0.67683     10.20079
     3.58000      1.20669      8.12346      0.69404     10.26639
     3.59000      1.25170      8.22212      0.71212     10.33354
     3.60000      1.30269      8.32184      0.73113     10.40231
     3.61000      1.36042      8.42246      0.75115     10.47277
     3.62000      1.42576      8.52373      0.77224     10.54498
     3.63000      1.49968      8.62523      0.79450     10.61903
     3.64000      1.58335      8.72637      0.81802     10.69502
     3.65000      1.67800      8.82628      0.84289     10.77303
     3.66000      1.78505      8.92378      0.86925     10.85317
     3.67000      1.90595      9.01721      0.89719     10.93552
     3.68000      2.04225      9.10440      0.92688     11.02023
     3.69000      2.19531      9.18237      0.95845     11.10738
     3.70000      2.36629      9.24736      0.99209     11.19712
     3.71000      2.55562      9.29454      1.02798     11.28955
     3.72000      2.76281      9.31805      1.06633     11.38486
     3.73000      2.98553      9.31104      1.10739     11.48315
     3.74000      3.21920      9.26612      1.15142     11.58461
     3.75000      3.45601      9.17616      1.19872     11.68936
     3.76000      3.68474      9.03565      1.24963     11.79764
     3.77000      3.89074      8.84264      1.30453     11.90955
     3.78000      4.05756      8.60052      1.36386     12.02535
     3.79000      4.16928      8.31947      1.42810     12.14516
     3.80000      4.21402      8.01589      1.49782     12.26923
     3.81000      4.18684      7.71049      1.57364     12.39769
     3.82000      4.09110      7.42422      1.65631     12.53080
     3.83000      3.93760      7.17466      1.74662     12.66865
     3.84000      3.74166      6.97315      1.84557     12.81144
     3.85000      3.51997      6.82441      1.95420     12.95928
     3.86000      3.28754      6.72730      2.07382     13.11224
     3.87000      3.05641      6.67688      2.20583     13.27025
     3.88000      2.83490      6.66620      2.35194     13.43330
     3.89000      2.62827      6.68782      2.51403     13.60102
     3.90000      2.43910      6.73475      2.69435     13.77303
     3.91000      2.26826      6.80092      2.89541     13.94854
     3.92000      2.11543      6.88130      3.12008     14.12640
     3.93000      1.97954      6.97193      3.37172     14.30502
     3.94000      1.85924      7.06968      3.65393     14.48203
     3.95000      1.75301      7.17226      3.97091     14.65423
     3.96000      1.65936      7.27788      4.32694     14.81715
     3.97000      1.57684      7.38529      4.72670     14.96479
     3.98000      1.50418      7.49355      5.17449     15.08915
     3.99000      1.44019      7.60203      5.67424     15.17987
     4.00000      1.38385      7.71026      6.22815     15.22359
     4.01000      1.33423      7.81797      6.83610     15.20386
     4.02000      1.29057      7.92493      7.49330     15.10113
     4.03000      1.25215      8.03108      8.18905     14.89354
     4.04000      1.21840      8.13634      8.90365     14.55898
     4.05000      1.18879      8.24074      9.60748     14.07841
     4.06000      1.16288      8.34428     10.26011     13.44131
     4.07000      1.14027      8.44705     10.81366     12.65097
     4.08000      1.12064      8.54907     11.21856     11.73015
     4.09000      1.10368      8.65046     11.43351     10.72126
     4.10000      1.08916      8.75127     11.43495      9.68291
     4.11000      1.07685      8.85161     11.22356      8.67878
     4.12000      1.06655      8.95154     10.82407      7.76688
     4.13000      1.05811      9.05120     10.27845      6.98856
    4.140000     1.051373     9.150621     9.636481     6.365530
    4.150001     1.046219     9.249939     8.945708     5.900198
    4.160000     1.042537     9.349210     8.246117     5.581456
    4.170001     1.040233     9.448545     7.566721     5.389966
    4.180000     1.039222     9.548003     6.926708     5.303587
    4.190001     1.039435     9.647699     6.336446     5.300547
    4.200000     1.040810     9.747680     5.800422     5.361448
    4.210001     1.043292     9.848059     5.318603     5.470020
    4.219999     1.046839     9.948887     4.888692     5.613100
     4.23000      1.05141     10.05027      4.50673      5.78047
     4.24000      1.05698     10.15225      4.16841      5.96422
     4.25000      1.06351     10.25495      3.86906      6.15852
     4.26000      1.07099     10.35840      3.60442      6.35896
     4.27000      1.07941     10.46272      3.37034      6.56242
     4.28000      1.08875     10.56796      3.16321      6.76660
     4.29000      1.09900     10.67418      2.97981      6.96989
     4.30000      1.11017     10.78150      2.81721      7.17127
     4.31000      1.12225     10.88995      2.67296      7.36996
     4.32000      1.13526     10.99965      2.54485      7.56560
     4.33000      1.14919     11.11065      2.43101      7.75790
     4.34000      1.16407     11.22306      2.32978      7.94683
     4.35000      1.17990     11.33693      2.23977      8.13235
     4.36000      1.19671     11.45237      2.15973      8.31462
     4.37000      1.21453     11.56944      2.08861      8.49374
     4.38000      1.23337     11.68826      2.02546      8.66995
     4.39000      1.25328     11.80887      1.96951      8.84338
     4.40000      1.27428     11.93143      1.92003      9.01433
     4.41000      1.29642     12.05598      1.87644      9.18297
     4.42000      1.31974     12.18266      1.83819      9.34958
     4.43000      1.34428     12.31154      1.80483      9.51433
     4.44000      1.37011     12.44276      1.77595      9.67752
     4.45000      1.39727     12.57638      1.75120      9.83932
     4.46000      1.42585     12.71259      1.73026     10.00000
     4.47000      1.45589     12.85144      1.71289     10.15971
     4.48000      1.48749     12.99312      1.69883     10.31873
     4.49000      1.52071     13.13770      1.68790     10.47721
     4.50000      1.55568     13.28537      1.67990     10.63541
     4.51000      1.59246     13.43622      1.67470     10.79345
     4.52000      1.63118     13.59047      1.67215     10.95159
     4.53000      1.67196     13.74822      1.67216     11.10997
     4.54000      1.71493     13.90968      1.67463     11.26883
     4.55000      1.76023     14.07499      1.67948     11.42829
     4.56000      1.80803     14.24438      1.68666     11.58858
     4.57000      1.85848     14.41799      1.69611     11.74984
     4.58000      1.91179     14.59609      1.70780     11.91230
     4.59000      1.96816     14.77884      1.72171     12.07607
     4.60000      2.02783     14.96651      1.73783     12.24140
     4.61000      2.09105     15.15931      1.75616     12.40841
     4.62000      2.15810     15.35753      1.77672     12.57734
     4.63000      2.22931     15.56142      1.79952     12.74834
     4.64000      2.30500     15.77123      1.82460     12.92158
     4.65000      2.38558     15.98732      1.85200     13.09729
     4.66000      2.47147     16.20994      1.88178     13.27563
     4.67000      2.56317     16.43949      1.91402     13.45684
     4.68000      2.66120     16.67620      1.94877     13.64107
     4.69000      2.76619     16.92055      1.98615     13.82861
     4.70000      2.87880     17.17279      2.02623     14.01960
     4.71000      2.99984     17.43339      2.06916     14.21433
     4.72000      3.13013     17.70263      2.11505     14.41298
     4.73000      3.27071     17.98097      2.16405     14.61587
     4.74000      3.42265     18.26871      2.21632     14.82318
     4.75000      3.58729     18.56622      2.27205     15.03524
     4.76000      3.76601     18.87375      2.33143     15.25227
     4.77000      3.96053     19.19161      2.39469     15.47464
     4.78000      4.17267     19.51984      2.46205     15.70257
     4.79000      4.40463     19.85852      2.53381     15.93648
     4.80000      4.65878     20.20736      2.61025     16.17664
     4.81000      4.93793     20.56596      2.69170     16.42347
     4.82000      5.24508     20.93339      2.77852     16.67728
     4.83000      5.58375     21.30840      2.87113     16.93856
     4.84000      5.95756     21.68883      2.96994     17.20765
     4.85000      6.37058     22.07195      3.07547     17.48509
     4.86000      6.82675     22.45366      3.18824     17.77128
     4.87000      7.33009     22.82880      3.30889     18.06680
     4.88000      7.88375     23.19044      3.43805     18.37211
     4.89000      8.49009     23.53033      3.57652     18.68786
     4.90000      9.14919     23.83843      3.72508     19.01455
     4.91000      9.85891     24.10399      3.88472     19.35293
     4.92000     10.61328     24.31609      4.05644     19.70355
     4.93000     11.40330     24.46540      4.24146     20.06724
     4.94000     12.21652     24.54555      4.44105     20.44462
     4.95000     13.03978     24.55456      4.65677     20.83658
     4.96000     13.86031     24.49466      4.89021     21.24380
     4.97000     14.66865     24.37096      5.14337     21.66726
     4.98000     15.45790     24.18909      5.41831     22.10766
     4.99000     16.22311     23.95331      5.71758     22.56601
     5.00000     16.95787     23.66692      6.04393     23.04312
     5.01000     17.65315     23.33498      6.40049     23.53972
     5.02000     18.29902     22.96763      6.79101     24.05677
     5.03000     18.88826     22.58253      7.21954     24.59479
     5.04000     19.42292     22.20269      7.69102     25.15448
     5.05000     19.91742     21.85117      8.21080     25.73600
     5.06000     20.39894     21.54285      8.78538     26.33952
     5.07000     20.90180     21.27845      9.42188     26.96435
     5.08000     21.46026     21.04096     10.12889     27.60961
     5.09000     22.09963     20.79723     10.91584     28.27303
     5.10000     22.83019     20.50205     11.79402     28.95163
     5.11000     23.64151     20.10536     12.77576     29.64024
     5.12000     24.50134     19.56023     13.87566     30.33193
     5.13000     25.35560     18.83325     15.10934     31.01629
     5.14000     26.13511     17.91355     16.49475     31.67933
     5.15000     26.76514     16.82117     18.05028     32.30145
     5.16000     27.18117     15.60768     19.79571     32.85660
     5.17000     27.34306     14.35114     21.74883     33.30989
     5.18000     27.24565     13.14075     23.92544     33.61633
     5.19000     26.91996     12.06121     26.33305     33.71855
     5.20000     26.42591     11.17633     28.96849     33.54646
     5.21000     25.83981     10.52186     31.80765     33.01805
     5.22000     25.24049     10.10323     34.80021     32.04362
     5.23000     24.69918      9.90087     37.85756     30.53611
     5.24000     24.27260      9.87655     40.85106     28.42572
     5.25000     24.00109      9.98084     43.61060     25.68379
     5.26000     23.90811     10.15857     45.94364     22.34296
     5.27000     24.00149     10.35277     47.66174     18.51638
     5.28000     24.27417     10.50783     48.62311     14.39097
     5.29000     24.70452     10.57209     48.76694     10.20620
     5.30000     25.25710     10.50149     48.13187      6.20434
     5.31000     25.88382     10.26378     46.84563      2.58812
     5.32000     26.52797      9.84308     45.09089     -0.51731
     5.33000     27.12963      9.24356     43.06498     -3.06907
     5.34000     27.63412      8.48934     40.94159     -5.09884
     5.35000     27.99882      7.62211     38.85116     -6.68591
     5.36000     28.19912      6.69393     36.87031     -7.93392
     5.37000     28.22966      5.76085     35.02693     -8.94606
     5.38000     28.10386      4.87584     33.30873     -9.80866
     5.39000     27.85110      4.08298     31.67645    -10.58003
     5.40000     27.51370      3.41394     30.08209    -11.28479
     5.41000     27.14147      2.88319     28.48288    -11.91794
     5.42000     26.78595      2.48665     26.85537    -12.45361
     5.43000     26.49243      2.20181     25.19822    -12.85963
     5.44000     26.29390      1.99204     23.53134    -13.10953
     5.45000     26.20636      1.81267     21.88543    -13.19085
     5.46000     26.22815      1.61869     20.29474    -13.10651
     5.47000     26.34189      1.37156     18.78769    -12.87187
     5.48000     26.51978      1.04468     17.38527    -12.50979
     5.49000     26.73046      0.62491     16.09858    -12.04561
     5.50000     26.94534      0.11099     14.93186    -11.50405
     5.51000     27.14239     -0.49209     13.88284    -10.90663
     5.52000     27.30525     -1.17774     12.94635    -10.27155
     5.53000     27.41996     -1.94126     12.11451     -9.61291
     5.54000     27.47081     -2.77786     11.37918     -8.94183
     5.55000     27.43940     -3.68003     10.73166     -8.26619
     5.56000     27.30657     -4.63309     10.16419     -7.59201
     5.57000     27.05654     -5.61536      9.66931     -6.92310
     5.58000     26.68091     -6.59867      9.24079     -6.26237
     5.59000     26.18091     -7.55299      8.87300     -5.61126
     5.60000     25.56869     -8.44950      8.56147     -4.97094
     5.61000     24.86541     -9.26658      8.30238     -4.34166
     5.62000     24.09844     -9.99269      8.09293     -3.72376
     5.63000     23.29457    -10.62920      7.93097     -3.11703
     5.64000     22.47453    -11.18781      7.81526     -2.52162
     5.65000     21.64756    -11.68599      7.74518     -1.93741
     5.66000     20.81170    -12.13931      7.72091     -1.36491
     5.67000     19.95606    -12.55610      7.74333     -0.80463
     5.68000     19.06790    -12.93378      7.81396     -0.25806
     5.69000     18.13794    -13.26030      7.93506      0.27291
     5.70000     17.16604    -13.51783      8.10937      0.78490
     5.71000     16.16135    -13.68871      8.34017      1.27353
     5.72000     15.14180    -13.76027      8.63078      1.73226
     5.73000     14.12880    -13.72786      8.98444      2.15256
     5.74000     13.14415    -13.59514      9.40334      2.52297
     5.75000     12.20612    -13.37245      9.88762      2.82899
     5.76000     11.32728    -13.07399     10.43427      3.05299
     5.77000     10.51534    -12.71551     11.03452      3.17449
     5.78000      9.77275    -12.31197     11.67249      3.17179
     5.79000      9.09894    -11.87686     12.32221      3.02464
     5.80000      8.49053    -11.42117     12.94756      2.71879
     5.81000      7.94317    -10.95391     13.50282      2.25182
     5.82000      7.45156    -10.48175     13.93820      1.63839
     5.83000      7.01058    -10.00990     14.20754      0.91375
     5.84000      6.61499     -9.54187     14.27906      0.13100
     5.85000      6.26019     -9.08035     14.14316     -0.64603
     5.86000      5.94176     -8.62687     13.81529     -1.35538
     5.87000      5.65596     -8.18262     13.33189     -1.94720
     5.88000      5.39932     -7.74802     12.74098     -2.39127
     5.89000      5.16894     -7.32339     12.09278     -2.67704
     5.90000      4.96218     -6.90856     11.43135     -2.81043
     5.91000      4.77687     -6.50343     10.79139     -2.80758
     5.92000      4.61104     -6.10750     10.19676     -2.68964
    5.930000     4.463086    -5.720431     9.662624    -2.478554
    5.940001     4.331577    -5.341602     9.196797    -2.194551
    5.950000     4.215377    -4.970571     8.802702    -1.855201
    5.960001     4.113479    -4.606650     8.480577    -1.474809
    5.970000     4.025125    -4.249371     8.229356    -1.065117
    5.980000     3.949659    -3.898042     8.047263    -0.635240
    5.990000     3.886638    -3.552207     7.932817    -0.192816
    6.000000     3.835722    -3.211179     7.884826     0.256045
    6.010000     3.796757    -2.874545     7.902995     0.705631
    6.020000     3.769700    -2.541679     7.987769     1.150625
    6.030000     3.754677    -2.212213     8.140393     1.585127
    6.040000     3.751946    -1.885619     8.362812     2.002568
    6.050000     3.761938    -1.561626     8.657339     2.394711
    6.060000     3.785245    -1.239844     9.026308     2.751590
    6.070000     3.822629    -0.920199     9.471097     3.060544
    6.080000     3.875063    -0.602532     9.991556     3.306269
     6.09000      3.94369     -0.28709     10.58394      3.47043
     6.10000      4.02990      0.02585     11.23993      3.53254
     6.11000      4.13526      0.33555     11.94413      3.47119
     6.12000      4.26150      0.64083     12.67300      3.26685
     6.13000      4.41060      0.94015     13.39515      2.90529
     6.14000      4.58444      1.23107     14.07219      2.38181
     6.15000      4.78494      1.51048     14.66376      1.70370
     6.16000      5.01352      1.77412     15.13193      0.89135
     6.17000      5.27100      2.01677     15.44659     -0.02488
     6.18000      5.55673      2.23195     15.58749     -1.00776
     6.19000      5.86831      2.41251     15.54453     -2.01801
     6.20000      6.20046      2.55093     15.31665     -3.01511
     6.21000      6.54492      2.64075     14.91187     -3.95963
     6.22000      6.88996      2.67801     14.34827     -4.81378
     6.23000      7.22184      2.66326     13.65364     -5.54608
     6.24000      7.52648      2.60297     12.86434     -6.13446
     6.25000      7.79312      2.50974     12.01969     -6.56985
     6.26000      8.01711      2.40059     11.15782     -6.85535
     6.27000      8.20222      2.29331     10.31014     -7.00416
    6.280000     8.360117     2.202283     9.500389    -7.035341
    6.290000     8.508028     2.134863     8.743408    -6.970206
    6.300000     8.664753     2.089851     8.047359    -6.829559
    6.310000     8.847104     2.057657     7.414565    -6.631899
    6.320000     9.066638     2.022007     6.844028    -6.392922
    6.330000     9.327816     1.962177     6.332145    -6.125177
    6.340000     9.626376     1.855762     5.874461    -5.838606
    6.350000     9.948956     1.681684     5.465716    -5.540655
     6.36000     10.27296      1.42403      5.10092     -5.23704
     6.37000     10.56879      1.07590      4.77508     -4.93178
     6.38000     10.80350      0.64324      4.48382     -4.62794
     6.39000     10.94732      0.14597      4.22301     -4.32749
     6.40000     10.98037     -0.38362      3.98913     -4.03194
     6.41000     10.89808     -0.90741      3.77895     -3.74210
     6.42000     10.71241     -1.38903      3.58976     -3.45865
     6.43000     10.44833     -1.80194      3.41908     -3.18175
     6.44000     10.13753     -2.13313      3.26488     -2.91161
    6.450000     9.811098    -2.383795     3.125268    -2.648085
    6.460001     9.494374    -2.566174     2.998687    -2.391082
    6.470000     9.203732    -2.699487     2.883776    -2.140433
    6.480001     8.945439    -2.805600     2.779289    -1.895801
    6.490000     8.716445    -2.904963     2.684213    -1.656985
    6.500001     8.505726    -3.013399     2.597607    -1.423613
    6.510000     8.297183    -3.139346     2.518692    -1.195450
    6.520001     8.073112    -3.282557     2.446754    -0.972113
    6.530000     7.818579    -3.434206     2.381198    -0.753368
    6.540001     7.524809    -3.579515     2.321465    -0.538845
    6.550000     7.191394    -3.701529     2.267112    -0.328317
    6.560001     6.825330    -3.785520     2.217702    -0.121427
     6.57000      6.43892     -3.82184      2.17290      0.08204
    6.580001     6.045975    -3.806965     2.132356     0.282407
    6.590000     5.659458    -3.742766     2.095825     0.479880
    6.600001     5.289331    -3.634718     2.063054     0.674777
    6.610000     4.942503    -3.490181     2.033839     0.867276
    6.620001     4.622630    -3.316810     2.007994     1.057681
    6.630000     4.331196    -3.121822     1.985375     1.246156
    6.640001     4.067832    -2.911322     1.965847     1.432995
    6.650000     3.831290    -2.690412     1.949310     1.618351
    6.660001     3.619580    -2.462955     1.935676     1.802505
    6.670000     3.430619    -2.232029     1.924882     1.985606
    6.680001     3.262149    -1.999776     1.916884     2.167929
    6.690000     3.112126    -1.767860     1.911655     2.349613
    6.700000     2.978552    -1.537322     1.909189     2.530933
    6.710000     2.859716    -1.308971     1.909495     2.712029
    6.720000     2.754015    -1.083205     1.912608     2.893167
    6.730000     2.660106    -0.860346     1.918575     3.074496
    6.740000     2.576760    -0.640433     1.927467     3.256282
    6.750000     2.502963    -0.423529     1.939378     3.438676
    6.760000     2.437791    -0.209478     1.954424     3.621949
    6.770        2.380       0.1796E-2     1.973        3.806   
    6.780000     2.330386     0.210541     1.994504     3.991896
    6.789999     2.286928     0.416910     2.019906     4.179011
    6.800000     2.249627     0.621201     2.049185     4.367903
    6.809999     2.218100     0.823595     2.082605     4.558747
    6.820000     2.192006     1.024413     2.120487     4.751834
    6.830001     2.171089     1.223885     2.163188     4.947391
    6.840000     2.155141     1.422247     2.211113     5.145620
    6.850001     2.144004     1.619827     2.264760     5.346842
    6.860000     2.137580     1.816833     2.324659     5.551243
    6.870001     2.135809     2.013600     2.391466     5.759120
    6.880000     2.138687     2.210335     2.465884     5.970654
    6.890001     2.146251     2.407370     2.548774     6.186130
    6.900000     2.158584     2.604919     2.641085     6.405664
    6.910001     2.175828     2.803318     2.743953     6.629483
    6.920000     2.198166     3.002772     2.858639     6.857609
    6.930001     2.225846     3.203625     2.986662     7.090137
    6.940000     2.259164     3.406080     3.129694     7.326878
    6.950001     2.298503     3.610470     3.289765     7.567651
    6.960000     2.344293     3.816992     3.469099     7.811881
    6.970001     2.397078     4.025969     3.670367     8.058867
    6.980000     2.457467     4.237566     3.896501     8.307337
    6.990001     2.526208     4.452068     4.150943     8.555602
    7.000000     2.604133     4.669588     4.437420     8.801086
    7.010001     2.692268     4.890331     4.760174     9.040412
    7.020000     2.791738     5.114296     5.123585     9.268719
    7.030001     2.903921     5.341521     5.532310     9.479673
    7.040000     3.030337     5.571777     5.990547     9.664693
    7.050001     3.172818     5.804803     6.501970     9.812765
    7.060000     3.333380     6.039944     7.068212     9.909790
    7.070001     3.514424     6.276366     7.688248     9.938570
    7.079999     3.718545     6.512635     8.355946     9.878876
    7.090001     3.948774     6.746894     9.058584     9.708586
    7.099999     4.208259     6.976339     9.773983     9.406026
     7.11000      4.50050      7.19731     10.46987      8.95378
     7.12000      4.82883      7.40471     11.10338      8.34437
     7.13000      5.19650      7.59196     11.62564      7.58562
     7.14000      5.60575      7.75045     11.98806      6.70553
     7.15000      6.05756      7.86950     12.15306      5.75116
     7.16000      6.55007      7.93619     12.10286      4.78371
     7.17000      7.07787      7.93587     11.84450      3.86643
     7.18000      7.62985      7.85325     11.40798      3.05404
     7.19000      8.18866      7.67445     10.83817      2.38302
     7.20000      8.72976      7.39028     10.18506      1.86993
    7.210000     9.223081     7.000060     9.494977     1.513420
    7.220001     9.637097     6.514722     8.804932     1.299610
    7.230000     9.944255     5.958402     8.141687     1.208225
     7.24000     10.12801      5.36533      7.52172      1.21695
     7.25000     10.18700      4.77424      6.95405      1.30456
     7.26000     10.13558      4.21950      6.44157      1.45251
    7.270000     9.999374     3.724948     5.983853     1.645339
    7.280001     9.808205     3.299889     5.577903     1.870814
    7.290000     9.589042     2.940647     5.219862     2.119326
    7.300001     9.360631     2.634040     4.905169     2.383720
    7.310000     9.131391     2.363312     4.629450     2.658527
    7.320001     8.899640     2.113141     4.388386     2.939894
    7.330000     8.656684     1.874281     4.178167     3.224905
    7.340001     8.390825     1.645527     3.995251     3.511669
    7.350000     8.092495     1.433791     3.836623     3.798745
    7.360001     7.757647     1.251116     3.699560     4.085357
    7.370000     7.389679     1.110831     3.581796     4.370891
    7.380001     6.998027     1.023390     3.481291     4.655190
    7.390000     6.595884     0.994165     3.396393     4.938094
    7.400001     6.196619     1.022969     3.325621     5.219775
    7.410000     5.811934     1.105189     3.267788     5.500325
    7.420001     5.450194     1.233572     3.221853     5.780102
    7.430000     5.116748     1.399797     3.186986     6.059325
    7.440001     4.813954     1.595814     3.162486     6.338447
    7.450000     4.542291     1.814357     3.147820     6.617757
    7.460001     4.300664     2.049472     3.142552     6.897772
    7.470000     4.087342     2.296264     3.146380     7.178825
    7.480000     3.900030     2.551103     3.159107     7.461443
    7.490000     3.736452     2.811126     3.180637     7.746001
    7.500000     3.594263     3.074400     3.210978     8.033049
    7.510000     3.471372     3.339418     3.250222     8.322965
    7.520000     3.365793     3.605306     3.298585     8.616316
    7.529999     3.275841     3.871370     3.356353     8.913514
    7.540000     3.199974     4.137351     3.423952     9.215128
    7.549999     3.136910     4.403019     3.501889     9.521559
    7.560000     3.085508     4.668461     3.590835     9.833403
     7.57000      3.04483      4.93375      3.69157     10.15110
     7.58000      3.01409      5.19902      3.80499     10.47507
     7.59000      2.99262      5.46462      3.93226     10.80590
     7.60000      2.97989      5.73076      4.07463     11.14390
     7.61000      2.97547      5.99785      4.23365     11.48957
     7.62000      2.97905      6.26617      4.41106     11.84310
     7.63000      2.99040      6.53617      4.60896     12.20484
     7.64000      3.00937      6.80815      4.82967     12.57473
     7.65000      3.03592      7.08262      5.07600     12.95277
     7.66000      3.07006      7.35988      5.35106     13.33839
     7.67000      3.11191      7.64047      5.65858     13.73099
     7.68000      3.16165      7.92472      6.00261     14.12906
     7.69000      3.21955      8.21317      6.38799     14.53074
     7.70000      3.28596      8.50616      6.81987     14.93295
     7.71000      3.36134      8.80426      7.30418     15.33158
     7.72000      3.44623      9.10782      7.84696     15.72074
     7.73000      3.54130      9.41739      8.45479     16.09257
     7.74000      3.64732      9.73332      9.13350     16.43652
     7.75000      3.76524     10.05616      9.88839     16.73903
     7.76000      3.89609     10.38621     10.72213     16.98291
     7.77000      4.04116     10.72396     11.63423     17.14744
     7.78000      4.20187     11.06963     12.61783     17.20874
     7.79000      4.37994     11.42356     13.65879     17.14155
     7.80000      4.57722     11.78578     14.73244     16.92221
     7.81000      4.79602     12.15634     15.80442     16.53312
     7.82000      5.03877     12.53487     16.83142     15.96864
     7.83000      5.30843     12.92090     17.76799     15.23902
     7.84000      5.60816     13.31329     18.57370     14.37238
     7.85000      5.94164     13.71061     19.22332     13.40949
     7.86000      6.31270     14.11042     19.71068     12.39542
     7.87000      6.72563     14.50959     20.04814     11.36708
     7.88000      7.18455     14.90353     20.25770     10.34622
     7.89000      7.69364     15.28652     20.35974      9.33683
     7.90000      8.25616     15.65096     20.36303      8.33226
     7.91000      8.87446     15.98781     20.26073      7.32463
     7.92000      9.54856     16.28635     20.03371      6.31694
     7.93000     10.27621     16.53518     19.65974      5.32845
     7.94000     11.05167     16.72290     19.12541      4.39520
     7.95000     11.86604     16.83975     18.43488      3.56191
     7.96000     12.70883     16.87888     17.61192      2.87040
     7.97000     13.56887     16.83682     16.69602      2.35067
     7.98000     14.43761     16.71249     15.73291      2.01510
     7.99000     15.30909     16.50456     14.76694      1.85975
     8.00000     16.17981     16.20795     13.83395      1.86831
     8.01000     17.04383     15.81188     12.96024      2.01777
     8.02000     17.88840     15.30032     12.16148      2.28315
     8.03000     18.68825     14.65720     11.44580      2.64058
     8.04000     19.40509     13.87344     10.81484      3.06934
     8.05000     19.99014     12.95631     10.26687      3.55215
     8.06000     20.39357     11.93446      9.79759      4.07554
     8.07000     20.57540     10.85971      9.40193      4.62900
     8.08000     20.51710      9.79957      9.07430      5.20498
     8.09000     20.22748      8.82694      8.80956      5.79775
     8.10000     19.74170      8.00564      8.60287      6.40369
     8.11000     19.11408      7.38134      8.45023      7.02008
     8.12000     18.40662      6.97617      8.34818      7.64560
     8.13000     17.67954      6.79102      8.29411      8.27927
     8.14000     16.98344      6.81045      8.28606      8.92113
     8.15000     16.35726      7.00957      8.32283      9.57117
     8.16000     15.82759      7.35990      8.40389     10.23009
     8.17000     15.41163      7.83317      8.52939     10.89840
     8.18000     15.11920      8.40405      8.70024     11.57714
     8.19000     14.95590      9.05037      8.91794     12.26696
     8.20000     14.92484      9.75376      9.18490     12.96894
     8.21000     15.02848     10.49825      9.50416     13.68359
     8.22000     15.26962     11.27025      9.87978     14.41171
     8.23000     15.65205     12.05660     10.31660     15.15327
     8.24000     16.18105     12.84443     10.82070     15.90834
     8.25000     16.86310     13.61907     11.39908     16.67583
     8.26000     17.70620     14.36376     12.06036     17.45425
     8.27000     18.71834     15.05746     12.81418     18.24045
     8.28000     19.90742     15.67445     13.67222     19.03011
     8.29000     21.27827     16.18240     14.64744     19.81635
     8.30000     22.83029     16.54211     15.75445     20.58929
     8.31000     24.55469     16.70790     17.00991     21.33561
     8.32000     26.42839     16.62916     18.43100     22.03628
     8.33000     28.41199     16.25509     20.03620     22.66621
     8.34000     30.44472     15.54209     21.84215     23.19150
     8.35000     32.44810     14.46307     23.86346     23.56845
     8.36000     34.33023     13.01821     26.10682     23.74118
     8.37000     36.00095     11.23959     28.56839     23.64123
     8.38000     37.38561      9.19110     31.22402     23.18815
     8.39000     38.44038      6.95471     34.02361     22.29359
     8.40000     39.15472      4.61555     36.87934     20.87099
     8.41000     39.54586      2.24246     39.66309     18.85003
     8.42000     39.64322     -0.11738     42.20432     16.20001
     8.43000     39.47342     -2.43910     44.30783     12.95065
     8.44000     39.05094     -4.70660     45.77913      9.21237
     8.45000     38.37785     -6.90322     46.46661      5.17197
     8.46000     37.45125     -9.00027     46.29727      1.07367
     8.47000     36.27241    -10.95787     45.29736     -2.82904
     8.48000     34.85650    -12.72631     43.58550     -6.31587
     8.49000     33.23582    -14.25673     41.34060     -9.23893
     8.50000     31.46107    -15.50802     38.76350    -11.52974
     8.51000     29.59405    -16.45617     36.03931    -13.19299
     8.52000     27.70204    -17.09645     33.31929    -14.28216
     8.53000     25.84702    -17.44376     30.71037    -14.87842
     8.54000     24.08183    -17.52762     28.28181    -15.07044
     8.55000     22.44459    -17.38657     26.06943    -14.94309
     8.56000     20.96085    -17.06225     24.08785    -14.57078
     8.57000     19.64344    -16.59492     22.33544    -14.01509
     8.58000     18.49731    -16.02104     20.80288    -13.32542
     8.59000     17.52075    -15.37177     19.47536    -12.53971
     8.60000     16.70943    -14.67361     18.33737    -11.68721
     8.61000     16.05697    -13.94831     17.37278    -10.78923
     8.62000     15.55734    -13.21487     16.56735     -9.86193
     8.63000     15.20460    -12.48976     15.90808     -8.91657
     8.64000     14.99387    -11.78908     15.38451     -7.96172
     8.65000     14.92063    -11.12882     14.98794     -7.00313
     8.66000     14.98042    -10.52671     14.71212     -6.04537
     8.67000     15.16745    -10.00272     14.55291     -5.09212
     8.68000     15.47332     -9.57933     14.50811     -4.14618
     8.69000     15.88453     -9.28192     14.57774     -3.21108
     8.70000     16.38058     -9.13711     14.76371     -2.29035
     8.71000     16.93110     -9.17055     15.06987     -1.38931
     8.72000     17.49512     -9.40265     15.50204     -0.51452
     8.73000     18.02096     -9.84324     16.06741      0.32436
     8.74000     18.45040    -10.48615     16.77482      1.11467
     8.75000     18.72451    -11.30459     17.63329      1.83870
     8.76000     18.79328    -12.25113     18.65202      2.47342
     8.77000     18.62458    -13.26065     19.83730      2.98834
     8.78000     18.21103    -14.26022     21.19159      3.34514
     8.79000     17.57193    -15.17937     22.70787      3.49670
     8.80000     16.74841    -15.96214     24.36662      3.38839
     8.81000     15.79519    -16.57297     26.12812      2.96122
     8.82000     14.76929    -16.99900     27.92870      2.15871
     8.83000     13.72257    -17.24589     29.67555      0.93862
     8.84000     12.69545    -17.33238     31.25139     -0.71311
     8.85000     11.71676    -17.28366     32.52358     -2.76564
     8.86000     10.80351    -17.12656     33.36739     -5.13605
     8.87000      9.96443    -16.88639     33.69127     -7.69009
     8.88000      9.20131    -16.58496     33.46091    -10.26437
     8.89000      8.51230    -16.24051     32.70853    -12.69370
     8.90000      7.89266    -15.86727     31.52385    -14.84517
     8.91000      7.33686    -15.47648     30.03151    -16.63512
     8.92000      6.83857    -15.07635     28.36254    -18.03621
     8.93000      6.39188    -14.67323     26.63374    -19.06601
     8.94000      5.99091    -14.27143     24.93281    -19.77333
     8.95000      5.63055    -13.87428     23.31696    -20.22077
     8.96000      5.30598    -13.48381     21.81332    -20.47267
     8.97000      5.01313    -13.10164     20.42699    -20.58534
     8.98000      4.74822    -12.72851     19.14665    -20.60197
     8.99000      4.50812    -12.36508     17.95395    -20.55047
     9.00000      4.28995    -12.01145     16.82919    -20.44449
     9.01000      4.09133    -11.66773     15.75821    -20.28717
     9.02000      3.91006    -11.33368     14.73350    -20.07619
     9.03000      3.74432    -11.00911     13.75504    -19.80871
     9.04000      3.59249    -10.69378     12.82751    -19.48475
     9.05000      3.45313    -10.38721     11.95661    -19.10800
     9.06000      3.32503    -10.08915     11.14781    -18.68567
     9.07000      3.20706     -9.79908     10.40378    -18.22656
     9.08000      3.09832     -9.51672      9.72521    -17.74029
     9.09000      2.99791     -9.24157      9.11014    -17.23543
     9.10000      2.90513     -8.97334      8.55551    -16.71976
     9.11000      2.81930     -8.71155      8.05693    -16.19928
     9.12000      2.73987     -8.45594      7.60993    -15.67888
     9.13000      2.66630     -8.20605      7.20971    -15.16195
     9.14000      2.59815     -7.96164      6.85193    -14.65107
     9.15000      2.53500     -7.72228      6.53233    -14.14775
     9.16000      2.47651     -7.48776      6.24726    -13.65314
     9.17000      2.42234     -7.25769      5.99328    -13.16759
     9.18000      2.37222     -7.03186      5.76755    -12.69139
     9.19000      2.32587     -6.80991      5.56744    -12.22426
     9.20000      2.28309     -6.59166      5.39083    -11.76601
     9.21000      2.24366     -6.37678      5.23577    -11.31603
     9.22000      2.20741     -6.16509      5.10075    -10.87388
     9.23000      2.17417     -5.95630      4.98438    -10.43880
     9.24000      2.14381     -5.75023      4.88563    -10.01025
    9.250001     2.116200    -5.546607     4.803623    -9.587347
    9.259999     2.091237    -5.345280     4.737715    -9.169514
    9.270000     2.068818    -5.145969     4.687432    -8.755877
    9.280000     2.048871    -4.948540     4.652513    -8.345819
    9.290000     2.031322    -4.752730     4.632848    -7.938459
    9.299999     2.016120    -4.558410     4.628536    -7.533211
    9.310000     2.003216    -4.365320     4.639840    -7.129212
    9.320000     1.992580    -4.173344     4.667216    -6.725899
    9.330000     1.984187    -3.982225     4.711335    -6.322469
    9.339999     1.978025    -3.791843     4.773060    -5.918412
    9.350000     1.974094    -3.601944     4.853539    -5.513025
    9.360000     1.972401    -3.412414     4.954111    -5.105928
    9.370000     1.972967    -3.223001     5.076496    -4.696577
    9.379999     1.975821    -3.033581     5.222653    -4.284841
    9.390000     1.981007    -2.843902     5.395004    -3.870502
    9.400001     1.988577    -2.653804     5.596330    -3.453799
    9.410000     1.998597    -2.463127     5.829832    -3.035329
    9.420001     2.011149    -2.271603     6.099361    -2.615942
    9.430000     2.026321    -2.079099     6.409142    -2.197414
    9.440001     2.044229    -1.885339     6.764162    -1.782072
    9.450000     2.064991    -1.690173     7.169752    -1.373646
    9.460001     2.088758    -1.493314     7.631956    -0.977062
    9.470000     2.115685    -1.294602     8.156812    -0.599411
    9.480000     2.145967    -1.093729     8.750636    -0.249908
     9.49000      2.17980     -0.89052      9.41869      0.05909
     9.50000      2.21744     -0.68465     10.16504      0.31202
     9.51000      2.25913     -0.47591     10.99027      0.48952
     9.52000      2.30520     -0.26396     11.89062      0.56895
     9.53000      2.35596     -0.04859     12.85479      0.52527
     9.54000      2.41181      0.17059     13.86285      0.33360
     9.55000      2.47318      0.39382     14.88388     -0.02673
     9.56000      2.54055      0.62149     15.87799     -0.56717
     9.57000      2.61448      0.85389     16.79927     -1.28429
     9.58000      2.69559      1.09144     17.60434     -2.15754
     9.59000      2.78458      1.33442     18.26022     -3.15025
     9.60000      2.88227      1.58331     18.75275     -4.21821
     9.61000      2.98955      1.83838     19.08697     -5.31958
     9.62000      3.10749      2.10011     19.28217     -6.42626
     9.63000      3.23725      2.36879     19.36054     -7.52697
     9.64000      3.38022      2.64486     19.33646     -8.62564
     9.65000      3.53791      2.92857     19.20928     -9.73078
     9.66000      3.71217      3.22029     18.96388    -10.84563
     9.67000      3.90499      3.52013     18.57785    -11.95780
     9.68000      4.11878      3.82829     18.03238    -13.03816
     9.69000      4.35619      4.14461     17.32350    -14.04434
     9.70000      4.62043      4.46892     16.46668    -14.93238
     9.71000      4.91498      4.80050     15.49572    -15.66649
     9.72000      5.24405      5.13847     14.45428    -16.22730
     9.73000      5.61221      5.48113     13.38813    -16.61248
     9.74000      6.02490      5.82623     12.33647    -16.83432
     9.75000      6.48799      6.17031     11.32931    -16.91397
     9.76000      7.00797      6.50852     10.38629    -16.87652
     9.77000      7.59204      6.83439      9.51750    -16.74692
     9.78000      8.24733      7.13893      8.72680    -16.54782
     9.79000      8.98114      7.41042      8.01271    -16.29831
     9.80000      9.79936      7.63346      7.37137    -16.01399
     9.81000     10.70622      7.78877      6.79688    -15.70692
     9.82000     11.70158      7.85271      6.28317    -15.38652
     9.83000     12.77995      7.79778      5.82375    -15.05961
     9.84000     13.92669      7.59414      5.41268    -14.73140
     9.85000     15.11721      7.21228      5.04426    -14.40546
     9.86000     16.31438      6.62783      4.71360    -14.08448
     9.87000     17.47133      5.82650      4.41609    -13.77011
     9.88000     18.53420      4.80972      4.14789    -13.46359
     9.89000     19.45061      3.59595      3.90543    -13.16554
     9.90000     20.17580      2.21996      3.68578    -12.87643
     9.91000     20.67861      0.72561      3.48623    -12.59631
     9.92000     20.94108     -0.83904      3.30456    -12.32522
     9.93000     20.95601     -2.42775      3.13870    -12.06297
     9.94000     20.72342     -3.99434      2.98697    -11.80938
     9.95000     20.25035     -5.49298      2.84779    -11.56410
     9.96000     19.55408     -6.87610      2.71988    -11.32691
     9.97000     18.66455     -8.09992      2.60204    -11.09739
     9.98000     17.62523     -9.12903      2.49328    -10.87526
     9.99000     16.48759     -9.94372      2.39266    -10.66014
    10.00000     15.30525    -10.54095      2.29942    -10.45176
# 
# 04/09/2018 at 16:10 YAMBO @ narro [start]
# 04/09/2018 at 16:10               [end]
#  
# Timing   [Min/Max/Average]: 11s/11s/11s
#
# .-Input file : yambo.in
# | optics                         # [R OPT] Optics
# | bse                            # [R BSE] Bethe Salpeter Equation.
# | bsk                            # [R BSK] Bethe Salpeter Equation kernel
# | bss                            # [R BSS] Bethe Salpeter Equation solver
# | em1s                           # [R Xs] Static Inverse Dielectric Matrix
# | BoseTemp= 0.000000     eV      # Bosonic Temperature
# | FFTGvecs=  3473        RL      # [FFT] Plane-waves
# | Chimod= "hartree"              # [X] IP/Hartree/ALDA/LRC/BSfxc
# | BSEmod= "resonant"             # [BSE] resonant/retarded/coupling
# | Lkind= "full"                  # [BSE] Lbar (default) / full
# | BSKmod= "SEX"                  # [BSE] IP/Hartree/HF/ALDA/SEX/BSfxc
# | BSSmod= "d"                    # [BSS] (h)aydock/(d)iagonalization/(i)nversion/(t)ddft`
# | BSENGexx=  51          RL      # [BSK] Exchange components
# | BSENGBlk=  51          RL      # [BSK] Screened interaction block size
# | #WehCpl                        # [BSK] eh interaction included also in coupling
# | % BEnRange
# | -10.00000 | 10.00000 | eV      # [BSS] Energy range
# | %
# | % BDmRange
# |   0.10000 |  0.10000 | eV      # [BSS] Damping range
# | %
# | BEnSteps= 2001                 # [BSS] Energy steps
# | % BLongDir
# | 0.5774E-5 |0.5774E-5 |0.5774E-5 |        # [BSS] [cc] Electric Field
# | %
# | % BSEQptR
# |   1 |  4 |                     # [BSK] Transferred momenta range
# | %
# | % BSEBands
# |   3 | 10 |                     # [BSK] Bands range
# | %
# | % BndsRnXs
# |    1 |  60 |                   # [Xs] Polarization function bands
# | %
# | NGsBlkXs=  51          RL      # [Xs] Response block size
# | % DmRngeXs
# | 0.1000E-2 |0.1000E-2 | eV      # [Xs] Damping range
# | %
# | % LongDrXs
# | 0.1000E-4 | 0.000    | 0.000    |        # [Xs] [cc] Electric Field
# | %
