#                                                           
#  /$$     /$$ /$$$$$$  /$$      /$$ /$$$$$$$   /$$$$$$     
# |  $$   /$$//$$__  $$| $$$    /$$$| $$__  $$ /$$__  $$    
#  \  $$ /$$/| $$  \ $$| $$$$  /$$$$| $$  \ $$| $$  \ $$    
#   \  $$$$/ | $$$$$$$$| $$ $$/$$ $$| $$$$$$$ | $$  | $$    
#    \  $$/  | $$__  $$| $$  $$$| $$| $$__  $$| $$  | $$    
#     | $$   | $$  | $$| $$\  $ | $$| $$  \ $$| $$  | $$    
#     | $$   | $$  | $$| $$ \/  | $$| $$$$$$$/|  $$$$$$/    
#     |__/   |__/  |__/|__/     |__/|_______/  \______/     
#                                                           
#       Version 4.3.0 Revision 15341 Hash c146fb2           
#                     MPI+SLK Build                         
#               http://www.yambo-code.org                   
#
# Joint density of states @ Q(2) [iku] : 0.500000  0.250000  0.000000
#
# - Energies      are Teter 93(XC)
# - The Green`s function is Resonant -
#
#   BSK|Identifier              :932
#      |Dimension               :96
#      |Bands                   :3 - 10
#      |Exchange           [res]: yes
#      |Correlation        [res]: yes
#      |Kernel`s coupling       : no
#      |Exchange           [cpl]: no
#      |Correlation        [cpl]: no
#      |W interaction is bare   : no
#      |ALDA kernel in R-space  : no
#      |RL vectors    [exchange]:51
#      |RL vectors [correlation]:51
#      |E/h energy range    [ev]:-1.000000 - -1.000000
#      |Coupling range     [o/o]: 100.0000 -  100.0000
#    W |Interaction is diagonal : no
#      |Matrix size             :51
#      |Bands                   :1 - 60
#      |e/h energy range    [ev]:-1.000000 - -1.000000
#      |Poles              [o/o]: 100.0000
#      |RL vectors in the sum   :3473
#      |[r,Vnl] included        : yes
#      |Field direction         :0.1000E-4  0.000000  0.000000
#      |Coulomb Cutoff          :none
#      |xc-Kernel               :none
#   RIM|RL components      [col]:0
#      |Random points      [col]:0
#
#    E/ev[1]      jdos-Im[2]   jdos-Re[3]   jdoso-Im[4]  jdoso-Re[5]  jdos`-Im[6]  jdos`-Re[7]
#
   -10.00000      0.01088      1.91185      0.01025      1.86297
    -9.99000      0.01089      1.91294      0.01026      1.86399
    -9.98000      0.01090      1.91403      0.01027      1.86502
    -9.97000      0.01091      1.91512      0.01028      1.86605
    -9.96000      0.01093      1.91621      0.01029      1.86708
    -9.95000      0.01094      1.91731      0.01030      1.86811
    -9.94000      0.01095      1.91840      0.01032      1.86914
    -9.93000      0.01097      1.91950      0.01033      1.87017
    -9.92000      0.01098      1.92059      0.01034      1.87120
    -9.91000      0.01099      1.92169      0.01035      1.87224
    -9.90000      0.01101      1.92279      0.01036      1.87327
    -9.89000      0.01102      1.92389      0.01037      1.87431
    -9.88000      0.01103      1.92500      0.01039      1.87535
    -9.87000      0.01104      1.92610      0.01040      1.87639
    -9.86000      0.01106      1.92720      0.01041      1.87743
    -9.85000      0.01107      1.92831      0.01042      1.87847
    -9.84000      0.01108      1.92942      0.01043      1.87951
    -9.83000      0.01110      1.93053      0.01045      1.88055
    -9.82000      0.01111      1.93164      0.01046      1.88160
    -9.81000      0.01112      1.93275      0.01047      1.88265
    -9.80000      0.01114      1.93386      0.01048      1.88369
    -9.79000      0.01115      1.93498      0.01049      1.88474
    -9.78000      0.01116      1.93609      0.01051      1.88579
    -9.77000      0.01118      1.93721      0.01052      1.88684
    -9.76000      0.01119      1.93833      0.01053      1.88790
    -9.75000      0.01120      1.93945      0.01054      1.88895
    -9.74000      0.01122      1.94057      0.01055      1.89000
    -9.73000      0.01123      1.94169      0.01057      1.89106
    -9.72000      0.01125      1.94281      0.01058      1.89212
    -9.71000      0.01126      1.94394      0.01059      1.89318
    -9.70000      0.01127      1.94507      0.01060      1.89424
    -9.69000      0.01129      1.94619      0.01062      1.89530
    -9.68000      0.01130      1.94732      0.01063      1.89636
    -9.67000      0.01131      1.94845      0.01064      1.89742
    -9.66000      0.01133      1.94959      0.01065      1.89849
    -9.65000      0.01134      1.95072      0.01066      1.89955
    -9.64000      0.01135      1.95185      0.01068      1.90062
    -9.63000      0.01137      1.95299      0.01069      1.90169
    -9.62000      0.01138      1.95413      0.01070      1.90276
    -9.61000      0.01140      1.95527      0.01071      1.90383
    -9.60000      0.01141      1.95641      0.01073      1.90490
    -9.59000      0.01142      1.95755      0.01074      1.90597
    -9.58000      0.01144      1.95869      0.01075      1.90705
    -9.57000      0.01145      1.95983      0.01076      1.90812
    -9.56000      0.01146      1.96098      0.01078      1.90920
    -9.55000      0.01148      1.96213      0.01079      1.91028
    -9.54000      0.01149      1.96328      0.01080      1.91136
    -9.53000      0.01151      1.96443      0.01081      1.91244
    -9.52000      0.01152      1.96558      0.01083      1.91352
    -9.51000      0.01154      1.96673      0.01084      1.91460
    -9.50000      0.01155      1.96788      0.01085      1.91569
    -9.49000      0.01156      1.96904      0.01087      1.91677
    -9.48000      0.01158      1.97020      0.01088      1.91786
    -9.47000      0.01159      1.97135      0.01089      1.91895
    -9.46000      0.01161      1.97251      0.01090      1.92004
    -9.45000      0.01162      1.97368      0.01092      1.92113
    -9.44000      0.01163      1.97484      0.01093      1.92222
    -9.43000      0.01165      1.97600      0.01094      1.92332
    -9.42000      0.01166      1.97717      0.01095      1.92441
    -9.41000      0.01168      1.97834      0.01097      1.92551
    -9.40000      0.01169      1.97950      0.01098      1.92660
    -9.39000      0.01171      1.98067      0.01099      1.92770
    -9.38000      0.01172      1.98184      0.01101      1.92880
    -9.37000      0.01173      1.98302      0.01102      1.92990
    -9.36000      0.01175      1.98419      0.01103      1.93101
    -9.35000      0.01176      1.98537      0.01105      1.93211
    -9.34000      0.01178      1.98654      0.01106      1.93322
    -9.33000      0.01179      1.98772      0.01107      1.93432
    -9.32000      0.01181      1.98890      0.01108      1.93543
    -9.31000      0.01182      1.99008      0.01110      1.93654
    -9.30000      0.01184      1.99127      0.01111      1.93765
    -9.29000      0.01185      1.99245      0.01112      1.93876
    -9.28000      0.01187      1.99364      0.01114      1.93987
    -9.27000      0.01188      1.99482      0.01115      1.94099
    -9.26000      0.01190      1.99601      0.01116      1.94210
    -9.25000      0.01191      1.99720      0.01118      1.94322
    -9.24000      0.01193      1.99839      0.01119      1.94434
    -9.23000      0.01194      1.99959      0.01120      1.94546
    -9.22000      0.01196      2.00078      0.01122      1.94658
    -9.21000      0.01197      2.00198      0.01123      1.94770
    -9.20000      0.01198      2.00318      0.01124      1.94883
    -9.19000      0.01200      2.00438      0.01126      1.94995
    -9.18000      0.01201      2.00558      0.01127      1.95108
    -9.17000      0.01203      2.00678      0.01128      1.95220
    -9.16000      0.01205      2.00798      0.01130      1.95333
    -9.15000      0.01206      2.00919      0.01131      1.95446
    -9.14000      0.01208      2.01039      0.01132      1.95559
    -9.13000      0.01209      2.01160      0.01134      1.95673
    -9.12000      0.01211      2.01281      0.01135      1.95786
    -9.11000      0.01212      2.01402      0.01136      1.95900
    -9.10000      0.01214      2.01524      0.01138      1.96014
    -9.09000      0.01215      2.01645      0.01139      1.96127
    -9.08000      0.01217      2.01767      0.01141      1.96241
    -9.07000      0.01218      2.01888      0.01142      1.96355
    -9.06000      0.01220      2.02010      0.01143      1.96470
    -9.05000      0.01221      2.02132      0.01145      1.96584
    -9.04000      0.01223      2.02254      0.01146      1.96699
    -9.03000      0.01224      2.02377      0.01147      1.96813
    -9.02000      0.01226      2.02499      0.01149      1.96928
    -9.01000      0.01227      2.02622      0.01150      1.97043
    -9.00000      0.01229      2.02745      0.01152      1.97158
    -8.99000      0.01231      2.02868      0.01153      1.97273
    -8.98000      0.01232      2.02991      0.01154      1.97389
    -8.97000      0.01234      2.03114      0.01156      1.97504
    -8.96000      0.01235      2.03238      0.01157      1.97620
    -8.95000      0.01237      2.03361      0.01159      1.97736
    -8.94000      0.01238      2.03485      0.01160      1.97852
    -8.93000      0.01240      2.03609      0.01161      1.97968
    -8.92000      0.01242      2.03733      0.01163      1.98084
    -8.91000      0.01243      2.03857      0.01164      1.98200
    -8.90000      0.01245      2.03981      0.01166      1.98317
    -8.89000      0.01246      2.04106      0.01167      1.98433
    -8.88000      0.01248      2.04231      0.01168      1.98550
    -8.87000      0.01249      2.04356      0.01170      1.98667
    -8.86000      0.01251      2.04481      0.01171      1.98784
    -8.85000      0.01253      2.04606      0.01173      1.98901
    -8.84000      0.01254      2.04731      0.01174      1.99018
    -8.83000      0.01256      2.04857      0.01176      1.99136
    -8.82000      0.01257      2.04982      0.01177      1.99254
    -8.81000      0.01259      2.05108      0.01178      1.99371
    -8.80000      0.01261      2.05234      0.01180      1.99489
    -8.79000      0.01262      2.05360      0.01181      1.99607
    -8.78000      0.01264      2.05486      0.01183      1.99725
    -8.77000      0.01266      2.05613      0.01184      1.99844
    -8.76000      0.01267      2.05740      0.01186      1.99962
    -8.75000      0.01269      2.05866      0.01187      2.00081
    -8.74000      0.01270      2.05993      0.01189      2.00200
    -8.73000      0.01272      2.06120      0.01190      2.00319
    -8.72000      0.01274      2.06248      0.01192      2.00438
    -8.71000      0.01275      2.06375      0.01193      2.00557
    -8.70000      0.01277      2.06503      0.01194      2.00676
    -8.69000      0.01279      2.06631      0.01196      2.00796
    -8.68000      0.01280      2.06759      0.01197      2.00915
    -8.67000      0.01282      2.06887      0.01199      2.01035
    -8.66000      0.01284      2.07015      0.01200      2.01155
    -8.65000      0.01285      2.07143      0.01202      2.01275
    -8.64000      0.01287      2.07272      0.01203      2.01396
    -8.63000      0.01289      2.07401      0.01205      2.01516
    -8.62000      0.01290      2.07530      0.01206      2.01637
    -8.61000      0.01292      2.07659      0.01208      2.01757
    -8.60000      0.01294      2.07788      0.01209      2.01878
    -8.59000      0.01295      2.07918      0.01211      2.01999
    -8.58000      0.01297      2.08047      0.01212      2.02120
    -8.57000      0.01299      2.08177      0.01214      2.02242
    -8.56000      0.01301      2.08307      0.01215      2.02363
    -8.55000      0.01302      2.08437      0.01217      2.02485
    -8.54000      0.01304      2.08567      0.01218      2.02606
    -8.53000      0.01306      2.08698      0.01220      2.02728
    -8.52000      0.01307      2.08828      0.01221      2.02850
    -8.51000      0.01309      2.08959      0.01223      2.02973
    -8.50000      0.01311      2.09090      0.01224      2.03095
    -8.49000      0.01312      2.09221      0.01226      2.03217
    -8.48000      0.01314      2.09353      0.01227      2.03340
    -8.47000      0.01316      2.09484      0.01229      2.03463
    -8.46000      0.01318      2.09616      0.01231      2.03586
    -8.45000      0.01319      2.09748      0.01232      2.03709
    -8.44000      0.01321      2.09880      0.01234      2.03832
    -8.43000      0.01323      2.10012      0.01235      2.03956
    -8.42000      0.01325      2.10144      0.01237      2.04079
    -8.41000      0.01326      2.10277      0.01238      2.04203
    -8.40000      0.01328      2.10409      0.01240      2.04327
    -8.39000      0.01330      2.10542      0.01241      2.04451
    -8.38000      0.01332      2.10676      0.01243      2.04575
    -8.37000      0.01333      2.10809      0.01245      2.04699
    -8.36000      0.01335      2.10942      0.01246      2.04824
    -8.35000      0.01337      2.11076      0.01248      2.04949
    -8.34000      0.01339      2.11210      0.01249      2.05074
    -8.33000      0.01341      2.11343      0.01251      2.05199
    -8.32000      0.01342      2.11478      0.01252      2.05324
    -8.31000      0.01344      2.11612      0.01254      2.05449
    -8.30000      0.01346      2.11746      0.01256      2.05575
    -8.29000      0.01348      2.11881      0.01257      2.05700
    -8.28000      0.01349      2.12016      0.01259      2.05826
    -8.27000      0.01351      2.12151      0.01260      2.05952
    -8.26000      0.01353      2.12286      0.01262      2.06078
    -8.25000      0.01355      2.12421      0.01264      2.06204
    -8.24000      0.01357      2.12557      0.01265      2.06331
    -8.23000      0.01359      2.12693      0.01267      2.06457
    -8.22000      0.01360      2.12829      0.01268      2.06584
    -8.21000      0.01362      2.12965      0.01270      2.06711
    -8.20000      0.01364      2.13101      0.01272      2.06838
    -8.19000      0.01366      2.13238      0.01273      2.06965
    -8.18000      0.01368      2.13374      0.01275      2.07093
    -8.17000      0.01370      2.13511      0.01276      2.07220
    -8.16000      0.01371      2.13648      0.01278      2.07348
    -8.15000      0.01373      2.13785      0.01280      2.07476
    -8.14000      0.01375      2.13923      0.01281      2.07604
    -8.13000      0.01377      2.14060      0.01283      2.07732
    -8.12000      0.01379      2.14198      0.01285      2.07860
    -8.11000      0.01381      2.14336      0.01286      2.07989
    -8.10000      0.01382      2.14474      0.01288      2.08118
    -8.09000      0.01384      2.14613      0.01290      2.08246
    -8.08000      0.01386      2.14751      0.01291      2.08375
    -8.07000      0.01388      2.14890      0.01293      2.08505
    -8.06000      0.01390      2.15029      0.01295      2.08634
    -8.05000      0.01392      2.15168      0.01296      2.08764
    -8.04000      0.01394      2.15307      0.01298      2.08893
    -8.03000      0.01396      2.15446      0.01300      2.09023
    -8.02000      0.01398      2.15586      0.01301      2.09153
    -8.01000      0.01399      2.15726      0.01303      2.09283
    -8.00000      0.01401      2.15866      0.01305      2.09414
    -7.99000      0.01403      2.16006      0.01306      2.09544
    -7.98000      0.01405      2.16147      0.01308      2.09675
    -7.97000      0.01407      2.16287      0.01310      2.09806
    -7.96000      0.01409      2.16428      0.01311      2.09937
    -7.95000      0.01411      2.16569      0.01313      2.10068
    -7.94000      0.01413      2.16710      0.01315      2.10200
    -7.93000      0.01415      2.16852      0.01317      2.10331
    -7.92000      0.01417      2.16993      0.01318      2.10463
    -7.91000      0.01419      2.17135      0.01320      2.10595
    -7.90000      0.01421      2.17277      0.01322      2.10727
    -7.89000      0.01423      2.17419      0.01323      2.10859
    -7.88000      0.01425      2.17561      0.01325      2.10991
    -7.87000      0.01427      2.17704      0.01327      2.11124
    -7.86000      0.01429      2.17847      0.01329      2.11257
    -7.85000      0.01430      2.17990      0.01330      2.11390
    -7.84000      0.01432      2.18133      0.01332      2.11523
    -7.83000      0.01434      2.18276      0.01334      2.11656
    -7.82000      0.01436      2.18420      0.01336      2.11789
    -7.81000      0.01438      2.18563      0.01337      2.11923
    -7.80000      0.01440      2.18707      0.01339      2.12057
    -7.79000      0.01442      2.18851      0.01341      2.12191
    -7.78000      0.01444      2.18996      0.01343      2.12325
    -7.77000      0.01446      2.19140      0.01344      2.12459
    -7.76000      0.01448      2.19285      0.01346      2.12594
    -7.75000      0.01450      2.19430      0.01348      2.12728
    -7.74000      0.01452      2.19575      0.01350      2.12863
    -7.73000      0.01454      2.19720      0.01351      2.12999
    -7.72000      0.01456      2.19866      0.01353      2.13134
    -7.71000      0.01459      2.20012      0.01355      2.13269
    -7.70000      0.01461      2.20158      0.01357      2.13405
    -7.69000      0.01463      2.20304      0.01359      2.13540
    -7.68000      0.01465      2.20450      0.01360      2.13676
    -7.67000      0.01467      2.20597      0.01362      2.13812
    -7.66000      0.01469      2.20743      0.01364      2.13949
    -7.65000      0.01471      2.20890      0.01366      2.14085
    -7.64000      0.01473      2.21038      0.01368      2.14222
    -7.63000      0.01475      2.21185      0.01369      2.14359
    -7.62000      0.01477      2.21332      0.01371      2.14496
    -7.61000      0.01479      2.21480      0.01373      2.14633
    -7.60000      0.01481      2.21628      0.01375      2.14770
    -7.59000      0.01483      2.21776      0.01377      2.14908
    -7.58000      0.01485      2.21925      0.01378      2.15046
    -7.57000      0.01487      2.22073      0.01380      2.15184
    -7.56000      0.01490      2.22222      0.01382      2.15322
    -7.55000      0.01492      2.22371      0.01384      2.15460
    -7.54000      0.01494      2.22521      0.01386      2.15598
    -7.53000      0.01496      2.22670      0.01388      2.15737
    -7.52000      0.01498      2.22820      0.01390      2.15876
    -7.51000      0.01500      2.22970      0.01391      2.16015
    -7.50000      0.01502      2.23120      0.01393      2.16154
    -7.49000      0.01504      2.23270      0.01395      2.16294
    -7.48000      0.01506      2.23421      0.01397      2.16433
    -7.47000      0.01509      2.23571      0.01399      2.16573
    -7.46000      0.01511      2.23722      0.01401      2.16713
    -7.45000      0.01513      2.23873      0.01403      2.16853
    -7.44000      0.01515      2.24025      0.01405      2.16993
    -7.43000      0.01517      2.24176      0.01406      2.17134
    -7.42000      0.01519      2.24328      0.01408      2.17275
    -7.41000      0.01522      2.24480      0.01410      2.17416
    -7.40000      0.01524      2.24633      0.01412      2.17557
    -7.39000      0.01526      2.24785      0.01414      2.17698
    -7.38000      0.01528      2.24938      0.01416      2.17840
    -7.37000      0.01530      2.25091      0.01418      2.17981
    -7.36000      0.01533      2.25244      0.01420      2.18123
    -7.35000      0.01535      2.25397      0.01422      2.18265
    -7.34000      0.01537      2.25551      0.01424      2.18407
    -7.33000      0.01539      2.25704      0.01426      2.18550
    -7.32000      0.01541      2.25858      0.01427      2.18692
    -7.31000      0.01544      2.26013      0.01429      2.18835
    -7.30000      0.01546      2.26167      0.01431      2.18978
    -7.29000      0.01548      2.26322      0.01433      2.19121
    -7.28000      0.01550      2.26477      0.01435      2.19265
    -7.27000      0.01552      2.26632      0.01437      2.19408
    -7.26000      0.01555      2.26787      0.01439      2.19552
    -7.25000      0.01557      2.26943      0.01441      2.19696
    -7.24000      0.01559      2.27098      0.01443      2.19840
    -7.23000      0.01562      2.27255      0.01445      2.19985
    -7.22000      0.01564      2.27411      0.01447      2.20130
    -7.21000      0.01566      2.27567      0.01449      2.20274
    -7.20000      0.01568      2.27724      0.01451      2.20419
    -7.19000      0.01571      2.27881      0.01453      2.20564
    -7.18000      0.01573      2.28038      0.01455      2.20710
    -7.17000      0.01575      2.28195      0.01457      2.20855
    -7.16000      0.01577      2.28353      0.01459      2.21001
    -7.15000      0.01580      2.28511      0.01461      2.21147
    -7.14000      0.01582      2.28669      0.01463      2.21293
    -7.13000      0.01584      2.28827      0.01465      2.21440
    -7.12000      0.01587      2.28986      0.01467      2.21586
    -7.11000      0.01589      2.29144      0.01469      2.21733
    -7.10000      0.01591      2.29304      0.01471      2.21880
    -7.09000      0.01594      2.29463      0.01473      2.22027
    -7.08000      0.01596      2.29622      0.01475      2.22175
    -7.07000      0.01598      2.29782      0.01477      2.22322
    -7.06000      0.01601      2.29942      0.01479      2.22470
    -7.05000      0.01603      2.30102      0.01481      2.22618
    -7.04000      0.01605      2.30262      0.01483      2.22766
    -7.03000      0.01608      2.30423      0.01485      2.22915
    -7.02000      0.01610      2.30584      0.01487      2.23063
    -7.01000      0.01613      2.30745      0.01489      2.23212
    -7.00000      0.01615      2.30907      0.01492      2.23361
    -6.99000      0.01617      2.31068      0.01494      2.23510
    -6.98000      0.01620      2.31230      0.01496      2.23660
    -6.97000      0.01622      2.31392      0.01498      2.23810
    -6.96000      0.01625      2.31554      0.01500      2.23959
    -6.95000      0.01627      2.31717      0.01502      2.24109
    -6.94000      0.01629      2.31880      0.01504      2.24260
    -6.93000      0.01632      2.32043      0.01506      2.24410
    -6.92000      0.01634      2.32206      0.01508      2.24561
    -6.91000      0.01637      2.32370      0.01510      2.24712
    -6.90000      0.01639      2.32533      0.01513      2.24863
    -6.89000      0.01642      2.32697      0.01515      2.25015
    -6.88000      0.01644      2.32862      0.01517      2.25166
    -6.87000      0.01646      2.33026      0.01519      2.25318
    -6.86000      0.01649      2.33191      0.01521      2.25470
    -6.85000      0.01651      2.33356      0.01523      2.25622
    -6.84000      0.01654      2.33521      0.01525      2.25774
    -6.83000      0.01656      2.33687      0.01527      2.25927
    -6.82000      0.01659      2.33852      0.01530      2.26080
    -6.81000      0.01661      2.34018      0.01532      2.26233
    -6.80000      0.01664      2.34185      0.01534      2.26386
    -6.79000      0.01666      2.34351      0.01536      2.26540
    -6.78000      0.01669      2.34518      0.01538      2.26693
    -6.77000      0.01671      2.34685      0.01540      2.26847
    -6.76000      0.01674      2.34852      0.01543      2.27001
    -6.75000      0.01676      2.35020      0.01545      2.27156
    -6.74000      0.01679      2.35187      0.01547      2.27310
    -6.73000      0.01682      2.35355      0.01549      2.27465
    -6.72000      0.01684      2.35524      0.01551      2.27620
    -6.71000      0.01687      2.35692      0.01554      2.27776
    -6.70000      0.01689      2.35861      0.01556      2.27931
    -6.69000      0.01692      2.36030      0.01558      2.28086
    -6.68000      0.01694      2.36199      0.01560      2.28242
    -6.67000      0.01697      2.36369      0.01562      2.28399
    -6.66000      0.01699      2.36538      0.01565      2.28555
    -6.65000      0.01702      2.36708      0.01567      2.28711
    -6.64000      0.01705      2.36879      0.01569      2.28868
    -6.63000      0.01707      2.37049      0.01571      2.29025
    -6.62000      0.01710      2.37220      0.01574      2.29182
    -6.61000      0.01712      2.37391      0.01576      2.29340
    -6.60000      0.01715      2.37563      0.01578      2.29498
    -6.59000      0.01718      2.37734      0.01580      2.29655
    -6.58000      0.01720      2.37906      0.01583      2.29814
    -6.57000      0.01723      2.38078      0.01585      2.29972
    -6.56000      0.01726      2.38251      0.01587      2.30131
    -6.55000      0.01728      2.38423      0.01590      2.30289
    -6.54000      0.01731      2.38596      0.01592      2.30449
    -6.53000      0.01734      2.38770      0.01594      2.30608
    -6.52000      0.01736      2.38943      0.01596      2.30767
    -6.51000      0.01739      2.39117      0.01599      2.30927
    -6.50000      0.01742      2.39291      0.01601      2.31087
    -6.49000      0.01744      2.39465      0.01603      2.31247
    -6.48000      0.01747      2.39640      0.01606      2.31408
    -6.47000      0.01750      2.39814      0.01608      2.31568
    -6.46000      0.01752      2.39990      0.01610      2.31729
    -6.45000      0.01755      2.40165      0.01613      2.31890
    -6.44000      0.01758      2.40341      0.01615      2.32052
    -6.43000      0.01761      2.40516      0.01617      2.32213
    -6.42000      0.01763      2.40693      0.01620      2.32375
    -6.41000      0.01766      2.40869      0.01622      2.32537
    -6.40000      0.01769      2.41046      0.01624      2.32699
    -6.39000      0.01772      2.41223      0.01627      2.32862
    -6.38000      0.01774      2.41400      0.01629      2.33025
    -6.37000      0.01777      2.41578      0.01632      2.33188
    -6.36000      0.01780      2.41755      0.01634      2.33351
    -6.35000      0.01783      2.41934      0.01636      2.33515
    -6.34000      0.01786      2.42112      0.01639      2.33678
    -6.33000      0.01788      2.42291      0.01641      2.33842
    -6.32000      0.01791      2.42470      0.01644      2.34007
    -6.31000      0.01794      2.42649      0.01646      2.34171
    -6.30000      0.01797      2.42828      0.01648      2.34336
    -6.29000      0.01800      2.43008      0.01651      2.34501
    -6.28000      0.01802      2.43188      0.01653      2.34666
    -6.27000      0.01805      2.43369      0.01656      2.34831
    -6.26000      0.01808      2.43549      0.01658      2.34997
    -6.25000      0.01811      2.43730      0.01661      2.35163
    -6.24000      0.01814      2.43911      0.01663      2.35329
    -6.23000      0.01817      2.44093      0.01665      2.35495
    -6.22000      0.01820      2.44275      0.01668      2.35662
    -6.21000      0.01823      2.44457      0.01670      2.35829
    -6.20000      0.01825      2.44639      0.01673      2.35996
    -6.19000      0.01828      2.44822      0.01675      2.36163
    -6.18000      0.01831      2.45005      0.01678      2.36331
    -6.17000      0.01834      2.45188      0.01680      2.36499
    -6.16000      0.01837      2.45372      0.01683      2.36667
    -6.15000      0.01840      2.45555      0.01685      2.36836
    -6.14000      0.01843      2.45740      0.01688      2.37004
    -6.13000      0.01846      2.45924      0.01690      2.37173
    -6.12000      0.01849      2.46109      0.01693      2.37342
    -6.11000      0.01852      2.46294      0.01695      2.37512
    -6.10000      0.01855      2.46479      0.01698      2.37681
    -6.09000      0.01858      2.46665      0.01700      2.37851
    -6.08000      0.01861      2.46850      0.01703      2.38021
    -6.07000      0.01864      2.47037      0.01706      2.38192
    -6.06000      0.01867      2.47223      0.01708      2.38363
    -6.05000      0.01870      2.47410      0.01711      2.38533
    -6.04000      0.01873      2.47597      0.01713      2.38704
    -6.03000      0.01876      2.47784      0.01716      2.38876
    -6.02000      0.01879      2.47972      0.01718      2.39048
    -6.01000      0.01882      2.48160      0.01721      2.39220
    -6.00000      0.01885      2.48348      0.01724      2.39392
    -5.99000      0.01888      2.48537      0.01726      2.39564
    -5.98000      0.01891      2.48726      0.01729      2.39737
    -5.97000      0.01894      2.48915      0.01731      2.39910
    -5.96000      0.01897      2.49105      0.01734      2.40083
    -5.95000      0.01900      2.49295      0.01737      2.40257
    -5.94000      0.01903      2.49485      0.01739      2.40431
    -5.93000      0.01906      2.49675      0.01742      2.40605
    -5.92000      0.01910      2.49866      0.01745      2.40779
    -5.91000      0.01913      2.50057      0.01747      2.40954
    -5.90000      0.01916      2.50248      0.01750      2.41128
    -5.89000      0.01919      2.50440      0.01753      2.41303
    -5.88000      0.01922      2.50632      0.01755      2.41479
    -5.87000      0.01925      2.50825      0.01758      2.41655
    -5.86000      0.01928      2.51017      0.01761      2.41831
    -5.85000      0.01931      2.51210      0.01763      2.42007
    -5.84000      0.01935      2.51403      0.01766      2.42183
    -5.83000      0.01938      2.51597      0.01769      2.42360
    -5.82000      0.01941      2.51791      0.01771      2.42537
    -5.81000      0.01944      2.51985      0.01774      2.42714
    -5.80000      0.01947      2.52180      0.01777      2.42891
    -5.79000      0.01951      2.52375      0.01779      2.43069
    -5.78000      0.01954      2.52570      0.01782      2.43247
    -5.77000      0.01957      2.52765      0.01785      2.43426
    -5.76000      0.01960      2.52961      0.01788      2.43604
    -5.75000      0.01964      2.53157      0.01790      2.43783
    -5.74000      0.01967      2.53354      0.01793      2.43962
    -5.73000      0.01970      2.53551      0.01796      2.44142
    -5.72000      0.01973      2.53748      0.01799      2.44321
    -5.71000      0.01977      2.53945      0.01801      2.44501
    -5.70000      0.01980      2.54143      0.01804      2.44682
    -5.69000      0.01983      2.54341      0.01807      2.44862
    -5.68000      0.01987      2.54540      0.01810      2.45043
    -5.67000      0.01990      2.54739      0.01813      2.45224
    -5.66000      0.01993      2.54938      0.01815      2.45406
    -5.65000      0.01997      2.55137      0.01818      2.45587
    -5.64000      0.02000      2.55337      0.01821      2.45769
    -5.63000      0.02003      2.55537      0.01824      2.45951
    -5.62000      0.02007      2.55737      0.01827      2.46134
    -5.61000      0.02010      2.55938      0.01830      2.46317
    -5.60000      0.02013      2.56139      0.01832      2.46500
    -5.59000      0.02017      2.56341      0.01835      2.46683
    -5.58000      0.02020      2.56543      0.01838      2.46867
    -5.57000      0.02024      2.56745      0.01841      2.47051
    -5.56000      0.02027      2.56947      0.01844      2.47235
    -5.55000      0.02030      2.57150      0.01847      2.47419
    -5.54000      0.02034      2.57353      0.01850      2.47604
    -5.53000      0.02037      2.57557      0.01853      2.47789
    -5.52000      0.02041      2.57761      0.01856      2.47975
    -5.51000      0.02044      2.57965      0.01858      2.48161
    -5.50000      0.02048      2.58170      0.01861      2.48346
    -5.49000      0.02051      2.58375      0.01864      2.48533
    -5.48000      0.02055      2.58580      0.01867      2.48719
    -5.47000      0.02058      2.58785      0.01870      2.48906
    -5.46000      0.02062      2.58991      0.01873      2.49093
    -5.45000      0.02065      2.59198      0.01876      2.49281
    -5.44000      0.02069      2.59404      0.01879      2.49468
    -5.43000      0.02072      2.59611      0.01882      2.49656
    -5.42000      0.02076      2.59819      0.01885      2.49845
    -5.41000      0.02079      2.60026      0.01888      2.50033
    -5.40000      0.02083      2.60234      0.01891      2.50222
    -5.39000      0.02087      2.60443      0.01894      2.50411
    -5.38000      0.02090      2.60652      0.01897      2.50601
    -5.37000      0.02094      2.60861      0.01900      2.50791
    -5.36000      0.02097      2.61071      0.01903      2.50981
    -5.35000      0.02101      2.61280      0.01906      2.51171
    -5.34000      0.02105      2.61491      0.01909      2.51362
    -5.33000      0.02108      2.61701      0.01912      2.51553
    -5.32000      0.02112      2.61912      0.01915      2.51744
    -5.31000      0.02116      2.62124      0.01918      2.51936
    -5.30000      0.02119      2.62335      0.01921      2.52128
    -5.29000      0.02123      2.62547      0.01924      2.52320
    -5.28000      0.02127      2.62760      0.01928      2.52513
    -5.27000      0.02130      2.62973      0.01931      2.52706
    -5.26000      0.02134      2.63186      0.01934      2.52899
    -5.25000      0.02138      2.63399      0.01937      2.53093
    -5.24000      0.02141      2.63613      0.01940      2.53286
    -5.23000      0.02145      2.63828      0.01943      2.53480
    -5.22000      0.02149      2.64042      0.01946      2.53675
    -5.21000      0.02153      2.64257      0.01949      2.53870
    -5.20000      0.02157      2.64473      0.01952      2.54065
    -5.19000      0.02160      2.64689      0.01956      2.54260
    -5.18000      0.02164      2.64905      0.01959      2.54456
    -5.17000      0.02168      2.65121      0.01962      2.54652
    -5.16000      0.02172      2.65338      0.01965      2.54848
    -5.15000      0.02176      2.65556      0.01968      2.55045
    -5.14000      0.02179      2.65773      0.01972      2.55242
    -5.13000      0.02183      2.65991      0.01975      2.55439
    -5.12000      0.02187      2.66210      0.01978      2.55637
    -5.11000      0.02191      2.66429      0.01981      2.55835
    -5.10000      0.02195      2.66648      0.01984      2.56033
    -5.09000      0.02199      2.66867      0.01988      2.56231
    -5.08000      0.02203      2.67088      0.01991      2.56430
    -5.07000      0.02207      2.67308      0.01994      2.56630
    -5.06000      0.02210      2.67529      0.01997      2.56829
    -5.05000      0.02214      2.67750      0.02001      2.57029
    -5.04000      0.02218      2.67972      0.02004      2.57229
    -5.03000      0.02222      2.68194      0.02007      2.57430
    -5.02000      0.02226      2.68416      0.02011      2.57631
    -5.01000      0.02230      2.68639      0.02014      2.57832
    -5.00000      0.02234      2.68862      0.02017      2.58033
    -4.99000      0.02238      2.69086      0.02020      2.58235
    -4.98000      0.02242      2.69310      0.02024      2.58437
    -4.97000      0.02246      2.69534      0.02027      2.58640
    -4.96000      0.02250      2.69759      0.02030      2.58843
    -4.95000      0.02254      2.69984      0.02034      2.59046
    -4.94000      0.02258      2.70210      0.02037      2.59249
    -4.93000      0.02263      2.70436      0.02041      2.59453
    -4.92000      0.02267      2.70662      0.02044      2.59657
    -4.91000      0.02271      2.70889      0.02047      2.59862
    -4.90000      0.02275      2.71116      0.02051      2.60067
    -4.89000      0.02279      2.71344      0.02054      2.60272
    -4.88000      0.02283      2.71572      0.02058      2.60477
    -4.87000      0.02287      2.71800      0.02061      2.60683
    -4.86000      0.02291      2.72029      0.02064      2.60890
    -4.85000      0.02296      2.72258      0.02068      2.61096
    -4.84000      0.02300      2.72488      0.02071      2.61303
    -4.83000      0.02304      2.72718      0.02075      2.61510
    -4.82000      0.02308      2.72949      0.02078      2.61718
    -4.81000      0.02312      2.73180      0.02082      2.61926
    -4.80000      0.02317      2.73411      0.02085      2.62134
    -4.79000      0.02321      2.73643      0.02089      2.62343
    -4.78000      0.02325      2.73875      0.02092      2.62552
    -4.77000      0.02329      2.74108      0.02096      2.62761
    -4.76000      0.02334      2.74341      0.02099      2.62971
    -4.75000      0.02338      2.74575      0.02103      2.63181
    -4.74000      0.02342      2.74809      0.02106      2.63391
    -4.73000      0.02347      2.75043      0.02110      2.63602
    -4.72000      0.02351      2.75278      0.02113      2.63814
    -4.71000      0.02355      2.75513      0.02117      2.64025
    -4.70000      0.02360      2.75749      0.02121      2.64237
    -4.69000      0.02364      2.75985      0.02124      2.64449
    -4.68000      0.02368      2.76222      0.02128      2.64662
    -4.67000      0.02373      2.76459      0.02131      2.64874
    -4.66000      0.02377      2.76696      0.02135      2.65088
    -4.65000      0.02382      2.76934      0.02139      2.65302
    -4.64000      0.02386      2.77172      0.02142      2.65516
    -4.63000      0.02391      2.77411      0.02146      2.65730
    -4.62000      0.02395      2.77650      0.02150      2.65945
    -4.61000      0.02400      2.77890      0.02153      2.66160
    -4.60000      0.02404      2.78130      0.02157      2.66375
    -4.59000      0.02409      2.78371      0.02161      2.66591
    -4.58000      0.02413      2.78612      0.02164      2.66807
    -4.57000      0.02418      2.78853      0.02168      2.67024
    -4.56000      0.02422      2.79095      0.02172      2.67241
    -4.55000      0.02427      2.79338      0.02175      2.67458
    -4.54000      0.02431      2.79581      0.02179      2.67676
    -4.53000      0.02436      2.79824      0.02183      2.67894
    -4.52000      0.02440      2.80068      0.02187      2.68112
    -4.51000      0.02445      2.80312      0.02191      2.68331
    -4.50000      0.02450      2.80557      0.02194      2.68551
    -4.49000      0.02454      2.80802      0.02198      2.68770
    -4.48000      0.02459      2.81047      0.02202      2.68990
    -4.47000      0.02464      2.81293      0.02206      2.69210
    -4.46000      0.02468      2.81540      0.02210      2.69431
    -4.45000      0.02473      2.81787      0.02213      2.69652
    -4.44000      0.02478      2.82034      0.02217      2.69874
    -4.43000      0.02483      2.82282      0.02221      2.70096
    -4.42000      0.02487      2.82531      0.02225      2.70318
    -4.41000      0.02492      2.82780      0.02229      2.70540
    -4.40000      0.02497      2.83029      0.02233      2.70763
    -4.39000      0.02502      2.83279      0.02237      2.70987
    -4.38000      0.02506      2.83529      0.02240      2.71211
    -4.37000      0.02511      2.83780      0.02244      2.71435
    -4.36000      0.02516      2.84032      0.02248      2.71659
    -4.35000      0.02521      2.84283      0.02252      2.71884
    -4.34000      0.02526      2.84536      0.02256      2.72110
    -4.33000      0.02531      2.84788      0.02260      2.72336
    -4.32000      0.02536      2.85042      0.02264      2.72562
    -4.31000      0.02540      2.85295      0.02268      2.72788
    -4.30000      0.02545      2.85550      0.02272      2.73015
    -4.29000      0.02550      2.85804      0.02276      2.73243
    -4.28000      0.02555      2.86060      0.02280      2.73470
    -4.27000      0.02560      2.86315      0.02284      2.73699
    -4.26000      0.02565      2.86572      0.02288      2.73927
    -4.25000      0.02570      2.86828      0.02292      2.74156
    -4.24000      0.02575      2.87085      0.02296      2.74385
    -4.23000      0.02580      2.87343      0.02300      2.74615
    -4.22000      0.02585      2.87601      0.02304      2.74846
    -4.21000      0.02590      2.87860      0.02308      2.75076
    -4.20000      0.02596      2.88120      0.02313      2.75307
    -4.19000      0.02601      2.88379      0.02317      2.75539
    -4.18000      0.02606      2.88639      0.02321      2.75771
    -4.17000      0.02611      2.88900      0.02325      2.76003
    -4.16000      0.02616      2.89161      0.02329      2.76235
    -4.15000      0.02621      2.89423      0.02333      2.76469
    -4.14000      0.02626      2.89686      0.02337      2.76702
    -4.13000      0.02632      2.89949      0.02342      2.76936
    -4.12000      0.02637      2.90212      0.02346      2.77170
    -4.11000      0.02642      2.90476      0.02350      2.77405
    -4.10000      0.02647      2.90740      0.02354      2.77640
    -4.09000      0.02653      2.91005      0.02358      2.77876
    -4.08000      0.02658      2.91271      0.02363      2.78112
    -4.07000      0.02663      2.91537      0.02367      2.78348
    -4.06000      0.02668      2.91803      0.02371      2.78585
    -4.05000      0.02674      2.92070      0.02376      2.78822
    -4.04000      0.02679      2.92338      0.02380      2.79060
    -4.03000      0.02685      2.92606      0.02384      2.79298
    -4.02000      0.02690      2.92874      0.02388      2.79537
    -4.01000      0.02695      2.93144      0.02393      2.79776
    -4.00000      0.02701      2.93414      0.02397      2.80015
    -3.99000      0.02706      2.93684      0.02401      2.80255
    -3.98000      0.02712      2.93955      0.02406      2.80496
    -3.97000      0.02717      2.94226      0.02410      2.80736
    -3.96000      0.02723      2.94498      0.02415      2.80977
    -3.95000      0.02728      2.94770      0.02419      2.81219
    -3.94000      0.02734      2.95043      0.02423      2.81461
    -3.93000      0.02739      2.95317      0.02428      2.81703
    -3.92000      0.02745      2.95591      0.02432      2.81947
    -3.91000      0.02750      2.95866      0.02437      2.82190
    -3.90000      0.02756      2.96141      0.02441      2.82434
    -3.89000      0.02762      2.96417      0.02446      2.82678
    -3.88000      0.02767      2.96693      0.02450      2.82923
    -3.87000      0.02773      2.96970      0.02455      2.83168
    -3.86000      0.02779      2.97248      0.02459      2.83414
    -3.85000      0.02784      2.97526      0.02464      2.83660
    -3.84000      0.02790      2.97804      0.02468      2.83907
    -3.83000      0.02796      2.98084      0.02473      2.84154
    -3.82000      0.02802      2.98363      0.02477      2.84401
    -3.81000      0.02807      2.98644      0.02482      2.84649
    -3.80000      0.02813      2.98925      0.02487      2.84897
    -3.79000      0.02819      2.99206      0.02491      2.85146
    -3.78000      0.02825      2.99488      0.02496      2.85395
    -3.77000      0.02831      2.99771      0.02500      2.85645
    -3.76000      0.02836      3.00055      0.02505      2.85895
    -3.75000      0.02842      3.00338      0.02510      2.86146
    -3.74000      0.02848      3.00623      0.02514      2.86397
    -3.73000      0.02854      3.00908      0.02519      2.86649
    -3.72000      0.02860      3.01193      0.02524      2.86901
    -3.71000      0.02866      3.01480      0.02529      2.87154
    -3.70000      0.02872      3.01767      0.02533      2.87407
    -3.69000      0.02878      3.02054      0.02538      2.87660
    -3.68000      0.02884      3.02342      0.02543      2.87914
    -3.67000      0.02890      3.02631      0.02548      2.88168
    -3.66000      0.02896      3.02920      0.02552      2.88424
    -3.65000      0.02902      3.03210      0.02557      2.88679
    -3.64000      0.02909      3.03500      0.02562      2.88935
    -3.63000      0.02915      3.03791      0.02567      2.89191
    -3.62000      0.02921      3.04083      0.02572      2.89448
    -3.61000      0.02927      3.04375      0.02577      2.89705
    -3.60000      0.02933      3.04668      0.02581      2.89963
    -3.59000      0.02939      3.04962      0.02586      2.90222
    -3.58000      0.02946      3.05256      0.02591      2.90480
    -3.57000      0.02952      3.05551      0.02596      2.90740
    -3.56000      0.02958      3.05846      0.02601      2.91000
    -3.55000      0.02965      3.06142      0.02606      2.91260
    -3.54000      0.02971      3.06439      0.02611      2.91521
    -3.53000      0.02977      3.06736      0.02616      2.91782
    -3.52000      0.02984      3.07034      0.02621      2.92044
    -3.51000      0.02990      3.07333      0.02626      2.92306
    -3.50000      0.02996      3.07632      0.02631      2.92569
    -3.49000      0.03003      3.07932      0.02636      2.92832
    -3.48000      0.03009      3.08233      0.02641      2.93096
    -3.47000      0.03016      3.08534      0.02646      2.93360
    -3.46000      0.03022      3.08836      0.02651      2.93625
    -3.45000      0.03029      3.09138      0.02656      2.93890
    -3.44000      0.03036      3.09441      0.02661      2.94156
    -3.43000      0.03042      3.09745      0.02667      2.94423
    -3.42000      0.03049      3.10050      0.02672      2.94690
    -3.41000      0.03055      3.10355      0.02677      2.94957
    -3.40000      0.03062      3.10661      0.02682      2.95225
    -3.39000      0.03069      3.10967      0.02687      2.95493
    -3.38000      0.03075      3.11274      0.02693      2.95762
    -3.37000      0.03082      3.11582      0.02698      2.96032
    -3.36000      0.03089      3.11890      0.02703      2.96302
    -3.35000      0.03096      3.12200      0.02708      2.96572
    -3.34000      0.03102      3.12509      0.02714      2.96843
    -3.33000      0.03109      3.12820      0.02719      2.97115
    -3.32000      0.03116      3.13131      0.02724      2.97387
    -3.31000      0.03123      3.13443      0.02729      2.97659
    -3.30000      0.03130      3.13756      0.02735      2.97933
    -3.29000      0.03137      3.14069      0.02740      2.98206
    -3.28000      0.03144      3.14383      0.02746      2.98481
    -3.27000      0.03151      3.14697      0.02751      2.98755
    -3.26000      0.03158      3.15013      0.02756      2.99030
    -3.25000      0.03165      3.15329      0.02762      2.99306
    -3.24000      0.03172      3.15645      0.02767      2.99583
    -3.23000      0.03179      3.15963      0.02773      2.99860
    -3.22000      0.03186      3.16281      0.02778      3.00137
    -3.21000      0.03193      3.16600      0.02784      3.00415
    -3.20000      0.03200      3.16920      0.02789      3.00694
    -3.19000      0.03207      3.17240      0.02795      3.00973
    -3.18000      0.03215      3.17561      0.02800      3.01253
    -3.17000      0.03222      3.17883      0.02806      3.01533
    -3.16000      0.03229      3.18205      0.02811      3.01814
    -3.15000      0.03237      3.18528      0.02817      3.02095
    -3.14000      0.03244      3.18852      0.02823      3.02377
    -3.13000      0.03251      3.19177      0.02828      3.02659
    -3.12000      0.03259      3.19502      0.02834      3.02943
    -3.11000      0.03266      3.19828      0.02839      3.03226
    -3.10000      0.03273      3.20155      0.02845      3.03510
    -3.09000      0.03281      3.20483      0.02851      3.03795
    -3.08000      0.03288      3.20811      0.02857      3.04080
    -3.07000      0.03296      3.21140      0.02862      3.04366
    -3.06000      0.03303      3.21470      0.02868      3.04653
    -3.05000      0.03311      3.21801      0.02874      3.04940
    -3.04000      0.03319      3.22132      0.02880      3.05227
    -3.03000      0.03326      3.22464      0.02885      3.05515
    -3.02000      0.03334      3.22797      0.02891      3.05804
    -3.01000      0.03342      3.23131      0.02897      3.06094
    -3.00000      0.03349      3.23465      0.02903      3.06383
    -2.99000      0.03357      3.23801      0.02909      3.06674
    -2.98000      0.03365      3.24137      0.02915      3.06965
    -2.97000      0.03373      3.24473      0.02921      3.07257
    -2.96000      0.03380      3.24811      0.02927      3.07549
    -2.95000      0.03388      3.25149      0.02933      3.07842
    -2.94000      0.03396      3.25488      0.02939      3.08136
    -2.93000      0.03404      3.25828      0.02945      3.08430
    -2.92000      0.03412      3.26169      0.02951      3.08724
    -2.91000      0.03420      3.26510      0.02957      3.09020
    -2.90000      0.03428      3.26853      0.02963      3.09316
    -2.89000      0.03436      3.27196      0.02969      3.09612
    -2.88000      0.03444      3.27540      0.02975      3.09909
    -2.87000      0.03452      3.27884      0.02981      3.10207
    -2.86000      0.03460      3.28230      0.02987      3.10505
    -2.85000      0.03469      3.28576      0.02993      3.10804
    -2.84000      0.03477      3.28923      0.03000      3.11104
    -2.83000      0.03485      3.29271      0.03006      3.11404
    -2.82000      0.03493      3.29620      0.03012      3.11705
    -2.81000      0.03502      3.29970      0.03018      3.12006
    -2.80000      0.03510      3.30320      0.03024      3.12308
    -2.79000      0.03518      3.30672      0.03031      3.12611
    -2.78000      0.03527      3.31024      0.03037      3.12915
    -2.77000      0.03535      3.31377      0.03043      3.13219
    -2.76000      0.03544      3.31731      0.03050      3.13523
    -2.75000      0.03552      3.32085      0.03056      3.13828
    -2.74000      0.03561      3.32441      0.03062      3.14134
    -2.73000      0.03569      3.32797      0.03069      3.14441
    -2.72000      0.03578      3.33154      0.03075      3.14748
    -2.71000      0.03586      3.33513      0.03082      3.15056
    -2.70000      0.03595      3.33871      0.03088      3.15364
    -2.69000      0.03604      3.34231      0.03095      3.15673
    -2.68000      0.03613      3.34592      0.03101      3.15983
    -2.67000      0.03621      3.34954      0.03108      3.16293
    -2.66000      0.03630      3.35316      0.03114      3.16604
    -2.65000      0.03639      3.35679      0.03121      3.16916
    -2.64000      0.03648      3.36044      0.03128      3.17228
    -2.63000      0.03657      3.36409      0.03134      3.17541
    -2.62000      0.03666      3.36775      0.03141      3.17855
    -2.61000      0.03675      3.37142      0.03147      3.18169
    -2.60000      0.03684      3.37509      0.03154      3.18484
    -2.59000      0.03693      3.37878      0.03161      3.18800
    -2.58000      0.03702      3.38248      0.03168      3.19116
    -2.57000      0.03711      3.38618      0.03174      3.19433
    -2.56000      0.03720      3.38990      0.03181      3.19751
    -2.55000      0.03730      3.39362      0.03188      3.20069
    -2.54000      0.03739      3.39736      0.03195      3.20389
    -2.53000      0.03748      3.40110      0.03202      3.20708
    -2.52000      0.03757      3.40485      0.03209      3.21028
    -2.51000      0.03767      3.40861      0.03215      3.21350
    -2.50000      0.03776      3.41238      0.03222      3.21672
    -2.49000      0.03786      3.41616      0.03229      3.21994
    -2.48000      0.03795      3.41995      0.03236      3.22317
    -2.47000      0.03805      3.42375      0.03243      3.22641
    -2.46000      0.03814      3.42756      0.03250      3.22966
    -2.45000      0.03824      3.43137      0.03257      3.23291
    -2.44000      0.03834      3.43520      0.03264      3.23617
    -2.43000      0.03843      3.43904      0.03271      3.23944
    -2.42000      0.03853      3.44288      0.03279      3.24271
    -2.41000      0.03863      3.44674      0.03286      3.24599
    -2.40000      0.03873      3.45061      0.03293      3.24928
    -2.39000      0.03883      3.45448      0.03300      3.25258
    -2.38000      0.03892      3.45837      0.03307      3.25588
    -2.37000      0.03902      3.46227      0.03315      3.25919
    -2.36000      0.03912      3.46617      0.03322      3.26251
    -2.35000      0.03922      3.47009      0.03329      3.26583
    -2.34000      0.03932      3.47401      0.03336      3.26916
    -2.33000      0.03943      3.47795      0.03344      3.27250
    -2.32000      0.03953      3.48189      0.03351      3.27585
    -2.31000      0.03963      3.48585      0.03359      3.27920
    -2.30000      0.03973      3.48982      0.03366      3.28257
    -2.29000      0.03983      3.49380      0.03373      3.28593
    -2.28000      0.03994      3.49778      0.03381      3.28931
    -2.27000      0.04004      3.50178      0.03388      3.29269
    -2.26000      0.04015      3.50579      0.03396      3.29608
    -2.25000      0.04025      3.50981      0.03403      3.29948
    -2.24000      0.04036      3.51383      0.03411      3.30289
    -2.23000      0.04046      3.51787      0.03419      3.30630
    -2.22000      0.04057      3.52192      0.03426      3.30972
    -2.21000      0.04067      3.52599      0.03434      3.31315
    -2.20000      0.04078      3.53006      0.03442      3.31659
    -2.19000      0.04089      3.53414      0.03449      3.32004
    -2.18000      0.04100      3.53823      0.03457      3.32348
    -2.17000      0.04111      3.54233      0.03465      3.32695
    -2.16000      0.04122      3.54645      0.03473      3.33041
    -2.15000      0.04132      3.55057      0.03480      3.33389
    -2.14000      0.04143      3.55471      0.03488      3.33738
    -2.13000      0.04155      3.55886      0.03496      3.34087
    -2.12000      0.04166      3.56302      0.03504      3.34437
    -2.11000      0.04177      3.56719      0.03512      3.34787
    -2.10000      0.04188      3.57137      0.03520      3.35139
    -2.09000      0.04199      3.57556      0.03528      3.35491
    -2.08000      0.04211      3.57976      0.03536      3.35844
    -2.07000      0.04222      3.58398      0.03544      3.36198
    -2.06000      0.04233      3.58820      0.03552      3.36553
    -2.05000      0.04245      3.59244      0.03560      3.36908
    -2.04000      0.04256      3.59669      0.03568      3.37265
    -2.03000      0.04268      3.60095      0.03577      3.37622
    -2.02000      0.04279      3.60522      0.03585      3.37980
    -2.01000      0.04291      3.60950      0.03593      3.38338
    -2.00000      0.04303      3.61380      0.03601      3.38698
    -1.99000      0.04315      3.61810      0.03610      3.39059
    -1.98000      0.04326      3.62242      0.03618      3.39420
    -1.97000      0.04338      3.62676      0.03626      3.39782
    -1.96000      0.04350      3.63110      0.03635      3.40145
    -1.95000      0.04362      3.63545      0.03643      3.40509
    -1.94000      0.04374      3.63982      0.03651      3.40873
    -1.93000      0.04386      3.64420      0.03660      3.41238
    -1.92000      0.04399      3.64859      0.03668      3.41605
    -1.91000      0.04411      3.65299      0.03677      3.41972
    -1.90000      0.04423      3.65740      0.03686      3.42340
    -1.89000      0.04435      3.66183      0.03694      3.42709
    -1.88000      0.04448      3.66627      0.03703      3.43079
    -1.87000      0.04460      3.67072      0.03711      3.43449
    -1.86000      0.04473      3.67519      0.03720      3.43821
    -1.85000      0.04485      3.67967      0.03729      3.44193
    -1.84000      0.04498      3.68415      0.03738      3.44566
    -1.83000      0.04511      3.68866      0.03746      3.44940
    -1.82000      0.04523      3.69317      0.03755      3.45315
    -1.81000      0.04536      3.69770      0.03764      3.45691
    -1.80000      0.04549      3.70224      0.03773      3.46068
    -1.79000      0.04562      3.70679      0.03782      3.46446
    -1.78000      0.04575      3.71136      0.03791      3.46824
    -1.77000      0.04588      3.71594      0.03800      3.47204
    -1.76000      0.04601      3.72053      0.03809      3.47584
    -1.75000      0.04615      3.72514      0.03818      3.47965
    -1.74000      0.04628      3.72976      0.03827      3.48347
    -1.73000      0.04641      3.73439      0.03836      3.48730
    -1.72000      0.04655      3.73904      0.03845      3.49114
    -1.71000      0.04668      3.74369      0.03855      3.49499
    -1.70000      0.04681      3.74837      0.03864      3.49885
    -1.69000      0.04695      3.75305      0.03873      3.50272
    -1.68000      0.04709      3.75775      0.03882      3.50659
    -1.67000      0.04722      3.76247      0.03892      3.51048
    -1.66000      0.04736      3.76719      0.03901      3.51437
    -1.65000      0.04750      3.77193      0.03911      3.51828
    -1.64000      0.04764      3.77669      0.03920      3.52219
    -1.63000      0.04778      3.78146      0.03930      3.52611
    -1.62000      0.04792      3.78624      0.03939      3.53005
    -1.61000      0.04806      3.79104      0.03949      3.53399
    -1.60000      0.04821      3.79585      0.03958      3.53794
    -1.59000      0.04835      3.80067      0.03968      3.54191
    -1.58000      0.04849      3.80551      0.03978      3.54588
    -1.57000      0.04864      3.81037      0.03987      3.54986
    -1.56000      0.04878      3.81524      0.03997      3.55385
    -1.55000      0.04893      3.82012      0.04007      3.55785
    -1.54000      0.04907      3.82502      0.04017      3.56186
    -1.53000      0.04922      3.82993      0.04026      3.56588
    -1.52000      0.04937      3.83485      0.04036      3.56991
    -1.51000      0.04952      3.83980      0.04046      3.57395
    -1.50000      0.04967      3.84475      0.04056      3.57800
    -1.49000      0.04982      3.84972      0.04066      3.58206
    -1.48000      0.04997      3.85471      0.04076      3.58613
    -1.47000      0.05012      3.85971      0.04087      3.59021
    -1.46000      0.05027      3.86473      0.04097      3.59430
    -1.45000      0.05043      3.86976      0.04107      3.59840
    -1.44000      0.05058      3.87481      0.04117      3.60251
    -1.43000      0.05074      3.87987      0.04127      3.60663
    -1.42000      0.05089      3.88495      0.04138      3.61076
    -1.41000      0.05105      3.89005      0.04148      3.61491
    -1.40000      0.05121      3.89516      0.04158      3.61906
    -1.39000      0.05137      3.90028      0.04169      3.62322
    -1.38000      0.05153      3.90542      0.04179      3.62739
    -1.37000      0.05169      3.91058      0.04190      3.63158
    -1.36000      0.05185      3.91576      0.04200      3.63577
    -1.35000      0.05201      3.92095      0.04211      3.63997
    -1.34000      0.05217      3.92615      0.04222      3.64419
    -1.33000      0.05234      3.93138      0.04232      3.64841
    -1.32000      0.05250      3.93661      0.04243      3.65265
    -1.31000      0.05267      3.94187      0.04254      3.65690
    -1.30000      0.05283      3.94714      0.04265      3.66115
    -1.29000      0.05300      3.95243      0.04276      3.66542
    -1.28000      0.05317      3.95774      0.04286      3.66970
    -1.27000      0.05334      3.96306      0.04297      3.67399
    -1.26000      0.05351      3.96840      0.04308      3.67829
    -1.25000      0.05368      3.97375      0.04319      3.68261
    -1.24000      0.05385      3.97913      0.04331      3.68693
    -1.23000      0.05402      3.98452      0.04342      3.69127
    -1.22000      0.05420      3.98992      0.04353      3.69561
    -1.21000      0.05437      3.99535      0.04364      3.69997
    -1.20000      0.05455      4.00079      0.04375      3.70433
    -1.19000      0.05472      4.00625      0.04387      3.70872
    -1.18000      0.05490      4.01173      0.04398      3.71311
    -1.17000      0.05508      4.01723      0.04409      3.71751
    -1.16000      0.05526      4.02274      0.04421      3.72192
    -1.15000      0.05544      4.02827      0.04432      3.72635
    -1.14000      0.05562      4.03382      0.04444      3.73078
    -1.13000      0.05581      4.03939      0.04456      3.73523
    -1.12000      0.05599      4.04497      0.04467      3.73969
    -1.11000      0.05618      4.05058      0.04479      3.74416
    -1.10000      0.05636      4.05620      0.04491      3.74865
    -1.09000      0.05655      4.06185      0.04502      3.75314
    -1.08000      0.05674      4.06751      0.04514      3.75765
    -1.07000      0.05693      4.07319      0.04526      3.76217
    -1.06000      0.05712      4.07888      0.04538      3.76670
    -1.05000      0.05731      4.08460      0.04550      3.77124
    -1.04000      0.05750      4.09034      0.04562      3.77579
    -1.03000      0.05770      4.09610      0.04574      3.78036
    -1.02000      0.05789      4.10187      0.04587      3.78494
    -1.01000      0.05809      4.10767      0.04599      3.78953
    -1.00000      0.05829      4.11348      0.04611      3.79413
    -0.99000      0.05848      4.11932      0.04623      3.79875
    -0.98000      0.05868      4.12517      0.04636      3.80338
    -0.97000      0.05888      4.13104      0.04648      3.80802
    -0.96000      0.05909      4.13694      0.04661      3.81267
    -0.95000      0.05929      4.14285      0.04673      3.81733
    -0.94000      0.05949      4.14879      0.04686      3.82201
    -0.93000      0.05970      4.15474      0.04698      3.82670
    -0.92000      0.05991      4.16072      0.04711      3.83140
    -0.91000      0.06012      4.16672      0.04724      3.83612
    -0.90000      0.06033      4.17273      0.04737      3.84085
    -0.89000      0.06054      4.17877      0.04749      3.84559
    -0.88000      0.06075      4.18483      0.04762      3.85034
    -0.87000      0.06096      4.19091      0.04775      3.85511
    -0.86000      0.06118      4.19702      0.04788      3.85989
    -0.85000      0.06139      4.20314      0.04801      3.86468
    -0.84000      0.06161      4.20929      0.04815      3.86949
    -0.83000      0.06183      4.21545      0.04828      3.87431
    -0.82000      0.06205      4.22164      0.04841      3.87914
    -0.81000      0.06227      4.22785      0.04854      3.88398
    -0.80000      0.06249      4.23409      0.04868      3.88884
    -0.79000      0.06272      4.24035      0.04881      3.89372
    -0.78000      0.06294      4.24662      0.04895      3.89860
    -0.77000      0.06317      4.25292      0.04908      3.90350
    -0.76000      0.06340      4.25925      0.04922      3.90842
    -0.75000      0.06363      4.26559      0.04936      3.91334
    -0.74000      0.06386      4.27196      0.04949      3.91828
    -0.73000      0.06410      4.27836      0.04963      3.92324
    -0.72000      0.06433      4.28477      0.04977      3.92820
    -0.71000      0.06457      4.29121      0.04991      3.93319
    -0.70000      0.06480      4.29768      0.05005      3.93818
    -0.69000      0.06504      4.30416      0.05019      3.94319
    -0.68000      0.06528      4.31067      0.05033      3.94822
    -0.67000      0.06553      4.31721      0.05047      3.95326
    -0.66000      0.06577      4.32377      0.05061      3.95831
    -0.65000      0.06602      4.33035      0.05076      3.96337
    -0.64000      0.06626      4.33696      0.05090      3.96845
    -0.63000      0.06651      4.34360      0.05105      3.97355
    -0.62000      0.06676      4.35025      0.05119      3.97866
    -0.61000      0.06702      4.35694      0.05134      3.98378
    -0.60000      0.06727      4.36364      0.05148      3.98892
    -0.59000      0.06753      4.37038      0.05163      3.99408
    -0.58000      0.06778      4.37714      0.05178      3.99924
    -0.57000      0.06804      4.38392      0.05193      4.00443
    -0.56000      0.06830      4.39074      0.05208      4.00962
    -0.55000      0.06857      4.39757      0.05223      4.01484
    -0.54000      0.06883      4.40444      0.05238      4.02007
    -0.53000      0.06910      4.41133      0.05253      4.02531
    -0.52000      0.06936      4.41824      0.05268      4.03057
    -0.51000      0.06963      4.42519      0.05283      4.03584
    -0.50000      0.06991      4.43216      0.05299      4.04113
    -0.49000      0.07018      4.43915      0.05314      4.04643
    -0.48000      0.07046      4.44618      0.05329      4.05175
    -0.47000      0.07073      4.45323      0.05345      4.05709
    -0.46000      0.07101      4.46032      0.05361      4.06244
    -0.45000      0.07130      4.46742      0.05376      4.06780
    -0.44000      0.07158      4.47456      0.05392      4.07318
    -0.43000      0.07186      4.48172      0.05408      4.07858
    -0.42000      0.07215      4.48892      0.05424      4.08399
    -0.41000      0.07244      4.49614      0.05440      4.08942
    -0.40000      0.07273      4.50339      0.05456      4.09487
    -0.39000      0.07303      4.51067      0.05472      4.10033
    -0.38000      0.07332      4.51799      0.05488      4.10581
    -0.37000      0.07362      4.52533      0.05505      4.11130
    -0.36000      0.07392      4.53270      0.05521      4.11681
    -0.35000      0.07423      4.54010      0.05538      4.12234
    -0.34000      0.07453      4.54753      0.05554      4.12788
    -0.33000      0.07484      4.55499      0.05571      4.13344
    -0.32000      0.07515      4.56248      0.05587      4.13902
    -0.31000      0.07546      4.57000      0.05604      4.14461
    -0.30000      0.07577      4.57755      0.05621      4.15022
    -0.29000      0.07609      4.58514      0.05638      4.15585
    -0.28000      0.07641      4.59276      0.05655      4.16149
    -0.27000      0.07673      4.60040      0.05672      4.16715
    -0.26000      0.07705      4.60809      0.05689      4.17283
    -0.25000      0.07738      4.61580      0.05707      4.17853
    -0.24000      0.07771      4.62355      0.05724      4.18424
    -0.23000      0.07804      4.63132      0.05742      4.18997
    -0.22000      0.07837      4.63914      0.05759      4.19572
    -0.21000      0.07871      4.64698      0.05777      4.20148
    -0.20000      0.07905      4.65486      0.05795      4.20726
    -0.19000      0.07939      4.66278      0.05812      4.21306
    -0.18000      0.07974      4.67072      0.05830      4.21888
    -0.17000      0.08008      4.67870      0.05848      4.22472
    -0.16000      0.08043      4.68672      0.05866      4.23057
    -0.15000      0.08079      4.69477      0.05885      4.23644
    -0.14000      0.08114      4.70286      0.05903      4.24234
    -0.13000      0.08150      4.71098      0.05921      4.24824
    -0.12000      0.08186      4.71914      0.05940      4.25417
    -0.11000      0.08222      4.72733      0.05958      4.26012
    -0.10000      0.08259      4.73556      0.05977      4.26608
    -0.09000      0.08296      4.74383      0.05996      4.27206
    -0.08000      0.08333      4.75214      0.06014      4.27806
    -0.07000      0.08371      4.76048      0.06033      4.28409
    -0.06000      0.08409      4.76886      0.06052      4.29013
    -0.05000      0.08447      4.77727      0.06071      4.29618
    -0.04000      0.08486      4.78573      0.06091      4.30226
    -0.03000      0.08525      4.79422      0.06110      4.30836
    -0.02000      0.08564      4.80276      0.06129      4.31448
     -0.0100       0.0860       4.8113       0.0615       4.3206
     0.00000      0.08643      4.81994      0.06169      4.32677
      0.0100       0.0868       4.8286       0.0619       4.3329
     0.02000      0.08724      4.83729      0.06208      4.33914
     0.03000      0.08765      4.84602      0.06228      4.34535
     0.04000      0.08806      4.85479      0.06248      4.35159
     0.05000      0.08848      4.86361      0.06268      4.35784
     0.06000      0.08890      4.87247      0.06288      4.36412
     0.07000      0.08932      4.88136      0.06309      4.37041
     0.08000      0.08975      4.89030      0.06329      4.37673
     0.09000      0.09018      4.89929      0.06350      4.38306
     0.10000      0.09061      4.90831      0.06371      4.38942
     0.11000      0.09105      4.91739      0.06391      4.39580
     0.12000      0.09149      4.92650      0.06412      4.40219
     0.13000      0.09194      4.93566      0.06433      4.40861
     0.14000      0.09239      4.94486      0.06454      4.41505
     0.15000      0.09284      4.95411      0.06476      4.42152
     0.16000      0.09330      4.96340      0.06497      4.42800
     0.17000      0.09377      4.97274      0.06518      4.43450
     0.18000      0.09423      4.98213      0.06540      4.44103
     0.19000      0.09470      4.99156      0.06562      4.44757
     0.20000      0.09518      5.00104      0.06583      4.45414
     0.21000      0.09566      5.01057      0.06605      4.46073
     0.22000      0.09615      5.02014      0.06627      4.46735
     0.23000      0.09663      5.02976      0.06650      4.47398
     0.24000      0.09713      5.03944      0.06672      4.48064
     0.25000      0.09763      5.04916      0.06694      4.48732
     0.26000      0.09813      5.05893      0.06717      4.49402
     0.27000      0.09864      5.06875      0.06740      4.50074
     0.28000      0.09915      5.07863      0.06762      4.50749
     0.29000      0.09967      5.08855      0.06785      4.51426
     0.30000      0.10019      5.09853      0.06808      4.52105
     0.31000      0.10072      5.10855      0.06831      4.52787
     0.32000      0.10125      5.11863      0.06855      4.53470
     0.33000      0.10179      5.12877      0.06878      4.54156
     0.34000      0.10234      5.13896      0.06902      4.54845
     0.35000      0.10288      5.14920      0.06925      4.55536
     0.36000      0.10344      5.15950      0.06949      4.56229
     0.37000      0.10400      5.16985      0.06973      4.56925
     0.38000      0.10457      5.18026      0.06997      4.57623
     0.39000      0.10514      5.19072      0.07022      4.58324
     0.40000      0.10572      5.20125      0.07046      4.59026
     0.41000      0.10630      5.21183      0.07070      4.59732
     0.42000      0.10689      5.22247      0.07095      4.60440
     0.43000      0.10748      5.23317      0.07120      4.61150
     0.44000      0.10809      5.24393      0.07145      4.61863
     0.45000      0.10869      5.25474      0.07170      4.62578
     0.46000      0.10931      5.26562      0.07195      4.63296
     0.47000      0.10993      5.27656      0.07221      4.64016
     0.48000      0.11056      5.28756      0.07246      4.64739
     0.49000      0.11119      5.29863      0.07272      4.65464
     0.50000      0.11183      5.30976      0.07298      4.66192
     0.51000      0.11248      5.32095      0.07323      4.66923
     0.52000      0.11314      5.33220      0.07350      4.67656
     0.53000      0.11380      5.34353      0.07376      4.68392
     0.54000      0.11447      5.35492      0.07402      4.69130
     0.55000      0.11515      5.36637      0.07429      4.69871
     0.56000      0.11583      5.37790      0.07456      4.70615
     0.57000      0.11653      5.38949      0.07482      4.71361
     0.58000      0.11723      5.40115      0.07510      4.72110
     0.59000      0.11794      5.41288      0.07537      4.72862
     0.60000      0.11865      5.42468      0.07564      4.73617
     0.61000      0.11938      5.43656      0.07592      4.74374
     0.62000      0.12011      5.44850      0.07619      4.75134
     0.63000      0.12085      5.46052      0.07647      4.75896
     0.64000      0.12160      5.47261      0.07675      4.76662
     0.65000      0.12236      5.48478      0.07703      4.77431
     0.66000      0.12313      5.49703      0.07732      4.78202
     0.67000      0.12391      5.50935      0.07760      4.78976
     0.68000      0.12469      5.52175      0.07789      4.79752
     0.69000      0.12549      5.53422      0.07818      4.80532
     0.70000      0.12629      5.54678      0.07847      4.81315
     0.71000      0.12711      5.55942      0.07876      4.82101
     0.72000      0.12794      5.57213      0.07906      4.82889
     0.73000      0.12877      5.58494      0.07935      4.83681
     0.74000      0.12962      5.59782      0.07965      4.84475
     0.75000      0.13047      5.61079      0.07995      4.85272
     0.76000      0.13134      5.62385      0.08025      4.86073
     0.77000      0.13222      5.63698      0.08056      4.86876
     0.78000      0.13311      5.65021      0.08086      4.87682
     0.79000      0.13401      5.66353      0.08117      4.88492
     0.80000      0.13492      5.67694      0.08148      4.89305
     0.81000      0.13585      5.69044      0.08179      4.90120
     0.82000      0.13678      5.70403      0.08210      4.90940
     0.83000      0.13773      5.71771      0.08242      4.91761
     0.84000      0.13869      5.73149      0.08274      4.92586
     0.85000      0.13967      5.74537      0.08306      4.93415
     0.86000      0.14066      5.75934      0.08338      4.94246
     0.87000      0.14166      5.77341      0.08370      4.95080
     0.88000      0.14267      5.78758      0.08403      4.95919
     0.89000      0.14370      5.80185      0.08435      4.96760
     0.90000      0.14474      5.81622      0.08468      4.97604
     0.91000      0.14580      5.83070      0.08501      4.98452
     0.92000      0.14687      5.84529      0.08535      4.99304
     0.93000      0.14796      5.85997      0.08568      5.00158
     0.94000      0.14906      5.87477      0.08602      5.01016
     0.95000      0.15017      5.88968      0.08636      5.01877
     0.96000      0.15131      5.90470      0.08671      5.02741
     0.97000      0.15246      5.91983      0.08705      5.03609
     0.98000      0.15363      5.93508      0.08740      5.04481
     0.99000      0.15481      5.95045      0.08775      5.05356
     1.00000      0.15601      5.96593      0.08810      5.06234
     1.01000      0.15723      5.98153      0.08845      5.07116
     1.02000      0.15847      5.99725      0.08881      5.08002
     1.03000      0.15972      6.01310      0.08917      5.08891
     1.04000      0.16100      6.02907      0.08953      5.09783
     1.05000      0.16229      6.04516      0.08989      5.10680
     1.06000      0.16361      6.06139      0.09026      5.11580
     1.07000      0.16494      6.07775      0.09063      5.12483
     1.08000      0.16630      6.09424      0.09100      5.13390
     1.09000      0.16768      6.11087      0.09137      5.14302
     1.10000      0.16908      6.12763      0.09175      5.15216
     1.11000      0.17050      6.14454      0.09213      5.16135
     1.12000      0.17195      6.16158      0.09251      5.17057
     1.13000      0.17341      6.17877      0.09289      5.17983
     1.14000      0.17491      6.19610      0.09328      5.18913
     1.15000      0.17642      6.21358      0.09367      5.19847
     1.16000      0.17797      6.23122      0.09406      5.20785
     1.17000      0.17954      6.24900      0.09446      5.21726
     1.18000      0.18113      6.26695      0.09486      5.22672
     1.19000      0.18275      6.28505      0.09526      5.23622
     1.20000      0.18440      6.30331      0.09566      5.24575
     1.21000      0.18608      6.32174      0.09606      5.25533
     1.22000      0.18779      6.34033      0.09647      5.26495
     1.23000      0.18953      6.35909      0.09689      5.27460
     1.24000      0.19130      6.37803      0.09730      5.28431
     1.25000      0.19310      6.39714      0.09772      5.29404
     1.26000      0.19494      6.41644      0.09814      5.30383
     1.27000      0.19681      6.43591      0.09856      5.31366
     1.28000      0.19871      6.45557      0.09899      5.32352
     1.29000      0.20065      6.47541      0.09942      5.33343
     1.30000      0.20262      6.49545      0.09985      5.34338
    1.310000     0.204631     6.515687     0.100289     5.353379
    1.320000     0.206681     6.536121     0.100728     5.363422
    1.330000     0.208770     6.556759     0.101171     5.373503
    1.340000     0.210900     6.577602     0.101617     5.383634
    1.350000     0.213072     6.598659     0.102066     5.393809
    1.360000     0.215287     6.619931     0.102518     5.404023
    1.370000     0.217546     6.641421     0.102974     5.414286
    1.380000     0.219850     6.663136     0.103434     5.424595
    1.390000     0.222202     6.685079     0.103896     5.434952
    1.400000     0.224601     6.707253     0.104362     5.445354
    1.410000     0.227051     6.729664     0.104832     5.455801
    1.420000     0.229552     6.752318     0.105305     5.466295
    1.430000     0.232105     6.775220     0.105782     5.476836
    1.440000     0.234714     6.798375     0.106262     5.487430
    1.450000     0.237378     6.821788     0.106746     5.498062
    1.460000     0.240101     6.845464     0.107234     5.508750
    1.470000     0.242883     6.869407     0.107726     5.519490
    1.480000     0.245727     6.893625     0.108221     5.530273
    1.490000     0.248635     6.918123     0.108720     5.541105
    1.500000     0.251609     6.942914     0.109223     5.551993
    1.510000     0.254651     6.967990     0.109730     5.562927
    1.520001     0.257764     6.993370     0.110241     5.573910
    1.530001     0.260950     7.019056     0.110756     5.584949
    1.540001     0.264210     7.045057     0.111275     5.596035
    1.550001     0.267548     7.071380     0.111798     5.607175
    1.560001     0.270968     7.098025     0.112325     5.618366
    1.570001     0.274470     7.125010     0.112856     5.629611
    1.580001     0.278059     7.152342     0.113392     5.640910
    1.590001     0.281737     7.180022     0.113932     5.652262
    1.600001     0.285509     7.208068     0.114476     5.663669
    1.610000     0.289376     7.236477     0.115024     5.675129
    1.620000     0.293343     7.265268     0.115577     5.686645
    1.630000     0.297414     7.294449     0.116135     5.698215
    1.640000     0.301592     7.324031     0.116697     5.709841
    1.650000     0.305882     7.354020     0.117264     5.721524
    1.660000     0.310287     7.384427     0.117835     5.733261
    1.670000     0.314813     7.415267     0.118411     5.745056
    1.680000     0.319465     7.446546     0.118992     5.756912
    1.690000     0.324246     7.478283     0.119577     5.768824
    1.700000     0.329163     7.510487     0.120168     5.780797
    1.710000     0.334221     7.543166     0.120763     5.792827
    1.720000     0.339427     7.576338     0.121364     5.804915
    1.730000     0.344785     7.610019     0.121969     5.817065
    1.740000     0.350303     7.644217     0.122580     5.829275
    1.750000     0.355988     7.678957     0.123195     5.841545
    1.760000     0.361846     7.714242     0.123816     5.853879
    1.770000     0.367886     7.750099     0.124443     5.866275
    1.780000     0.374116     7.786542     0.125074     5.878732
    1.790000     0.380545     7.823581     0.125711     5.891251
    1.800000     0.387180     7.861249     0.126354     5.903837
    1.810000     0.394033     7.899552     0.127002     5.916488
    1.820000     0.401113     7.938517     0.127656     5.929199
    1.830000     0.408431     7.978158     0.128316     5.941980
    1.840000     0.415999     8.018510     0.128981     5.954828
    1.850000     0.423829     8.059585     0.129653     5.967737
    1.860000     0.431934     8.101407     0.130330     5.980718
    1.870000     0.440328     8.144011     0.131013     5.993762
    1.880000     0.449026     8.187410     0.131703     6.006877
    1.890001     0.458043     8.231646     0.132398     6.020062
    1.900001     0.467398     8.276735     0.133100     6.033320
    1.910001     0.477106     8.322712     0.133808     6.046643
    1.920001     0.487189     8.369609     0.134523     6.060036
    1.930001     0.497666     8.417460     0.135244     6.073500
    1.940001     0.508560     8.466296     0.135972     6.087039
    1.950001     0.519894     8.516161     0.136706     6.100651
    1.960001     0.531694     8.567086     0.137448     6.114337
    1.970001     0.543988     8.619116     0.138196     6.128093
    1.980000     0.556806     8.672298     0.138951     6.141927
    1.990000     0.570178     8.726665     0.139713     6.155838
    2.000000     0.584140     8.782278     0.140483     6.169826
    2.010000     0.598729     8.839179     0.141259     6.183887
    2.020000     0.613985     8.897426     0.142043     6.198027
    2.030000     0.629952     8.957069     0.142835     6.212245
    2.040000     0.646678     9.018170     0.143634     6.226544
    2.050000     0.664213     9.080792     0.144440     6.240921
    2.060000     0.682615     9.145003     0.145255     6.255380
    2.070000     0.701943     9.210867     0.146077     6.269923
    2.080000     0.722267     9.278460     0.146908     6.284541
    2.090000     0.743657     9.347860     0.147746     6.299249
    2.100000     0.766195     9.419152     0.148593     6.314035
    2.110000     0.789969     9.492425     0.149448     6.328911
    2.120000     0.815075     9.567760     0.150312     6.343868
    2.130000     0.841621     9.645266     0.151184     6.358914
    2.140000     0.869722     9.725046     0.152066     6.374050
    2.150000     0.899512     9.807204     0.152956     6.389270
    2.160000     0.931132     9.891858     0.153854     6.404577
    2.170000     0.964746     9.979133     0.154763     6.419978
     2.18000      1.00053     10.06915      0.15568      6.43547
     2.19000      1.03868     10.16206      0.15661      6.45105
     2.20000      1.07943     10.25798      0.15754      6.46673
     2.21000      1.12302     10.35707      0.15849      6.48250
     2.22000      1.16974     10.45949      0.15945      6.49836
     2.23000      1.21990     10.56539      0.16041      6.51432
     2.24000      1.27386     10.67493      0.16139      6.53038
     2.25000      1.33202     10.78827      0.16237      6.54653
     2.26000      1.39485     10.90560      0.16337      6.56278
     2.27000      1.46286     11.02703      0.16438      6.57914
     2.28000      1.53665     11.15273      0.16540      6.59558
     2.29000      1.61689     11.28281      0.16643      6.61214
     2.30000      1.70436     11.41738      0.16747      6.62880
     2.31000      1.79994     11.55648      0.16852      6.64556
     2.32000      1.90463     11.70007      0.16958      6.66242
     2.33000      2.01959     11.84807      0.17066      6.67939
     2.34000      2.14611     12.00022      0.17174      6.69647
     2.35000      2.28566     12.15610      0.17284      6.71366
     2.36000      2.43989     12.31505      0.17396      6.73096
     2.37000      2.61062     12.47608      0.17508      6.74837
     2.38000      2.79981     12.63779      0.17622      6.76589
     2.39000      3.00952     12.79818      0.17737      6.78353
     2.40000      3.24177     12.95461      0.17853      6.80127
     2.41000      3.49841     13.10351      0.17971      6.81915
     2.42000      3.78075     13.24038      0.18090      6.83713
     2.43000      4.08922     13.35958      0.18210      6.85523
     2.44000      4.42268     13.45451      0.18332      6.87345
     2.45000      4.77783     13.51793      0.18455      6.89180
     2.46000      5.14845     13.54278      0.18580      6.91027
     2.47000      5.52498     13.52347      0.18706      6.92886
     2.48000      5.89479     13.45769      0.18834      6.94758
     2.49000      6.24344     13.34834      0.18963      6.96642
     2.50000      6.55727     13.20473      0.19094      6.98540
     2.51000      6.82674     13.04238      0.19227      7.00451
     2.52000      7.04948     12.88066      0.19361      7.02375
     2.53000      7.23185     12.73914      0.19496      7.04312
     2.54000      7.38807     12.63333      0.19634      7.06263
     2.55000      7.53755     12.57186      0.19773      7.08227
     2.56000      7.70137     12.55540      0.19914      7.10205
     2.57000      7.89932     12.57730      0.20057      7.12198
     2.58000      8.14787     12.62505      0.20201      7.14205
     2.59000      8.45924     12.68181      0.20348      7.16226
     2.60000      8.84078     12.72771      0.20496      7.18261
     2.61000      9.29464     12.74068      0.20646      7.20312
     2.62000      9.81709     12.69734      0.20799      7.22377
     2.63000     10.39749     12.57434      0.20953      7.24459
     2.64000     11.01771     12.35032      0.21109      7.26555
     2.65000     11.65201     12.00888      0.21268      7.28666
     2.66000     12.26843     11.54187      0.21428      7.30794
     2.67000     12.83228     10.95230      0.21591      7.32937
     2.68000     13.31103     10.25525      0.21756      7.35097
     2.69000     13.67957      9.47597      0.21923      7.37273
     2.70000     13.92362      8.64545      0.22093      7.39466
     2.71000     14.04014      7.79499      0.22265      7.41676
     2.72000     14.03514      6.95189      0.22439      7.43903
     2.73000     13.92008      6.13748      0.22616      7.46147
     2.74000     13.70864      5.36702      0.22796      7.48409
     2.75000     13.41457      4.65086      0.22978      7.50689
     2.76000     13.05035      3.99588      0.23162      7.52987
     2.77000     12.62673      3.40722      0.23350      7.55303
     2.78000     12.15331      2.88991      0.23540      7.57639
     2.79000     11.64006      2.44975      0.23733      7.59993
     2.80000     11.09919      2.09267      0.23929      7.62366
     2.81000     10.54605      1.82285      0.24128      7.64758
    2.820000     9.998446     1.640465     0.243298     7.671709
    2.830000     9.474611     1.540385     0.245348     7.696034
    2.840000     8.990898     1.512239     0.247431     7.720572
    2.850000     8.559985     1.541590     0.249546     7.745308
    2.860000     8.189998     1.611537     0.251695     7.770251
    2.870000     7.884349     1.704159     0.253878     7.795415
    2.880000     7.641919     1.801626     0.256096     7.820792
    2.890000     7.457228     1.887034     0.258350     7.846389
    2.900000     7.320498     1.945299     0.260641     7.872217
    2.910000     7.217759     1.964291     0.262970     7.898264
    2.920000     7.131389     1.936399     0.265338     7.924551
    2.930000     7.041430     1.860236     0.267746     7.951071
    2.940000     6.928126     1.741867     0.270195     7.977826
    2.950000     6.775217     1.594715     0.272686     8.004828
    2.960000     6.573191     1.437544     0.275221     8.032074
    2.970000     6.321069     1.290821     0.277799     8.059572
    2.980000     6.025952     1.172608     0.280424     8.087328
    2.990001     5.700522     1.095500     0.283095     8.115345
    3.000001     5.359753     1.065492     0.285815     8.143629
    3.010001     5.017744     1.082622     0.288584     8.172174
    3.020001     4.685949     1.142701     0.291404     8.201006
    3.030000     4.372448     1.239249     0.294277     8.230107
    3.040000     4.082146     1.365044     0.297204     8.259496
    3.050000     3.817379     1.513191     0.300186     8.289177
    3.060000     3.578647     1.677641     0.303226     8.319148
    3.070000     3.365266     1.853415     0.306326     8.349426
    3.080000     3.175862     2.036574     0.309486     8.380003
    3.090000     3.008739     2.224112     0.312709     8.410901
    3.100000     2.862121     2.413797     0.315997     8.442112
    3.110000     2.734288     2.604021     0.319352     8.473650
    3.120000     2.623668     2.793649     0.322776     8.505519
    3.130000     2.528879     2.981920     0.326272     8.537725
    3.140000     2.448748     3.168339     0.329842     8.570276
    3.150000     2.382315     3.352603     0.333487     8.603183
    3.160000     2.328828     3.534546     0.337212     8.636446
    3.170000     2.287752     3.714085     0.341019     8.670077
    3.180000     2.258745     3.891178     0.344910     8.704083
    3.190000     2.241667     4.065788     0.348889     8.738468
    3.200000     2.236573     4.237848     0.352959     8.773250
    3.210000     2.243716     4.407208     0.357122     8.808430
    3.220000     2.263543     4.573622     0.361383     8.844019
    3.230000     2.296701     4.736656     0.365746     8.880030
    3.240000     2.344026     4.895654     0.370213     8.916461
    3.250000     2.406527     5.049643     0.374790     8.953332
    3.260000     2.485362     5.197228     0.379480     8.990657
    3.270000     2.581767     5.336490     0.384288     9.028437
    3.280000     2.696950     5.464808     0.389219     9.066686
    3.290000     2.831907     5.578740     0.394277     9.105418
    3.300000     2.987134     5.673849     0.399469     9.144647
    3.310000     3.162207     5.744639     0.404800     9.184377
    3.320000     3.355221     5.784595     0.410275     9.224627
    3.330000     3.562072     5.786487     0.415901     9.265412
    3.340000     3.775730     5.743095     0.421685     9.306740
    3.350001     3.985719     5.648428     0.427634     9.348639
    3.360001     4.178087     5.499518     0.433754     9.391103
    3.370001     4.336539     5.298331     0.440056     9.434166
    3.380001     4.444658     5.053296     0.446546     9.477838
    3.390001     4.489133     4.779489     0.453234     9.522132
    3.400001     4.462979     4.496860     0.460129     9.567078
    3.410001     4.367390     4.226770     0.467243     9.612679
    3.420001     4.211408     3.987999     0.474585     9.658966
    3.430001     4.009498     3.793694     0.482168     9.705957
    3.440001     3.778220     3.650235     0.490005     9.753680
    3.450001     3.533208     3.557869     0.498108     9.802142
    3.460001     3.287251     3.512464     0.506492     9.851383
    3.470001     3.049614     3.507456     0.515173     9.901416
    3.480000     2.826208     3.535459     0.524167     9.952272
     3.49000      2.62022      3.58934      0.53349     10.00398
     3.50000      2.43283      3.66280      0.54317     10.05657
     3.51000      2.26394      3.75058      0.55322     10.11007
     3.52000      2.11263      3.84846      0.56366     10.16451
     3.53000      1.97755      3.95317      0.57452     10.21992
     3.54000      1.85719      4.06221      0.58582     10.27635
     3.55000      1.75002      4.17372      0.59760     10.33383
     3.56000      1.65457      4.28634      0.60988     10.39239
     3.57000      1.56948      4.39908      0.62270     10.45208
     3.58000      1.49353      4.51123      0.63609     10.51295
     3.59000      1.42564      4.62233      0.65010     10.57503
     3.60000      1.36484      4.73204      0.66477     10.63839
     3.61000      1.31031      4.84017      0.68014     10.70307
     3.62000      1.26131      4.94663      0.69627     10.76913
     3.63000      1.21722      5.05132      0.71321     10.83661
     3.64000      1.17747      5.15428      0.73103     10.90560
     3.65000      1.14160      5.25551      0.74980     10.97614
     3.66000      1.10919      5.35510      0.76959     11.04833
     3.67000      1.07988      5.45307      0.79049     11.12221
     3.68000      1.05334      5.54953      0.81260     11.19788
     3.69000      1.02932      5.64454      0.83600     11.27541
     3.70000      1.00756      5.73822      0.86084     11.35491
     3.71000      0.98786      5.83062      0.88721     11.43642
     3.72000      0.97004      5.92186      0.91528     11.52012
     3.73000      0.95392      6.01200      0.94521     11.60604
     3.74000      0.93938      6.10115      0.97716     11.69432
     3.75000      0.92628      6.18937      1.01135     11.78507
     3.76000      0.91451      6.27677      1.04801     11.87843
     3.77000      0.90398      6.36339      1.08737     11.97447
     3.78000      0.89460      6.44935      1.12975     12.07338
     3.79000      0.88629      6.53468      1.17546     12.17524
     3.80000      0.87899      6.61948      1.22489     12.28024
     3.81000      0.87263      6.70380      1.27845     12.38844
     3.82000      0.86717      6.78773      1.33663     12.50004
     3.83000      0.86255      6.87130      1.39999     12.61512
     3.84000      0.85874      6.95461      1.46916     12.73379
     3.85000      0.85571      7.03769      1.54487     12.85615
     3.86000      0.85341      7.12062      1.62797     12.98224
     3.87000      0.85182      7.20343      1.71941     13.11204
     3.88000      0.85093      7.28621      1.82033     13.24553
     3.89000      0.85071      7.36898      1.93197     13.38248
     3.90000      0.85114      7.45183      2.05586     13.52265
     3.91000      0.85222      7.53481      2.19367     13.66552
     3.92000      0.85393      7.61793      2.34730     13.81031
     3.93000      0.85626      7.70129      2.51900     13.95601
     3.94000      0.85922      7.78491      2.71118     14.10100
     3.95000      0.86281      7.86888      2.92663     14.24320
     3.96000      0.86701      7.95321      3.16822     14.37960
     3.97000      0.87184      8.03798      3.43906     14.50625
     3.98000      0.87731      8.12323      3.74204     14.61780
     3.99000      0.88342      8.20903      4.07977     14.70736
     4.00000      0.89018      8.29541      4.45373     14.76603
     4.01000      0.89762      8.38245      4.86382     14.78287
     4.02000      0.90575      8.47019      5.30689     14.74484
     4.03000      0.91458      8.55870      5.77578     14.63739
     4.04000      0.92416      8.64801      6.25735     14.44579
     4.05000      0.93450      8.73823      6.73191     14.15735
     4.06000      0.94564      8.82938      7.17246     13.76508
     4.07000      0.95762      8.92155      7.54712     13.27119
     4.08000      0.97047      9.01478      7.82283     12.69086
     4.09000      0.98426      9.10916      7.97207     12.05239
     4.10000      0.99902      9.20475      7.97914     11.39485
     4.11000      1.01483      9.30164      7.84450     10.76073
     4.12000      1.03174      9.39989      7.58464     10.18869
    4.130001     1.049843     9.499588     7.227556     9.706355
    4.140000     1.069213     9.600799     6.806430     9.328181
    4.150001     1.089951     9.703644     6.352977     9.055815
    4.160000     1.112161     9.808173     5.893865     8.881857
    4.170001     1.135972     9.914516     5.448421     8.793441
     4.18000      1.16151     10.02273      5.02949      8.77582
     4.19000      1.18894     10.13295      4.64395      8.81452
     4.20000      1.21844     10.24524      4.29484      8.89661
     4.21000      1.25020     10.35975      3.98212      9.01128
     4.22000      1.28445     10.47652      3.70429      9.14977
     4.23000      1.32145     10.59572      3.45872      9.30531
     4.24000      1.36149     10.71740      3.24254      9.47263
     4.25000      1.40491     10.84168      3.05267      9.64790
     4.26000      1.45209     10.96862      2.88627      9.82818
     4.27000      1.50348     11.09833      2.74059     10.01145
     4.28000      1.55958     11.23083      2.61325     10.19619
     4.29000      1.62097     11.36610      2.50212     10.38136
     4.30000      1.68833     11.50416      2.40526     10.56633
     4.31000      1.76241     11.64486      2.32106     10.75059
     4.32000      1.84411     11.78806      2.24807     10.93397
     4.33000      1.93441     11.93339      2.18507     11.11629
     4.34000      2.03447     12.08041      2.13098     11.29759
     4.35000      2.14554     12.22836      2.08489     11.47788
     4.36000      2.26906     12.37628      2.04601     11.65733
     4.37000      2.40651     12.52270      2.01366     11.83603
     4.38000      2.55952     12.66574      1.98725     12.01421
     4.39000      2.72956     12.80276      1.96629     12.19200
     4.40000      2.91802     12.93043      1.95036     12.36968
     4.41000      3.12570     13.04433      1.93908     12.54739
     4.42000      3.35264     13.13911      1.93215     12.72540
     4.43000      3.59731     13.20829      1.92932     12.90389
     4.44000      3.85622     13.24472      1.93035     13.08314
     4.45000      4.12290     13.24110      1.93509     13.26330
     4.46000      4.38758     13.19124      1.94339     13.44468
     4.47000      4.63687     13.09175      1.95513     13.62743
     4.48000      4.85499     12.94390      1.97023     13.81184
     4.49000      5.02555     12.75544      1.98864     13.99809
     4.50000      5.13502     12.54068      2.01034     14.18647
     4.51000      5.17579     12.31932      2.03530     14.37715
     4.52000      5.14839     12.11272      2.06356     14.57044
     4.53000      5.06136     11.94033      2.09515     14.76649
     4.54000      4.92904     11.81607      2.13014     14.96566
     4.55000      4.76834     11.74722      2.16861     15.16811
     4.56000      4.59551     11.73475      2.21068     15.37417
     4.57000      4.42426     11.77501      2.25648     15.58404
     4.58000      4.26474     11.86172      2.30619     15.79808
     4.59000      4.12390     11.98756      2.35997     16.01648
     4.60000      4.00584     12.14540      2.41807     16.23963
     4.61000      3.91274     12.32876      2.48072     16.46776
     4.62000      3.84547     12.53225      2.54824     16.70126
     4.63000      3.80418     12.75137      2.62095     16.94043
     4.64000      3.78870     12.98244      2.69920     17.18556
     4.65000      3.79877     13.22252      2.78346     17.43711
     4.66000      3.83426     13.46898      2.87418     17.69536
     4.67000      3.89527     13.71952      2.97192     17.96078
     4.68000      3.98207     13.97175      3.07729     18.23368
     4.69000      4.09521     14.22318      3.19102     18.51456
     4.70000      4.23529     14.47077      3.31386     18.80375
     4.71000      4.40293     14.71099      3.44678     19.10175
     4.72000      4.59833     14.93935      3.59074     19.40889
     4.73000      4.82109     15.15058      3.74699     19.72569
     4.74000      5.06940     15.33827      3.91680     20.05242
     4.75000      5.33961     15.49544      4.10178     20.38953
     4.76000      5.62522     15.61493      4.30362     20.73723
     4.77000      5.91658     15.69073      4.52439     21.09582
     4.78000      6.20049     15.71948      4.76634     21.46524
     4.79000      6.46141     15.70257      5.03217     21.84550
     4.80000      6.68322     15.64768      5.32482     22.23609
     4.81000      6.85266     15.56921      5.64781     22.63640
     4.82000      6.96238     15.48689      6.00493     23.04504
     4.83000      7.01329     15.42238      6.40066     23.46027
     4.84000      7.01446     15.39534      6.83970     23.87914
     4.85000      6.98106     15.42010      7.32743     24.29779
     4.86000      6.93107     15.50419      7.86920     24.71064
     4.87000      6.88215     15.64874      8.47069     25.11034
     4.88000      6.84963     15.84995      9.13669     25.48705
     4.89000      6.84560     16.10124      9.87120     25.82829
     4.90000      6.87903     16.39453     10.67543     26.11842
     4.91000      6.95639     16.72162     11.54730     26.33910
     4.92000      7.08232     17.07441     12.47867     26.46980
     4.93000      7.26036     17.44528     13.45477     26.48975
     4.94000      7.49322     17.82658     14.45188     26.38073
     4.95000      7.78326     18.21077     15.43888     26.13089
     4.96000      8.13210     18.58957     16.37839     25.73870
     4.97000      8.54074     18.95424     17.23248     25.21510
     4.98000      9.00862     19.29489     17.96684     24.58378
     4.99000      9.53344     19.60133     18.55630     23.87755
     5.00000     10.11011     19.86324     18.98566     23.13491
     5.01000     10.73061     20.07152     19.24995     22.39633
     5.02000     11.38482     20.21997     19.35358     21.70223
     5.03000     12.06125     20.30634     19.31044     21.09270
     5.04000     12.75049     20.33281     19.14497     20.60432
     5.05000     13.44700     20.30447     18.89204     20.26711
     5.06000     14.15167     20.22593     18.59415     20.09984
     5.07000     14.87020     20.09701     18.29689     20.10828
     5.08000     15.61026     19.90902     18.04352     20.28557
     5.09000     16.37506     19.64376     17.87153     20.61520
     5.10000     17.15807     19.27541     17.81092     21.07486
     5.11000     17.93727     18.77651     17.88478     21.63930
     5.12000     18.67439     18.12544     18.11069     22.28294
     5.13000     19.31646     17.31632     18.50243     22.98001
     5.14000     19.80446     16.36592     19.07188     23.70516
     5.15000     20.08441     15.31796     19.82955     24.43155
     5.16000     20.12121     14.23812     20.78574     25.13039
     5.17000     19.90800     13.20448     21.94911     25.76820
     5.18000     19.46868     12.29138     23.32652     26.30590
     5.19000     18.85218     11.55729     24.91905     26.69637
     5.20000     18.12061     11.03608     26.71972     26.88423
     5.21000     17.33786     10.73751     28.70620     26.80598
     5.22000     16.55962     10.65145     30.83660     26.39350
     5.23000     15.82962     10.75552     33.04058     25.58146
     5.24000     15.17806     11.02167     35.21822     24.31889
     5.25000     14.62429     11.42117     37.23933     22.58662
     5.26000     14.17872     11.92782     38.95828     20.41265
     5.27000     13.84644     12.51897     40.23435     17.88551
     5.28000     13.62888     13.17626     40.96368     15.14881
     5.29000     13.52614     13.88460     41.10447     12.38403
     5.30000     13.53793     14.63234     40.68999      9.77339
     5.31000     13.66460     15.40953     39.81975      7.46798
     5.32000     13.90765     16.20809     38.63383      5.56060
     5.33000     14.26992     17.02010     37.28262      4.08243
     5.34000     14.75614     17.83789     35.89908      3.00977
     5.35000     15.37239     18.65230     34.58462      2.28364
     5.36000     16.12663     19.45277     33.40201      1.82726
     5.37000     17.02777     20.22550     32.37935      1.56339
     5.38000     18.08519     20.95275     31.51658      1.42589
     5.39000     19.30826     21.61216     30.79527      1.36757
     5.40000     20.70346     22.17488     30.19104      1.36302
     5.41000     22.27357     22.60585     29.68385      1.40610
     5.42000     24.01265     22.86323     29.26701      1.50267
     5.43000     25.90434     22.90053     28.94980      1.66059
     5.44000     27.91578     22.66999     28.75570      1.88007
     5.45000     29.99775     22.12873     28.71571      2.14737
     5.46000     32.08249     21.24709     28.86109      2.43216
     5.47000     34.09169     20.01613     29.21629      2.68854
     5.48000     35.94317     18.45396     29.79322      2.85726
     5.49000     37.56582     16.60343     30.58701      2.86927
     5.50000     38.90682     14.52659     31.57053      2.64998
     5.51000     39.93737     12.29106     32.69088      2.12562
     5.52000     40.64732      9.96272     33.86479      1.23334
     5.53000     41.03912      7.59882     34.98045     -0.06606
     5.54000     41.12128      5.25288     35.90371     -1.77149
     5.55000     40.90861      2.97545     36.49666     -3.83049
     5.56000     40.42564      0.81795     36.64190     -6.13403
     5.57000     39.71014     -1.17431     36.26970     -8.53098
     5.58000     38.81300     -2.96627     35.37525    -10.85160
     5.59000     37.79211     -4.54164     34.01830    -12.94288
     5.60000     36.70536     -5.90223     32.30708    -14.69203
     5.61000     35.60195     -7.06747     30.37037    -16.04098
     5.62000     34.51912     -8.06704     28.33446    -16.98096
     5.63000     33.47935     -8.93669     26.30393    -17.54134
     5.64000     32.49236     -9.71181     24.35721    -17.77274
     5.65000     31.55584    -10.42493     22.54458    -17.73439
     5.66000     30.65899    -11.10206     20.89530    -17.48464
     5.67000     29.78400    -11.76185     19.42119    -17.07588
     5.68000     28.90981    -12.41337     18.12420    -16.55281
     5.69000     28.01434    -13.05629     16.99889    -15.95198
     5.70000     27.07906    -13.68040     16.03719    -15.30332
     5.71000     26.09165    -14.26820     15.22898    -14.63084
     5.72000     25.04959    -14.79764     14.56449    -13.95496
     5.73000     23.96001    -15.24708     14.03375    -13.29301
     5.74000     22.83979    -15.59910     13.62735    -12.66132
     5.75000     21.71230    -15.84448     13.33552    -12.07585
     5.76000     20.60254    -15.98423     13.14716    -11.55258
     5.77000     19.53365    -16.02940     13.04874    -11.10835
     5.78000     18.52124    -15.99879     13.02259    -10.75955
     5.79000     17.57210    -15.91487     13.04550    -10.52108
     5.80000     16.68247    -15.79897     13.08797    -10.40311
     5.81000     15.84128    -15.66690     13.11499    -10.40774
     5.82000     15.03288    -15.52593     13.08916    -10.52523
     5.83000     14.24292    -15.37458     12.97623    -10.73208
     5.84000     13.46156    -15.20451     12.75171    -10.99262
     5.85000     12.68660    -15.00478     12.40645    -11.26408
     5.86000     11.92222    -14.76565     11.94810    -11.50475
     5.87000     11.17748    -14.48184     11.39869    -11.68109
     5.88000     10.46232    -14.15306     10.78800    -11.77251
     5.89000      9.78594    -13.78357     10.14760    -11.77166
     5.90000      9.15448    -13.38019      9.50488    -11.68203
     5.91000      8.57153    -12.95116      8.88122    -11.51408
     5.92000      8.03767    -12.50429      8.29068    -11.28144
     5.93000      7.55187    -12.04681      7.74163    -10.99842
     5.94000      7.11148    -11.58444      7.23741    -10.67803
     5.95000      6.71342    -11.12198      6.77848    -10.33155
     5.96000      6.35408    -10.66274      6.36295     -9.96797
     5.97000      6.03003    -10.20937      5.98808     -9.59450
    5.980000     5.737808    -9.763453     5.650333    -9.216432
    5.990000     5.474422    -9.326214     5.346280    -8.837852
    6.000000     5.236973    -8.898132     5.072385    -8.461520
    6.010000     5.023046    -8.479636     4.825529    -8.089571
    6.020000     4.830376    -8.070583     4.602706    -7.723246
    6.030000     4.657115    -7.670938     4.401381    -7.363528
    6.040000     4.501553    -7.280252     4.219177    -7.010808
    6.050000     4.362323    -6.898260     4.054116    -6.665440
    6.060000     4.238179    -6.524358     3.904368    -6.327352
    6.070000     4.128155    -6.158161     3.768430    -5.996563
    6.080000     4.031388    -5.799026     3.644907    -5.672768
    6.089999     3.947238    -5.446524     3.532667    -5.355810
    6.100000     3.875168    -5.099993     3.430653    -5.045277
    6.110001     3.814821    -4.758956     3.337995    -4.740882
    6.120000     3.765985    -4.422939     3.253941    -4.442315
    6.130001     3.728549    -4.091332     3.177800    -4.149103
    6.140000     3.702581    -3.763754     3.109018    -3.860975
    6.150001     3.688261    -3.439658     3.047078    -3.577457
    6.160000     3.685947    -3.118740     2.991580    -3.298269
    6.170001     3.696141    -2.800549     2.942138    -3.022955
    6.180000     3.719529    -2.484919     2.898470    -2.751238
    6.190001     3.756990    -2.171571     2.860303    -2.482671
    6.200000     3.809597    -1.860561     2.827450    -2.216985
    6.210001     3.878683    -1.551919     2.799737    -1.953747
    6.220000     3.965797    -1.246099     2.777055    -1.692699
    6.230001     4.072812    -0.943663     2.759320    -1.433414
    6.240000     4.201818    -0.645783     2.746494    -1.175634
    6.250000     4.355270    -0.353959     2.738578    -0.918948
     6.26000      4.53579     -0.07061      2.73561     -0.66309
    6.270000     4.746279     0.201131     2.737674    -0.407664
    6.280000     4.989560     0.456766     2.744888    -0.152408
    6.290000     5.268371     0.690499     2.757420     0.103092
    6.300000     5.584620     0.894608     2.775482     0.359084
    6.310000     5.939117     1.059480     2.799346     0.615983
    6.320000     6.330195     1.173270     2.829332     0.874036
    6.330000     6.752948     1.222388     2.865833     1.133648
    6.340000     7.197305     1.192226     2.909301     1.395062
    6.350000     7.647177     1.068990     2.960289     1.658671
    6.360000     8.079233     0.842616     3.019416     1.924677
    6.370000     8.464151     0.510262     3.087427     2.193453
     6.38000      8.76903      0.08030      3.16516      2.46513
    6.390000     8.963132    -0.425960     3.253637     2.739993
    6.400000     9.024029    -0.974660     3.353954     3.018060
    6.410000     8.943441    -1.524819     3.467462     3.299430
    6.420000     8.729415    -2.035045     3.595620     3.583896
    6.430000     8.404022    -2.471655     3.740178     3.871219
    6.440000     7.998099    -2.812846     3.903007     4.160736
    6.450000     7.544263    -3.050286     4.086304     4.451615
    6.460001     7.072091    -3.186543     4.292394     4.742420
    6.470000     6.604937    -3.231654     4.523715     5.031139
    6.480001     6.158935    -3.199409     4.782870     5.315139
    6.490000     5.744230    -3.104429     5.072171     5.590688
    6.500001     5.365741    -2.960367     5.393652     5.853149
    6.510000     5.025147    -2.779120     5.748300     6.096573
    6.520001     4.721622    -2.570369     6.135871     6.314073
    6.530000     4.453236    -2.341899     6.553742     6.497922
    6.540001     4.217205    -2.099582     6.996752     6.640589
    6.550000     4.010681    -1.847957     7.456312     6.735822
    6.560001     3.830692    -1.590247     7.921268     6.780612
    6.570000     3.674581    -1.328906     8.378804     6.776778
    6.580001     3.539827    -1.065520     8.817579     6.732023
    6.590000     3.424284    -0.801313     9.230545     6.659361
    6.600001     3.326014    -0.536924     9.618270     6.574328
    6.610000     3.243412    -0.272874     9.989478     6.490946
    6.620        3.175       -.9278E-2     10.36        6.417   
     6.63000      3.11984      0.25375     10.74941      6.35282
     6.64000      3.07677      0.51638     11.17605      6.28700
     6.65000      3.04510      0.77871     11.65359      6.20085
     6.66000      3.02423      1.04108     12.18787      6.06896
     6.67000      3.01373      1.30372     12.77421      5.86289
     6.68000      3.01329      1.56705     13.39700      5.55489
     6.69000      3.02276      1.83135     14.02920      5.12259
     6.70000      3.04212      2.09712     14.63543      4.55297
     6.71000      3.07147      2.36466     15.17535      3.84629
     6.72000      3.11104      2.63450     15.61017      3.01632
     6.73000      3.16119      2.90695     15.90721      2.08921
     6.74000      3.22245      3.18253     16.04368      1.09833
     6.75000      3.29546      3.46156     16.00679      0.08147
     6.76000      3.38106      3.74453     15.79303     -0.92292
     6.77000      3.48023      4.03171     15.40813     -1.87564
     6.78000      3.59421      4.32351     14.86732     -2.73967
     6.79000      3.72441      4.62008     14.19668     -3.48225
     6.80000      3.87255      4.92169     13.43041     -4.08019
     6.81000      4.04057      5.22828     12.60780     -4.52208
     6.82000      4.23084      5.53978     11.76679     -4.80944
     6.83000      4.44604      5.85573     10.94033     -4.95398
     6.84000      4.68923      6.17534     10.15341     -4.97410
    6.850001     4.964054     6.497477     9.422254    -4.890959
    6.860000     5.274481     6.820209     8.756277    -4.725566
    6.870001     5.625180     7.140942     8.158781    -4.496819
    6.880000     6.021067     7.455776     7.629611    -4.220876
    6.890001     6.467680     7.759560     7.165889    -3.910706
    6.900000     6.970462     8.045069     6.763769    -3.576652
    6.910001     7.534965     8.302934     6.418713    -3.226474
    6.920000     8.165537     8.520767     6.126446    -2.866190
    6.930001     8.865149     8.683041     5.882862    -2.500083
    6.940000     9.633160     8.770654     5.684553    -2.131527
     6.95000     10.46441      8.76137      5.52859     -1.76284
     6.96000     11.34616      8.63091      5.41284     -1.39601
     6.97000     12.25710      8.35520      5.33571     -1.03251
     6.98000     13.16512      7.91434      5.29635     -0.67388
     6.99000     14.02893      7.29691      5.29449     -0.32157
     7.00000     14.80010      6.50542      5.33048      0.02249
     7.01000     15.42970      5.55866      5.40522      0.35607
     7.02000     15.87443      4.49314      5.51999      0.67597
     7.03000     16.10410      3.35877      5.67645      0.97816
     7.04000     16.10582      2.21458      5.87615      1.25708
     7.05000     15.88627      1.12029      6.12043      1.50566
     7.06000     15.47091      0.13053      6.40944      1.71471
     7.07000     14.90009     -0.71290      6.74165      1.87306
     7.08000     14.22347     -1.38410      7.11224      1.96745
     7.09000     13.49224     -1.87526      7.51208      1.98343
     7.10000     12.75357     -2.19369      7.92581      1.90676
     7.11000     12.04547     -2.35821      8.33141      1.72612
     7.12000     11.39611     -2.39390      8.69988      1.43671
     7.13000     10.82348     -2.32829      8.99820      1.04402
     7.14000     10.33774     -2.18854      9.19367      0.56689
     7.15000      9.94235     -1.99995      9.26090      0.03693
    7.159999     9.636269    -1.785600     9.187775    -0.504891
    7.170000     9.414365    -1.566093     8.978729    -1.016179
    7.179999     9.268267    -1.359856     8.653542    -1.460331
    7.190000     9.186131    -1.182602     8.241931    -1.812811
    7.200001     9.152820    -1.046764     7.777050    -2.062448
    7.210000     9.150270    -0.960069     7.289619    -2.209999
    7.220001     9.158871    -0.924043     6.804171    -2.264548
    7.230000     9.159991    -0.933132     6.338429    -2.239506
    7.240001     9.139170    -0.975167     5.903265    -2.149592
    7.250000     9.089094    -1.033766     5.504580    -2.008855
    7.260001     9.010839    -1.092323     5.144222    -1.829523
    7.270000     8.912819    -1.138129     4.821818    -1.621809
    7.280001     8.807571    -1.165328     4.535307    -1.393736
    7.290000     8.707808    -1.175625     4.282054    -1.151632
    7.300001     8.622684    -1.177041     4.058961    -0.900141
    7.310000     8.555499    -1.181222     3.863067    -0.642838
    7.320001     8.502669    -1.200159     3.691458    -0.382174
    7.330000     8.454386    -1.242776     3.541557    -0.120022
    7.340001     8.396664    -1.312122     3.410976     0.142467
    7.350000     8.314808    -1.403686     3.297690     0.404399
    7.360001     8.197312    -1.505782     3.199867     0.665363
    7.370000     8.039382    -1.601934     3.115990     0.925014
    7.380001     7.844299    -1.674974     3.044704     1.183348
    7.390000     7.622725    -1.710983     2.984910     1.440326
    7.400001     7.389700    -1.702104     2.935633     1.696163
    7.410000     7.161578    -1.647223     2.896108     1.950984
    7.420001     6.952989    -1.551100     2.865666     2.205127
    7.430000     6.775513    -1.422774     2.843793     2.458804
    7.440001     6.636786    -1.273794     2.830065     2.712421
    7.450000     6.540727    -1.117089     2.824183     2.966237
    7.460001     6.487516    -0.965936     2.825926     3.220699
    7.470000     6.473765    -0.833528     2.835170     3.476094
    7.480000     6.492311    -0.732097     2.851879     3.732887
    7.490000     6.532077    -0.672058     2.876092     3.991393
    7.500000     6.578222    -0.660429     2.907946     4.252086
    7.510000     6.613014    -0.699089     2.947645     4.515296
    7.520000     6.617907    -0.783211     2.995506     4.781509
    7.529999     6.576605    -0.900686     3.051906     5.051055
    7.540000     6.478427    -1.033517     3.117361     5.324438
    7.549999     6.320750    -1.160822     3.192466     5.601976
    7.560000     6.109225    -1.263051     3.277972     5.884163
    7.570001     5.856018    -1.325343     3.374738     6.171343
    7.580000     5.576548    -1.339427     3.483769     6.463837
    7.590001     5.286069    -1.303397     3.606301     6.762073
    7.600000     4.997721    -1.220260     3.743698     7.066219
    7.610001     4.721119    -1.095924     3.897628     7.376582
    7.620000     4.462669    -0.937567     4.069938     7.693145
    7.630001     4.225748    -0.752267     4.262870     8.015931
    7.640000     4.011748    -0.546493     4.478892     8.344565
    7.650001     3.820485    -0.325561     4.720972     8.678559
     7.66000      3.65102     -0.09387      4.99235      9.01682
    7.670001     3.501814     0.145328     5.296894     9.357923
    7.680000     3.371241     0.389432     5.638710     9.699478
     7.69000      3.25756      0.63669      6.02258     10.03839
     7.70000      3.15918      0.88573      6.45337     10.37003
     7.71000      3.07457      1.13573      6.93642     10.68842
     7.72000      3.00244      1.38606      7.47659     10.98532
     7.73000      2.94157      1.63645      8.07839     11.25027
     7.74000      2.89097      1.88667      8.74442     11.46983
     7.75000      2.84974      2.13678      9.47508     11.62783
     7.76000      2.81714      2.38678     10.26609     11.70540
     7.77000      2.79254      2.63688     11.10789     11.68208
     7.78000      2.77542      2.88723     11.98301     11.53788
     7.79000      2.76535      3.13813     12.86638     11.25609
     7.80000      2.76199      3.38980     13.72492     10.82738
     7.81000      2.76509      3.64260     14.52123     10.25307
     7.82000      2.77443      3.89678     15.21738      9.54823
     7.83000      2.78991      4.15277     15.78185      8.74092
     7.84000      2.81145      4.41081     16.19464      7.86985
     7.85000      2.83904      4.67136     16.45216      6.97709
     7.86000      2.87274      4.93470     16.56670      6.10111
     7.87000      2.91264      5.20132     16.56267      5.26833
     7.88000      2.95892      5.47150     16.46860      4.49023
     7.89000      3.01179      5.74576     16.30836      3.76334
     7.90000      3.07153      6.02441     16.09478      3.07596
     7.91000      3.13849      6.30797     15.82723      2.41551
     7.92000      3.21307      6.59680     15.49472      1.77740
     7.93000      3.29578      6.89145     15.08266      1.16886
     7.94000      3.38718      7.19232     14.58142      0.60940
     7.95000      3.48792      7.49983     13.99264      0.12525
     7.96000      3.59879      7.81457     13.33066     -0.25838
     7.97000      3.72065      8.13690     12.62035     -0.52358
     7.98000      3.85455      8.46740     11.89072     -0.66357
     7.99000      4.00160      8.80642     11.16999     -0.68207
     8.00000      4.16320      9.15448     10.48086     -0.59072
    8.010000     4.340819     9.511867     9.839762    -0.405417
    8.020000     4.536262     9.878982     9.256203    -0.143134
     8.03000      4.75146     10.25591      8.73479      0.17997
     8.04000      4.98876     10.64281      8.27591      0.55000
     8.05000      5.25066     11.03938      7.87781      0.95535
     8.06000      5.54014     11.44527      7.53711      1.38709
     8.07000      5.86036     11.85946      7.24999      1.83822
     8.08000      6.21499     12.28066      7.01236      2.30382
     8.09000      6.60776     12.70657      6.82051      2.78015
     8.10000      7.04281     13.13430      6.67095      3.26494
     8.11000      7.52399     13.55954      6.56083      3.75647
     8.12000      8.05511     13.97695      6.48769      4.25403
     8.13000      8.63881     14.37950      6.44966      4.75710
     8.14000      9.27666     14.75903      6.44539      5.26586
     8.15000      9.96764     15.10615      6.47402      5.78045
     8.16000     10.70829     15.41154      6.53520      6.30154
     8.17000     11.49145     15.66679      6.62906      6.82958
     8.18000     12.30766     15.86650      6.75626      7.36549
     8.19000     13.14559     16.00949      6.91790      7.90983
     8.20000     13.99555     16.09970      7.11573      8.46355
     8.21000     14.85109     16.14499      7.35193      9.02714
     8.22000     15.71196     16.15476      7.62941      9.60135
     8.23000     16.58293     16.13665      7.95166     10.18635
     8.24000     17.47303     16.09419      8.32302     10.78239
     8.25000     18.39187     16.02621      8.74850     11.38895
     8.26000     19.34917     15.92763      9.23427     12.00527
     8.27000     20.35331     15.79050      9.78722     12.62943
     8.28000     21.41303     15.60370     10.41570     13.25882
     8.29000     22.53619     15.35141     11.12898     13.88902
     8.30000     23.72784     15.01124     11.93750     14.51366
     8.31000     24.98664     14.55387     12.85327     15.12407
     8.32000     26.29903     13.94617     13.88869     15.70773
     8.33000     27.63802     13.15624     15.05723     16.24807
     8.34000     28.96218     12.16105     16.37129     16.72256
     8.35000     30.22156     10.95145     17.84214     17.10213
     8.36000     31.36283      9.53665     19.47598     17.34940
     8.37000     32.33842      7.94233     21.27233     17.41857
     8.38000     33.11149      6.20878     23.21736     17.25556
     8.39000     33.66121      4.38273     25.28050     16.80084
     8.40000     33.98256      2.51236     27.40623     15.99564
     8.41000     34.08406      0.63844     29.51282     14.79162
     8.42000     33.98162     -1.20697     31.49062     13.16609
     8.43000     33.69254     -3.00266     33.21415     11.13588
     8.44000     33.23154     -4.73250     34.55883      8.77036
     8.45000     32.60935     -6.38326     35.42923      6.18838
     8.46000     31.83533     -7.93908     35.78234      3.54503
     8.47000     30.91966     -9.38237     35.64156      0.99907
     8.48000     29.87747    -10.69271     35.09074     -1.31601
     8.49000     28.72970    -11.85134     34.25265     -3.31874
     8.50000     27.50466    -12.84297     33.26109     -4.98472
     8.51000     26.23495    -13.66087     32.23454     -6.34267
     8.52000     24.95519    -14.30793     31.26051     -7.45705
     8.53000     23.69562    -14.79778     30.38663     -8.41213
     8.54000     22.47940    -15.15107     29.62143     -9.29380
     8.55000     21.31907    -15.39136     28.93739    -10.17634
     8.56000     20.21925    -15.53973     28.28083    -11.10924
     8.57000     19.17870    -15.61199     27.58347    -12.10984
     8.58000     18.19612    -15.61838     26.77933    -13.15940
     8.59000     17.27189    -15.56600     25.82019    -14.20973
     8.60000     16.40981    -15.46238     24.68830    -15.19502
     8.61000     15.61412    -15.31796     23.39794    -16.05033
     8.62000     14.88757    -15.14695     21.99037    -16.72546
     8.63000     14.22768    -14.96580     20.51975    -17.19415
     8.64000     13.62619    -14.79057     19.04216    -17.45357
     8.65000     13.06841    -14.63344     17.60435    -17.51950
     8.66000     12.53612    -14.49991     16.24119    -17.41853
     8.67000     12.01071    -14.38724     14.97451    -17.18165
     8.68000     11.47709    -14.28500     13.81452    -16.83917
     8.69000     10.92750    -14.17787     12.76407    -16.41832
     8.70000     10.36205    -14.04974     11.81983    -15.94173
     8.71000      9.78818    -13.88771     10.97587    -15.42779
     8.72000      9.21702    -13.68429     10.22410    -14.89045
     8.73000      8.66095    -13.43797      9.55637    -14.34054
     8.74000      8.13030    -13.15182      8.96423    -13.78573
     8.75000      7.63291    -12.83202      8.44013    -13.23183
     8.76000      7.17315    -12.48576      7.97687    -12.68258
     8.77000      6.75305    -12.12042      7.56839    -12.14082
     8.78000      6.37235    -11.74240      7.20910    -11.60807
     8.79000      6.02972    -11.35723      6.89445    -11.08550
     8.80000      5.72288    -10.96908      6.62040    -10.57343
     8.81000      5.44942    -10.58130      6.38372    -10.07220
     8.82000      5.20668    -10.19614      6.18167     -9.58157
    8.830000     4.992306    -9.815398     6.012178    -9.101505
    8.840000     4.804023    -9.440051     5.873580    -8.631605
    8.849999     4.639964    -9.070938     5.764802    -8.171822
    8.860001     4.498456    -8.708360     5.685143    -7.721898
    8.870000     4.378236    -8.352660     5.634395    -7.282080
    8.880000     4.278265    -8.003839     5.612709    -6.852590
    8.889999     4.197879    -7.662086     5.620620    -6.434318
    8.900001     4.136651    -7.327389     5.658983    -6.028398
    8.910000     4.094479    -7.000064     5.728835    -5.636899
    8.920000     4.071501    -6.680362     5.831338    -5.262469
    8.929999     4.068141    -6.368992     5.967431    -4.909019
    8.940001     4.085025    -6.066814     6.137592    -4.581396
    8.950000     4.122960    -5.775331     6.341225    -4.285897
    8.960000     4.182856    -5.496468     6.576163    -4.029741
    8.969999     4.265529    -5.233073     6.837683    -3.820994
    8.980000     4.371561    -4.988722     7.118153    -3.667363
    8.990000     4.500841    -4.768202     7.406292    -3.575023
    9.000000     4.652218    -4.577213     7.688058    -3.546654
    9.009999     4.822691    -4.422525     7.947768    -3.579862
    9.020000     5.006868    -4.311252     8.171081    -3.666406
    9.030001     5.196101    -4.250125     8.347759    -3.793139
    9.040000     5.378202    -4.243917     8.473964    -3.944775
    9.050001     5.537969    -4.293536     8.552296    -4.107762
    9.060000     5.658545    -4.394189     8.589444    -4.273223
    9.070001     5.724380    -4.534371     8.592514    -4.438247
    9.080000     5.724454    -4.696388     8.565461    -4.604236
    9.090001     5.655143    -4.859089     8.507108    -4.773846
    9.100000     5.521176    -5.001583     8.411748    -4.947015
    9.110001     5.334225    -5.107150     8.271773    -5.118510
    9.120000     5.110107    -5.165370     8.081614    -5.277273
    9.130001     4.865193    -5.172565     7.840933    -5.408677
    9.140000     4.614105    -5.130491     7.556201    -5.497900
    9.150001     4.368052    -5.044406     7.239362    -5.533633
    9.160000     4.134861    -4.921292     6.905593    -5.510063
    9.170001     3.919104    -4.768363     6.569839    -5.427101
    9.180000     3.723103    -4.592348     6.245050    -5.289181
    9.190001     3.547363    -4.398929     5.940638    -5.103372
    9.200000     3.391452    -4.192831     5.662857    -4.877850
    9.210001     3.254215    -3.977643     5.414872    -4.620465
    9.219999     3.134300    -3.756219     5.197927    -4.338329
    9.230000     3.030182    -3.530549     5.011656    -4.037196
    9.240000     2.940439    -3.302195     4.855022    -3.721801
    9.250001     2.863686    -3.072121     4.726465    -3.395571
    9.259999     2.798734    -2.841108     4.624400    -3.061204
    9.270000     2.744487    -2.609511     4.547261    -2.720429
    9.280000     2.700039    -2.377654     4.493720    -2.374589
    9.290000     2.664588    -2.145555     4.462662    -2.024349
    9.299999     2.637492    -1.913266     4.453292    -1.670251
    9.310000     2.618203    -1.680618     4.465102    -1.312355
    9.320000     2.606297    -1.447519     4.497905    -0.950770
    9.330000     2.601441    -1.213683     4.551835    -0.585259
    9.339999     2.603393    -0.978935     4.627337    -0.215752
    9.350000     2.612000    -0.742925     4.725247     0.158069
    9.360000     2.627177    -0.505423     4.846679     0.536248
    9.370000     2.648929    -0.266034     4.993222     0.918972
     9.38000      2.67732     -0.02450      5.16677      1.30603
    9.390000     2.712500     0.219616     5.369751     1.697226
    9.400001     2.754688     0.466632     5.605009     2.091826
    9.410000     2.804171     0.716883     5.875825     2.488628
    9.420001     2.861344     0.970835     6.186155     2.885990
    9.430000     2.926653     1.228793     6.540254     3.281152
    9.440001     3.000682     1.491247     6.943037     3.670485
    9.450000     3.084077     1.758499     7.399474     4.048650
    9.460001     3.177651     2.031039     7.914875     4.408710
    9.470000     3.282293     2.309161     8.493819     4.741229
    9.480000     3.399111     2.593323     9.140163     5.034355
    9.490000     3.529312     2.883775     9.855268     5.273138
     9.50000      3.67438      3.18089     10.63746      5.44000
     9.51000      3.83593      3.48480     11.47952      5.51514
     9.52000      4.01596      3.79571     12.36800      5.47828
     9.53000      4.21662      4.11347     13.28109      5.31115
     9.54000      4.44053      4.43796     14.18955      5.00102
     9.55000      4.69055      4.76853     15.05753      4.54476
     9.56000      4.97012      5.10435     15.84751      3.95160
     9.57000      5.28293      5.44387     16.52501      3.24485
     9.58000      5.63333      5.78503     17.06575      2.45931
     9.59000      6.02590      6.12458     17.45978      1.63707
     9.60000      6.46582      6.45826     17.71438      0.81886
     9.61000      6.95815      6.77999     17.85098      0.03719
     9.62000      7.50816      7.08186     17.89904     -0.69042
     9.63000      8.12005      7.35331     17.88707     -1.36156
     9.64000      8.79690      7.58114     17.83518     -1.98596
     9.65000      9.53858      7.74894     17.75048     -2.57713
     9.66000     10.34108      7.83773     17.62839     -3.14476
     9.67000     11.19361      7.82672     17.45808     -3.68766
     9.68000     12.07779      7.69565     17.23047     -4.19283
     9.69000     12.96553      7.42833     16.94618     -4.63817
     9.70000     13.82071      7.01714     16.61908     -5.00044
     9.71000     14.60142      6.46823     16.27549     -5.26240
     9.72000     15.26726      5.80421     15.94897     -5.41859
     9.73000     15.78652      5.06470     15.67457     -5.47669
     9.74000     16.14489      4.30063     15.48320     -5.45616
     9.75000     16.34933      3.56639     15.39877     -5.38546
     9.76000     16.42803      2.90930     15.43653     -5.29922
     9.77000     16.42482      2.36100     15.60248     -5.23605
     9.78000     16.39091      1.93376     15.89250     -5.23704
     9.79000     16.37633      1.61988     16.29134     -5.34406
     9.80000     16.42346      1.39537     16.77046     -5.59711
     9.81000     16.56293      1.22416     17.28704     -6.03020
     9.82000     16.81147      1.06300     17.78353     -6.66469
     9.83000     17.17128      0.86530     18.19191     -7.50232
     9.84000     17.62922      0.58539     18.44154     -8.51811
     9.85000     18.15738      0.18256     18.47207     -9.65971
     9.86000     18.71389     -0.37343     18.24643    -10.85181
     9.87000     19.24720     -1.09757     17.75979    -12.01059
     9.88000     19.70198     -1.98503     17.04037    -13.05835
     9.89000     20.02833     -3.01177     16.14024    -13.93849
     9.90000     20.18925     -4.13784     15.12346    -14.62035
     9.91000     20.16532     -5.31683     14.05197    -15.09910
     9.92000     19.95328     -6.50290     12.97845    -15.38844
     9.93000     19.56087     -7.65732     11.94111    -15.51346
     9.94000     19.00160     -8.74741     10.96528    -15.50340
     9.95000     18.29163     -9.74547     10.06437    -15.38719
     9.96000     17.45134    -10.62546      9.24396    -15.19072
     9.97000     16.50638    -11.36514      8.50344    -14.93571
     9.98000     15.48914    -11.94810      7.83929    -14.63976
     9.99000     14.43515    -12.36793      7.24564    -14.31647
    10.00000     13.37998    -12.62873      6.71625    -13.97634
# 
# 04/09/2018 at 16:10 YAMBO @ narro [start]
# 04/09/2018 at 16:10               [end]
#  
# Timing   [Min/Max/Average]: 11s/11s/11s
#
# .-Input file : yambo.in
# | optics                         # [R OPT] Optics
# | bse                            # [R BSE] Bethe Salpeter Equation.
# | bsk                            # [R BSK] Bethe Salpeter Equation kernel
# | bss                            # [R BSS] Bethe Salpeter Equation solver
# | em1s                           # [R Xs] Static Inverse Dielectric Matrix
# | BoseTemp= 0.000000     eV      # Bosonic Temperature
# | FFTGvecs=  3473        RL      # [FFT] Plane-waves
# | Chimod= "hartree"              # [X] IP/Hartree/ALDA/LRC/BSfxc
# | BSEmod= "resonant"             # [BSE] resonant/retarded/coupling
# | Lkind= "full"                  # [BSE] Lbar (default) / full
# | BSKmod= "SEX"                  # [BSE] IP/Hartree/HF/ALDA/SEX/BSfxc
# | BSSmod= "d"                    # [BSS] (h)aydock/(d)iagonalization/(i)nversion/(t)ddft`
# | BSENGexx=  51          RL      # [BSK] Exchange components
# | BSENGBlk=  51          RL      # [BSK] Screened interaction block size
# | #WehCpl                        # [BSK] eh interaction included also in coupling
# | % BEnRange
# | -10.00000 | 10.00000 | eV      # [BSS] Energy range
# | %
# | % BDmRange
# |   0.10000 |  0.10000 | eV      # [BSS] Damping range
# | %
# | BEnSteps= 2001                 # [BSS] Energy steps
# | % BLongDir
# | 0.5774E-5 |0.5774E-5 |0.5774E-5 |        # [BSS] [cc] Electric Field
# | %
# | % BSEQptR
# |   1 |  4 |                     # [BSK] Transferred momenta range
# | %
# | % BSEBands
# |   3 | 10 |                     # [BSK] Bands range
# | %
# | % BndsRnXs
# |    1 |  60 |                   # [Xs] Polarization function bands
# | %
# | NGsBlkXs=  51          RL      # [Xs] Response block size
# | % DmRngeXs
# | 0.1000E-2 |0.1000E-2 | eV      # [Xs] Damping range
# | %
# | % LongDrXs
# | 0.1000E-4 | 0.000    | 0.000    |        # [Xs] [cc] Electric Field
# | %
