#                                                           
#  __  __   ________   ___ __ __    _______   ______        
# /_/\/_/\ /_______/\ /__//_//_/\ /_______/\ /_____/\       
# \ \ \ \ \\::: _  \ \\::\| \| \ \\::: _  \ \\:::_ \ \      
#  \:\_\ \ \\::(_)  \ \\:.      \ \\::(_)  \/_\:\ \ \ \     
#   \::::_\/ \:: __  \ \\:.\-/\  \ \\::  _  \ \\:\ \ \ \    
#     \::\ \  \:.\ \  \ \\. \  \  \ \\::(_)  \ \\:\_\ \ \   
#      \__\/   \__\/\__\/ \__\/ \__\/ \_______\/ \_____\/   
#                                                           
#                                                           
#       Version 4.4.0 Revision 16260 Hash 6a63c5b87         
#                  MPI+SLK+OpenMP Build                     
#                http://www.yambo-code.org                  
#
#
# Atom 1 with Z 5 [cc]: 2.358186  1.361500  0.000000
# Atom 2 with Z 5 [cc]:-2.358186 -1.361500  6.087918
# Atom 1 with Z 7 [cc]:-2.358186 -1.361500  0.000000
# Atom 2 with Z 7 [cc]: 2.358186  1.361500  6.087918
#
#    Maximum Residual Value = .55572E+10
#   
#    E [ev]       Strength     Index
#
    3.944965     1.000000     8.000000
    3.249972     0.443547     7.000000
     7.15367      0.39268     37.00000
     8.26211      0.16908     41.00000
     8.78073      0.08483     54.00000
     5.60405      0.07021     25.00000
    8.380       0.3259E-1     44.00   
    8.640       0.3146E-1     53.00   
    12.07       0.1446E-1     73.00   
    10.93       0.1184E-1     66.00   
    9.727       0.1019E-1     56.00   
    9.863       0.1002E-1     58.00   
    11.03       0.5355E-2     70.00   
    5.543       0.3642E-2     21.00   
    13.10       0.3540E-2     76.00   
    6.401       0.3436E-2     32.00   
    5.542       0.3025E-2     20.00   
    16.49       0.2738E-2     94.00   
    13.02       0.2672E-2     75.00   
    16.48       0.1605E-2     93.00   
    5.496       0.5601E-3     18.00   
    8.354       0.4357E-3     43.00   
    5.481       0.3839E-3     15.00   
    7.360       0.2744E-3     39.00   
    8.388       0.2172E-3     46.00   
    8.424       0.1581E-3     48.00   
    12.34       0.1112E-3     74.00   
    5.483       0.9398E-4     16.00   
    9.734       0.7989E-4     57.00   
    8.389       0.6022E-4     47.00   
    5.498       0.5948E-4     19.00   
    5.548       0.5674E-4     22.00   
    9.722       0.2908E-4     55.00   
    5.493       0.2135E-4     17.00   
    2.953       0.2065E-4     6.000   
    13.22       0.1652E-4     80.00   
    5.611       0.1579E-4     26.00   
    13.21       0.1248E-4     79.00   
    7.052       0.1112E-4     36.00   
    5.048       0.8501E-5     10.00   
    8.483       0.8265E-5     51.00   
    5.570       0.8128E-5     24.00   
    8.446       0.6507E-5     49.00   
    7.049       0.6483E-5     35.00   
    7.242       0.5657E-5     38.00   
    7.015       0.5062E-5     34.00   
    5.688       0.4767E-5     28.00   
    7.012       0.3801E-5     33.00   
    9.899       0.3164E-5     60.00   
    8.460       0.2675E-5     50.00   
    8.387       0.2357E-5     45.00   
    8.274       0.1711E-5     42.00   
    8.207       0.1562E-5     40.00   
    5.149       0.1477E-5     11.00   
    2.512       0.1372E-5     1.000   
    5.564       0.1353E-5     23.00   
    8.571       0.8723E-6     52.00   
    2.678       0.7991E-6     2.000   
    5.154       0.7333E-6     12.00   
    9.893       0.5694E-6     59.00   
    11.01       0.4597E-6     69.00   
    10.61       0.3150E-6     63.00   
    15.85       0.1568E-6     92.00   
    5.165       0.1286E-6     14.00   
    5.830       0.1068E-6     30.00   
    13.24       0.8436E-7     81.00   
    10.98       0.7539E-7     67.00   
    13.28       0.6861E-7     83.00   
    15.84       0.6677E-7     91.00   
    9.952       0.3710E-7     61.00   
    14.71       0.3122E-7     88.00   
    13.30       0.2683E-7     84.00   
    10.63       0.2490E-7     64.00   
    2.692       0.2346E-7     3.000   
    14.76       0.2144E-7     89.00   
    4.505       0.1695E-7     9.000   
    5.735       0.1550E-7     29.00   
    5.162       0.9053E-8     13.00   
    13.27       0.8107E-8     82.00   
    5.650       0.7756E-8     27.00   
    14.33       0.7342E-8     85.00   
    19.23       0.6381E-8     96.00   
    11.65       0.6223E-8     71.00   
    19.15       0.5997E-8     95.00   
    9.958       0.5621E-8     62.00   
    11.00       0.3673E-8     68.00   
    2.736       0.3042E-8     4.000   
    14.77       0.2769E-8     90.00   
    6.396       0.2619E-8     31.00   
    10.85       0.2304E-8     65.00   
    2.788       0.2019E-8     5.000   
    11.7        0.779E-09     72.0    
    13.2        0.595E-09     78.0    
    13.2        0.330E-09     77.0    
    14.7        0.330E-09     87.0    
    14.4        0.503E-11     86.0    
# 
# 01/16/2019 at 14:23 YPP @ narro [start]
# 01/16/2019 at 14:23             [end]
#
# .-Input file : yambo.in
# | BoseTemp= 0.000000     eV      # Bosonic Temperature
# | excitons                       # [R] Excitons
# | States= "1 - 1"                # Index of the BS state(s)
# | Qpts= 2                        # Index q of the BS state(s)
