#                                                                     
#   __   __     _        __  __       ____      U  ___  u             
#   \ \ / / U  /"\  U u |" \/ "| u U | __") u    \/"_ \/              
#    \ V /   \/ _ \/   \| |\/| |/   \|  _ \/     | | | |              
#   U_|"|_u  / ___ \    | |  | |     | |_) | .-,_| |_| |              
#     |_|   /_/   \_\   |_|  |_|     |____/   \_)-\___/               
# .-,//|(_   \\    >>  <<,-,,-.     _|| \\_        \\                 
#  \_) (__) (__)  (__)  (./  \.)   (__) (__)      (__)                
#                                                                     
#                                                                     
# Version 5.2.0 Revision 22368 Hash (prev commit) b42959ab6a          
#                    Branch is develop                                
#         MPI+OpenMP+SLK+SLEPC+HDF5_MPI_IO Build                      
#                http://www.yambo-code.org                            
#
# Dichroism @ Q(1):  0.999999975E-5   0.00000000      0.00000000    [q->0 direction]
#
# [GEN] GF Energies                               : Perdew, Burke & Ernzerhof(X)+Perdew, Burke & Ernzerhof(C)
# [GEN] Green`s Function                          : Retarded
#
# [GEN] Gauge                                     : Length
# [GEN] [r,Vnl] included                          : yes
#
# DIP band range                                  :   1  20
# DIP band range limits                           :  20   1
# DIP e/h energy range                            :  -1.00000000     -1.00000000    [eV]
# RL vectors in the sum                           :  2637
# [r,Vnl] included                                : yes
# Bands ordered                                   : no
# Direct v evaluation                             : no
# Approach used                                   : G-space v
# Dipoles computed                                : R V P
# Wavefunctions                                   : Perdew, Burke & Ernzerhof(X)+Perdew, Burke & Ernzerhof(C)
#
#
#    E[1] [eV]          Im(CD)             Re(CD)
#
        0.000000           0.357270E-7        0.512806E-5
        0.010000           0.358149E-7        0.512807E-5
        0.020000           0.359027E-7        0.512808E-5
        0.030000           0.359903E-7        0.512810E-5
        0.040000           0.360778E-7        0.512814E-5
        0.050000           0.361651E-7        0.512818E-5
        0.060000           0.362523E-7        0.512823E-5
        0.070000           0.363393E-7        0.512829E-5
        0.080000           0.364262E-7        0.512835E-5
        0.090000           0.365129E-7        0.512843E-5
        0.100000           0.365995E-7        0.512851E-5
        0.110000           0.366859E-7        0.512861E-5
        0.120000           0.367722E-7        0.512871E-5
        0.130000           0.368583E-7        0.512883E-5
        0.140000           0.369442E-7        0.512894E-5
        0.150000           0.370300E-7        0.512907E-5
        0.160000           0.371156E-7        0.512921E-5
        0.170000           0.372011E-7        0.512936E-5
        0.180000           0.372865E-7        0.512951E-5
        0.190000           0.373716E-7        0.512968E-5
        0.200000           0.374566E-7        0.512985E-5
        0.210000           0.375415E-7        0.513003E-5
        0.220000           0.376262E-7        0.513022E-5
        0.230000           0.377107E-7        0.513042E-5
        0.240000           0.377951E-7        0.513063E-5
        0.250000           0.378793E-7        0.513085E-5
        0.260000           0.379633E-7        0.513107E-5
        0.270000           0.380472E-7        0.513131E-5
        0.280000           0.381309E-7        0.513155E-5
        0.290000           0.382144E-7        0.513180E-5
        0.300000           0.382978E-7        0.513206E-5
        0.310000           0.383810E-7        0.513233E-5
        0.320000           0.384641E-7        0.513261E-5
        0.330000           0.385470E-7        0.513290E-5
        0.340000           0.386297E-7        0.513319E-5
        0.350000           0.387122E-7        0.513350E-5
        0.360000           0.387946E-7        0.513382E-5
        0.370000           0.388768E-7        0.513413E-5
        0.380000           0.389588E-7        0.513447E-5
        0.390000           0.390407E-7        0.513481E-5
        0.400000           0.391224E-7        0.513515E-5
        0.410000           0.392039E-7        0.513551E-5
        0.420000           0.392852E-7        0.513588E-5
        0.430000           0.393664E-7        0.513626E-5
        0.440000           0.394474E-7        0.513664E-5
        0.450000           0.395282E-7        0.513703E-5
        0.460000           0.396088E-7        0.513743E-5
        0.470000           0.396892E-7        0.513784E-5
        0.480000           0.397695E-7        0.513826E-5
        0.490000           0.398496E-7        0.513869E-5
        0.500000           0.399295E-7        0.513913E-5
        0.510000           0.400092E-7        0.513957E-5
        0.520000           0.400887E-7        0.514002E-5
        0.530000           0.401681E-7        0.514049E-5
        0.540000           0.402472E-7        0.514096E-5
        0.550000           0.403262E-7        0.514144E-5
        0.560000           0.404050E-7        0.514192E-5
        0.570000           0.404836E-7        0.514242E-5
        0.580000           0.405620E-7        0.514293E-5
        0.590000           0.406402E-7        0.514345E-5
        0.600000           0.407182E-7        0.514397E-5
        0.610000           0.407960E-7        0.514450E-5
        0.620000           0.408736E-7        0.514504E-5
        0.630000           0.409510E-7        0.514559E-5
        0.640000           0.410282E-7        0.514615E-5
        0.650000           0.411053E-7        0.514672E-5
        0.660000           0.411821E-7        0.514729E-5
        0.670000           0.412587E-7        0.514788E-5
        0.680000           0.413351E-7        0.514847E-5
        0.690000           0.414113E-7        0.514907E-5
        0.700000           0.414873E-7        0.514968E-5
        0.710000           0.415631E-7        0.515030E-5
        0.720000           0.416387E-7        0.515093E-5
        0.730000           0.417140E-7        0.515156E-5
        0.740000           0.417892E-7        0.515221E-5
        0.750000           0.418641E-7        0.515286E-5
        0.760000           0.419388E-7        0.515352E-5
        0.770000           0.420133E-7        0.515419E-5
        0.780000           0.420876E-7        0.515488E-5
        0.790000           0.421617E-7        0.515556E-5
        0.800000           0.422355E-7        0.515626E-5
        0.810000           0.423091E-7        0.515697E-5
        0.820000           0.423825E-7        0.515768E-5
        0.830000           0.424556E-7        0.515840E-5
        0.840000           0.425285E-7        0.515913E-5
        0.850000           0.426012E-7        0.515987E-5
        0.860000           0.426737E-7        0.516062E-5
        0.870000           0.427459E-7        0.516138E-5
        0.880000           0.428179E-7        0.516214E-5
        0.890000           0.428896E-7        0.516291E-5
        0.900000           0.429611E-7        0.516370E-5
        0.910000           0.430324E-7        0.516449E-5
        0.920000           0.431033E-7        0.516529E-5
        0.930000           0.431741E-7        0.516610E-5
        0.940000           0.432446E-7        0.516691E-5
        0.950000           0.433149E-7        0.516774E-5
        0.960000           0.433849E-7        0.516857E-5
        0.970000           0.434546E-7        0.516941E-5
        0.980000           0.435241E-7        0.517027E-5
        0.990000           0.435933E-7        0.517112E-5
        1.000000           0.436622E-7        0.517199E-5
        1.010000           0.437309E-7        0.517287E-5
        1.020000           0.437993E-7        0.517375E-5
        1.030000           0.438674E-7        0.517465E-5
        1.040000           0.439353E-7        0.517555E-5
        1.050000           0.440028E-7        0.517646E-5
        1.060000           0.440702E-7        0.517737E-5
        1.070000           0.441371E-7        0.517830E-5
        1.080000           0.442039E-7        0.517924E-5
        1.090000           0.442703E-7        0.518018E-5
        1.100000           0.443364E-7        0.518113E-5
        1.110000           0.444023E-7        0.518209E-5
        1.120000           0.444678E-7        0.518306E-5
        1.130000           0.445331E-7        0.518404E-5
        1.140000           0.445980E-7        0.518502E-5
        1.150000           0.446626E-7        0.518601E-5
        1.160000           0.447270E-7        0.518701E-5
        1.170000           0.447909E-7        0.518803E-5
        1.180000           0.448546E-7        0.518904E-5
        1.190000           0.449180E-7        0.519007E-5
        1.200000           0.449811E-7        0.519110E-5
        1.210000           0.450438E-7        0.519215E-5
        1.220000           0.451061E-7        0.519320E-5
        1.230000           0.451682E-7        0.519426E-5
        1.240000           0.452299E-7        0.519533E-5
        1.250000           0.452912E-7        0.519640E-5
        1.260000           0.453523E-7        0.519748E-5
        1.270000           0.454129E-7        0.519858E-5
        1.280000           0.454733E-7        0.519968E-5
        1.290000           0.455332E-7        0.520078E-5
        1.300000           0.455928E-7        0.520190E-5
        1.310000           0.456520E-7        0.520303E-5
        1.320000           0.457109E-7        0.520416E-5
        1.330000           0.457693E-7        0.520530E-5
        1.340000           0.458274E-7        0.520645E-5
        1.350000           0.458851E-7        0.520760E-5
        1.360000           0.459425E-7        0.520877E-5
        1.370000           0.459994E-7        0.520994E-5
        1.380000           0.460559E-7        0.521112E-5
        1.390000           0.461120E-7        0.521231E-5
        1.400000           0.461677E-7        0.521351E-5
        1.410000           0.462230E-7        0.521471E-5
        1.420000           0.462779E-7        0.521592E-5
        1.430000           0.463324E-7        0.521714E-5
        1.440000           0.463864E-7        0.521837E-5
        1.450000           0.464400E-7        0.521960E-5
        1.460000           0.464932E-7        0.522084E-5
        1.470000           0.465459E-7        0.522210E-5
        1.480000           0.465981E-7        0.522335E-5
        1.490000           0.466500E-7        0.522462E-5
        1.500000           0.467013E-7        0.522589E-5
        1.510000           0.467522E-7        0.522717E-5
        1.520000           0.468026E-7        0.522846E-5
        1.530000           0.468525E-7        0.522976E-5
        1.540000           0.469019E-7        0.523106E-5
        1.550000           0.469509E-7        0.523238E-5
        1.560000           0.469993E-7        0.523369E-5
        1.570000           0.470472E-7        0.523502E-5
        1.580000           0.470947E-7        0.523636E-5
        1.590000           0.471416E-7        0.523769E-5
        1.600000           0.471880E-7        0.523904E-5
        1.610000           0.472338E-7        0.524040E-5
        1.620000           0.472791E-7        0.524176E-5
        1.630000           0.473239E-7        0.524314E-5
        1.640000           0.473681E-7        0.524451E-5
        1.650000           0.474117E-7        0.524590E-5
        1.660000           0.474548E-7        0.524729E-5
        1.670000           0.474973E-7        0.524869E-5
        1.680000           0.475393E-7        0.525010E-5
        1.690000           0.475806E-7        0.525151E-5
        1.700000           0.476213E-7        0.525293E-5
        1.710000           0.476614E-7        0.525436E-5
        1.720000           0.477009E-7        0.525579E-5
        1.730000           0.477398E-7        0.525724E-5
        1.740000           0.477780E-7        0.525868E-5
        1.750000           0.478156E-7        0.526014E-5
        1.760000           0.478525E-7        0.526160E-5
        1.770000           0.478888E-7        0.526307E-5
        1.780000           0.479244E-7        0.526454E-5
        1.790000           0.479594E-7        0.526603E-5
        1.800000           0.479936E-7        0.526752E-5
        1.810000           0.480271E-7        0.526901E-5
        1.820000           0.480599E-7        0.527051E-5
        1.830000           0.480920E-7        0.527202E-5
        1.840000           0.481234E-7        0.527354E-5
        1.850000           0.481540E-7        0.527506E-5
        1.860000           0.481839E-7        0.527659E-5
        1.870000           0.482130E-7        0.527812E-5
        1.880000           0.482413E-7        0.527966E-5
        1.890000           0.482689E-7        0.528121E-5
        1.900000           0.482956E-7        0.528276E-5
        1.910000           0.483215E-7        0.528432E-5
        1.920000           0.483467E-7        0.528588E-5
        1.930000           0.483709E-7        0.528745E-5
        1.940000           0.483944E-7        0.528903E-5
        1.950000           0.484170E-7        0.529061E-5
        1.960000           0.484387E-7        0.529220E-5
        1.970000           0.484595E-7        0.529379E-5
        1.980000           0.484795E-7        0.529539E-5
        1.990000           0.484985E-7        0.529700E-5
        2.000000           0.485166E-7        0.529861E-5
        2.010000           0.485337E-7        0.530023E-5
        2.020000           0.485499E-7        0.530185E-5
        2.030000           0.485651E-7        0.530347E-5
        2.040000           0.485794E-7        0.530511E-5
        2.050000           0.485926E-7        0.530674E-5
        2.060000           0.486048E-7        0.530839E-5
        2.070000           0.486161E-7        0.531003E-5
        2.080000           0.486262E-7        0.531169E-5
        2.090000           0.486353E-7        0.531334E-5
        2.100000           0.486433E-7        0.531501E-5
        2.110000           0.486503E-7        0.531667E-5
        2.120000           0.486561E-7        0.531834E-5
        2.130000           0.486608E-7        0.532002E-5
        2.140000           0.486643E-7        0.532170E-5
        2.150000           0.486666E-7        0.532338E-5
        2.160000           0.486678E-7        0.532507E-5
        2.170000           0.486678E-7        0.532677E-5
        2.180000           0.486665E-7        0.532846E-5
        2.190000           0.486640E-7        0.533016E-5
        2.200000           0.486603E-7        0.533187E-5
        2.210000           0.486552E-7        0.533358E-5
        2.220000           0.486489E-7        0.533529E-5
        2.230000           0.486413E-7        0.533700E-5
        2.240000           0.486323E-7        0.533872E-5
        2.250000           0.486219E-7        0.534045E-5
        2.260000           0.486101E-7        0.534217E-5
        2.270000           0.485969E-7        0.534390E-5
        2.280000           0.485824E-7        0.534564E-5
        2.290000           0.485663E-7        0.534737E-5
        2.300000           0.485487E-7        0.534911E-5
        2.310000           0.485297E-7        0.535085E-5
        2.320000           0.485091E-7        0.535259E-5
        2.330000           0.484870E-7        0.535434E-5
        2.340000           0.484632E-7        0.535609E-5
        2.350000           0.484379E-7        0.535784E-5
        2.360000           0.484109E-7        0.535959E-5
        2.370000           0.483824E-7        0.536135E-5
        2.380000           0.483520E-7        0.536310E-5
        2.390000           0.483200E-7        0.536486E-5
        2.400000           0.482861E-7        0.536662E-5
        2.410000           0.482506E-7        0.536838E-5
        2.420000           0.482132E-7        0.537014E-5
        2.430000           0.481740E-7        0.537191E-5
        2.440000           0.481329E-7        0.537367E-5
        2.450000           0.480899E-7        0.537544E-5
        2.460000           0.480450E-7        0.537720E-5
        2.470000           0.479980E-7        0.537897E-5
        2.480000           0.479492E-7        0.538073E-5
        2.490000           0.478983E-7        0.538250E-5
        2.500000           0.478452E-7        0.538426E-5
        2.510000           0.477901E-7        0.538603E-5
        2.520000           0.477328E-7        0.538780E-5
        2.530000           0.476734E-7        0.538956E-5
        2.540000           0.476117E-7        0.539133E-5
        2.550000           0.475478E-7        0.539309E-5
        2.560000           0.474815E-7        0.539485E-5
        2.570000           0.474130E-7        0.539661E-5
        2.580000           0.473420E-7        0.539838E-5
        2.590000           0.472686E-7        0.540013E-5
        2.600000           0.471927E-7        0.540189E-5
        2.610000           0.471144E-7        0.540364E-5
        2.620000           0.470334E-7        0.540539E-5
        2.630000           0.469499E-7        0.540714E-5
        2.640000           0.468637E-7        0.540889E-5
        2.650000           0.467749E-7        0.541063E-5
        2.660000           0.466833E-7        0.541237E-5
        2.670000           0.465889E-7        0.541410E-5
        2.680000           0.464916E-7        0.541583E-5
        2.690000           0.463914E-7        0.541756E-5
        2.700000           0.462884E-7        0.541929E-5
        2.710000           0.461822E-7        0.542101E-5
        2.720000           0.460731E-7        0.542272E-5
        2.730000           0.459608E-7        0.542443E-5
        2.740000           0.458453E-7        0.542613E-5
        2.750000           0.457266E-7        0.542783E-5
        2.760000           0.456047E-7        0.542952E-5
        2.770000           0.454793E-7        0.543121E-5
        2.780000           0.453505E-7        0.543289E-5
        2.790000           0.452183E-7        0.543457E-5
        2.800000           0.450825E-7        0.543623E-5
        2.810000           0.449431E-7        0.543789E-5
        2.820000           0.448000E-7        0.543954E-5
        2.830000           0.446531E-7        0.544118E-5
        2.840000           0.445026E-7        0.544282E-5
        2.850000           0.443480E-7        0.544444E-5
        2.860000           0.441894E-7        0.544605E-5
        2.870000           0.440269E-7        0.544766E-5
        2.880000           0.438602E-7        0.544926E-5
        2.890000           0.436892E-7        0.545084E-5
        2.900000           0.435140E-7        0.545242E-5
        2.910000           0.433344E-7        0.545398E-5
        2.920000           0.431505E-7        0.545554E-5
        2.930000           0.429619E-7        0.545708E-5
        2.940000           0.427687E-7        0.545861E-5
        2.950000           0.425708E-7        0.546012E-5
        2.960000           0.423681E-7        0.546162E-5
        2.970000           0.421605E-7        0.546312E-5
        2.980000           0.419479E-7        0.546459E-5
        2.990000           0.417301E-7        0.546605E-5
        3.000000           0.415072E-7        0.546750E-5
        3.010000           0.412790E-7        0.546893E-5
        3.020000           0.410452E-7        0.547035E-5
        3.030000           0.408061E-7        0.547175E-5
        3.040000           0.405613E-7        0.547313E-5
        3.050000           0.403107E-7        0.547450E-5
        3.060000           0.400543E-7        0.547584E-5
        3.070000           0.397918E-7        0.547717E-5
        3.080000           0.395233E-7        0.547848E-5
        3.090000           0.392485E-7        0.547977E-5
        3.100000           0.389674E-7        0.548104E-5
        3.110000           0.386798E-7        0.548229E-5
        3.120000           0.383855E-7        0.548351E-5
        3.130000           0.380845E-7        0.548472E-5
        3.140000           0.377766E-7        0.548590E-5
        3.150000           0.374616E-7        0.548706E-5
        3.160000           0.371394E-7        0.548820E-5
        3.170000           0.368099E-7        0.548931E-5
        3.180000           0.364729E-7        0.549039E-5
        3.190000           0.361281E-7        0.549145E-5
        3.200000           0.357756E-7        0.549249E-5
        3.210000           0.354151E-7        0.549349E-5
        3.220000           0.350465E-7        0.549446E-5
        3.230000           0.346695E-7        0.549541E-5
        3.240000           0.342839E-7        0.549633E-5
        3.250000           0.338897E-7        0.549722E-5
        3.260000           0.334866E-7        0.549808E-5
        3.270000           0.330744E-7        0.549890E-5
        3.280000           0.326528E-7        0.549969E-5
        3.290000           0.322219E-7        0.550045E-5
        3.300000           0.317812E-7        0.550117E-5
        3.310000           0.313306E-7        0.550185E-5
        3.320000           0.308699E-7        0.550250E-5
        3.330000           0.303989E-7        0.550311E-5
        3.340000           0.299172E-7        0.550369E-5
        3.350000           0.294247E-7        0.550422E-5
        3.360000           0.289212E-7        0.550471E-5
        3.370000           0.284063E-7        0.550516E-5
        3.380000           0.278799E-7        0.550557E-5
        3.390000           0.273417E-7        0.550593E-5
        3.400000           0.267914E-7        0.550625E-5
        3.410000           0.262286E-7        0.550652E-5
        3.420000           0.256532E-7        0.550675E-5
        3.430000           0.250649E-7        0.550692E-5
        3.440000           0.244633E-7        0.550705E-5
        3.450000           0.238482E-7        0.550713E-5
        3.460000           0.232191E-7        0.550715E-5
        3.470000           0.225759E-7        0.550712E-5
        3.480000           0.219182E-7        0.550703E-5
        3.490000           0.212454E-7        0.550689E-5
        3.500000           0.205576E-7        0.550668E-5
        3.510000           0.198541E-7        0.550642E-5
        3.520000           0.191347E-7        0.550610E-5
        3.530000           0.183989E-7        0.550571E-5
        3.540000           0.176464E-7        0.550526E-5
        3.550000           0.168766E-7        0.550475E-5
        3.560000           0.160894E-7        0.550417E-5
        3.570000           0.152841E-7        0.550352E-5
        3.580000           0.144604E-7        0.550279E-5
        3.590000           0.136179E-7        0.550200E-5
        3.600000           0.127559E-7        0.550113E-5
        3.610000           0.118742E-7        0.550018E-5
        3.620000           0.109721E-7        0.549916E-5
        3.630000           0.100491E-7        0.549805E-5
        3.640000           0.910485E-8        0.549686E-5
        3.650000           0.813872E-8        0.549559E-5
        3.660000           0.715005E-8        0.549423E-5
        3.670000           0.613839E-8        0.549278E-5
        3.680000           0.510308E-8        0.549125E-5
        3.690000           0.404360E-8        0.548961E-5
        3.700000           0.295926E-8        0.548789E-5
        3.710000           0.184944E-8        0.548606E-5
        3.720000           0.71348E-09        0.548414E-5
        3.730000          -0.44935E-09        0.548211E-5
        3.740000          -0.163962E-8        0.547997E-5
        3.750000          -0.285824E-8        0.547773E-5
        3.760000          -0.410590E-8        0.547537E-5
        3.770000          -0.538322E-8        0.547291E-5
        3.780000          -0.669128E-8        0.547032E-5
        3.790000          -0.803068E-8        0.546761E-5
        3.800000          -0.940234E-8        0.546479E-5
        3.810000          -0.108071E-7        0.546183E-5
        3.820000          -0.122459E-7        0.545875E-5
        3.830000          -0.137198E-7        0.545553E-5
        3.840000          -0.152294E-7        0.545218E-5
        3.850000          -0.167760E-7        0.544869E-5
        3.860000          -0.183606E-7        0.544505E-5
        3.870000          -0.199842E-7        0.544127E-5
        3.880000          -0.216479E-7        0.543733E-5
        3.890000          -0.233528E-7        0.543325E-5
        3.900000          -0.251003E-7        0.542900E-5
        3.910000          -0.268913E-7        0.542459E-5
        3.920000          -0.287271E-7        0.542001E-5
        3.930000          -0.306091E-7        0.541526E-5
        3.940000          -0.325387E-7        0.541034E-5
        3.950000          -0.345171E-7        0.540523E-5
        3.960000          -0.365459E-7        0.539994E-5
        3.970000          -0.386264E-7        0.539446E-5
        3.980000          -0.407604E-7        0.538878E-5
        3.990000          -0.429492E-7        0.538290E-5
        4.000000          -0.451946E-7        0.537681E-5
        4.010000          -0.474983E-7        0.537051E-5
        4.020000          -0.498621E-7        0.536400E-5
        4.030000          -0.522877E-7        0.535725E-5
        4.040000          -0.547771E-7        0.535029E-5
        4.050000          -0.573323E-7        0.534308E-5
        4.060000          -0.599551E-7        0.533564E-5
        4.070000          -0.626479E-7        0.532794E-5
        4.080000          -0.654128E-7        0.531999E-5
        4.090000          -0.682520E-7        0.531177E-5
        4.100000          -0.711680E-7        0.530329E-5
        4.110000          -0.741630E-7        0.529452E-5
        4.120000          -0.772399E-7        0.528547E-5
        4.130000          -0.804010E-7        0.527613E-5
        4.140000          -0.836492E-7        0.526649E-5
        4.150000          -0.869872E-7        0.525653E-5
        4.160000          -0.904183E-7        0.524626E-5
        4.170000          -0.939452E-7        0.523566E-5
        4.180000          -0.975713E-7        0.522472E-5
        4.190000          -0.101300E-6        0.521343E-5
        4.200000          -0.105134E-6        0.520179E-5
        4.210000          -0.109078E-6        0.518977E-5
        4.220000          -0.113136E-6        0.517738E-5
        4.230000          -0.117310E-6        0.516460E-5
        4.240000          -0.121606E-6        0.515142E-5
        4.250000          -0.126027E-6        0.513782E-5
        4.260000          -0.130578E-6        0.512379E-5
        4.270000          -0.135264E-6        0.510934E-5
        4.280000          -0.140089E-6        0.509443E-5
        4.290000          -0.145058E-6        0.507906E-5
        4.300000          -0.150177E-6        0.506320E-5
        4.310000          -0.155450E-6        0.504685E-5
        4.320000          -0.160884E-6        0.503000E-5
        4.330000          -0.166485E-6        0.501261E-5
        4.340000          -0.172258E-6        0.499470E-5
        4.350000          -0.178210E-6        0.497621E-5
        4.360000          -0.184349E-6        0.495716E-5
        4.370000          -0.190680E-6        0.493752E-5
        4.380000          -0.197211E-6        0.491725E-5
        4.390000          -0.203951E-6        0.489637E-5
        4.400000          -0.210907E-6        0.487483E-5
        4.410000          -0.218087E-6        0.485261E-5
        4.420000          -0.225501E-6        0.482970E-5
        4.430000          -0.233157E-6        0.480608E-5
        4.440000          -0.241067E-6        0.478172E-5
        4.450000          -0.249238E-6        0.475659E-5
        4.460000          -0.257684E-6        0.473066E-5
        4.470000          -0.266413E-6        0.470393E-5
        4.480000          -0.275440E-6        0.467635E-5
        4.490000          -0.284775E-6        0.464790E-5
        4.500000          -0.294432E-6        0.461854E-5
        4.510000          -0.304424E-6        0.458825E-5
        4.520000          -0.314766E-6        0.455700E-5
        4.530000          -0.325474E-6        0.452475E-5
        4.540000          -0.336562E-6        0.449146E-5
        4.550000          -0.348048E-6        0.445710E-5
        4.560000          -0.359949E-6        0.442163E-5
        4.570000          -0.372284E-6        0.438502E-5
        4.580000          -0.385072E-6        0.434722E-5
        4.590000          -0.398335E-6        0.430817E-5
        4.600000          -0.412094E-6        0.426786E-5
        4.610000          -0.426371E-6        0.422622E-5
        4.620000          -0.441193E-6        0.418321E-5
        4.630000          -0.456583E-6        0.413876E-5
        4.640000          -0.472571E-6        0.409284E-5
        4.650000          -0.489183E-6        0.404539E-5
        4.660000          -0.506452E-6        0.399633E-5
        4.670000          -0.524409E-6        0.394562E-5
        4.680000          -0.543087E-6        0.389319E-5
        4.690000          -0.562525E-6        0.383898E-5
        4.700000          -0.582761E-6        0.378290E-5
        4.710000          -0.603834E-6        0.372489E-5
        4.720000          -0.625790E-6        0.366486E-5
        4.730000          -0.648674E-6        0.360275E-5
        4.740000          -0.672536E-6        0.353845E-5
        4.750000          -0.697428E-6        0.347189E-5
        4.760000          -0.723407E-6        0.340296E-5
        4.770000          -0.750531E-6        0.333156E-5
        4.780000          -0.778865E-6        0.325760E-5
        4.790000          -0.808476E-6        0.318096E-5
        4.800000          -0.839438E-6        0.310153E-5
        4.810000          -0.871829E-6        0.301918E-5
        4.820000          -0.905731E-6        0.293377E-5
        4.830000          -0.941232E-6        0.284519E-5
        4.840000          -0.978431E-6        0.275329E-5
        4.850000          -0.101743E-5        0.265790E-5
        4.860000          -0.105834E-5        0.255888E-5
        4.870000          -0.110127E-5        0.245605E-5
        4.880000          -0.114636E-5        0.234925E-5
        4.890000          -0.119375E-5        0.223828E-5
        4.900000          -0.124358E-5        0.212292E-5
        4.910000          -0.129601E-5        0.200300E-5
        4.920000          -0.135121E-5        0.187825E-5
        4.930000          -0.140938E-5        0.174847E-5
        4.940000          -0.147071E-5        0.161340E-5
        4.950000          -0.153542E-5        0.147276E-5
        4.960000          -0.160377E-5        0.132628E-5
        4.970000          -0.167599E-5        0.117366E-5
        4.980000          -0.175238E-5        0.101457E-5
        4.990000          -0.183325E-5        0.848674E-6
        5.000000          -0.191892E-5        0.675611E-6
        5.010000          -0.200977E-5        0.495005E-6
        5.020000          -0.210619E-5        0.306428E-6
        5.030000          -0.220864E-5        0.109456E-6
        5.040000          -0.231758E-5       -0.963707E-7
        5.050000          -0.243355E-5       -0.311553E-6
        5.060000          -0.255713E-5       -0.536619E-6
        5.070000          -0.268897E-5       -0.772132E-6
        5.080000          -0.282976E-5       -0.101869E-5
        5.090000          -0.298031E-5       -0.127692E-5
        5.100000          -0.314148E-5       -0.154753E-5
        5.110000          -0.331422E-5       -0.183123E-5
        5.120000          -0.349962E-5       -0.212880E-5
        5.130000          -0.369888E-5       -0.244106E-5
        5.140000          -0.391331E-5       -0.276888E-5
        5.150000          -0.414443E-5       -0.311321E-5
        5.160000          -0.439389E-5       -0.347501E-5
        5.170000          -0.466358E-5       -0.385534E-5
        5.180000          -0.495561E-5       -0.425529E-5
        5.190000          -0.527236E-5       -0.467602E-5
        5.200000          -0.561653E-5       -0.511872E-5
        5.210000          -0.599117E-5       -0.558465E-5
        5.220000          -0.639976E-5       -0.607510E-5
        5.230000          -0.684621E-5       -0.659132E-5
        5.240000          -0.733503E-5       -0.713463E-5
        5.250000          -0.787136E-5       -0.770627E-5
        5.260000          -0.846108E-5       -0.830742E-5
        5.270000          -0.911094E-5       -0.893907E-5
        5.280000          -0.982870E-5       -0.960201E-5
        5.290000          -0.106233E-4       -0.102967E-4
        5.300000          -0.115050E-4       -0.110229E-4
        5.310000          -0.124857E-4       -0.117799E-4
        5.320000          -0.135790E-4       -0.125659E-4
        5.330000          -0.148008E-4       -0.133774E-4
        5.340000          -0.161690E-4       -0.142092E-4
        5.350000          -0.177045E-4       -0.150535E-4
        5.360000          -0.194308E-4       -0.158986E-4
        5.370000          -0.213743E-4       -0.167281E-4
        5.380000          -0.235644E-4       -0.175192E-4
        5.390000          -0.260330E-4       -0.182405E-4
        5.400000          -0.288133E-4       -0.188497E-4
        5.410000          -0.319374E-4       -0.192903E-4
        5.420000          -0.354339E-4       -0.194883E-4
        5.430000          -0.393212E-4       -0.193493E-4
        5.440000          -0.435997E-4       -0.187557E-4
        5.450000          -0.482400E-4       -0.175674E-4
        5.460000          -0.531682E-4       -0.156265E-4
        5.470000          -0.582495E-4       -0.127713E-4
        5.480000          -0.632754E-4       -0.886013E-5
        5.490000          -0.679607E-4       -0.380745E-5
        5.500000          -0.719609E-4        0.237333E-5
        5.510000          -0.749160E-4        0.953353E-5
        5.520000          -0.765174E-4        0.173777E-4
        5.530000          -0.765801E-4        0.254925E-4
        5.540000          -0.750914E-4        0.334158E-4
        5.550000          -0.722147E-4        0.407234E-4
        5.560000          -0.682444E-4        0.471020E-4
        5.570000          -0.635362E-4        0.523832E-4
        5.580000          -0.584377E-4        0.565370E-4
        5.590000          -0.532422E-4        0.596368E-4
        5.600000          -0.481675E-4        0.618178E-4
        5.610000          -0.433569E-4        0.632396E-4
        5.620000          -0.388913E-4        0.640603E-4
        5.630000          -0.348054E-4        0.644222E-4
        5.640000          -0.311023E-4        0.644453E-4
        5.650000          -0.277653E-4        0.642272E-4
        5.660000          -0.247674E-4        0.638445E-4
        5.670000          -0.220762E-4        0.633559E-4
        5.680000          -0.196585E-4        0.628062E-4
        5.690000          -0.174818E-4        0.622286E-4
        5.700000          -0.155159E-4        0.616478E-4
        5.710000          -0.137334E-4        0.610815E-4
        5.720000          -0.121093E-4        0.605429E-4
        5.730000          -0.106217E-4        0.600412E-4
        5.740000          -0.925088E-5        0.595828E-4
        5.750000          -0.797959E-5        0.591723E-4
        5.760000          -0.679228E-5        0.588126E-4
        5.770000          -0.567524E-5        0.585060E-4
        5.780000          -0.461596E-5        0.582536E-4
        5.790000          -0.360315E-5        0.580563E-4
        5.800000          -0.262640E-5        0.579145E-4
        5.810000          -0.167599E-5        0.578285E-4
        5.820000          -0.742741E-6        0.577985E-4
        5.830000           0.182240E-6        0.578244E-4
        5.840000           0.110767E-5        0.579063E-4
        5.850000           0.204229E-5        0.580442E-4
        5.860000           0.299504E-5        0.582380E-4
        5.870000           0.397519E-5        0.584874E-4
        5.880000           0.499257E-5        0.587922E-4
        5.890000           0.605777E-5        0.591518E-4
        5.900000           0.718228E-5        0.595652E-4
        5.910000           0.837882E-5        0.600310E-4
        5.920000           0.966150E-5        0.605468E-4
        5.930000           0.110461E-4        0.611090E-4
        5.940000           0.125505E-4        0.617126E-4
        5.950000           0.141947E-4        0.623502E-4
        5.960000           0.160011E-4        0.630114E-4
        5.970000           0.179949E-4        0.636818E-4
        5.980000           0.202040E-4        0.643414E-4
        5.990000           0.226586E-4        0.649628E-4
        6.000000           0.253904E-4        0.655094E-4
        6.010000           0.284314E-4        0.659322E-4
        6.020000           0.318107E-4        0.661668E-4
        6.030000           0.355503E-4        0.661305E-4
        6.040000           0.396580E-4        0.657193E-4
        6.050000           0.441178E-4        0.648077E-4
        6.060000           0.488762E-4        0.632507E-4
        6.070000           0.538278E-4        0.608945E-4
        6.080000           0.588007E-4        0.575946E-4
        6.090000           0.635499E-4        0.532471E-4
        6.100000           0.677653E-4        0.478271E-4
        6.110000           0.711047E-4        0.414279E-4
        6.120000           0.732501E-4        0.342818E-4
        6.130000           0.739778E-4        0.267476E-4
        6.140000           0.732154E-4        0.192584E-4
        6.150000           0.710623E-4        0.122395E-4
        6.160000           0.677624E-4        0.603265E-5
        6.170000           0.636426E-4        0.848141E-6
        6.180000           0.590440E-4       -0.324149E-5
        6.190000           0.542683E-4       -0.627614E-5
        6.200000           0.495497E-4       -0.836845E-5
        6.210000           0.450496E-4       -0.966569E-5
        6.220000           0.408649E-4       -0.103211E-4
        6.230000           0.370426E-4       -0.104763E-4
        6.240000           0.335953E-4       -0.102532E-4
        6.250000           0.305131E-4       -0.975185E-5
        6.260000           0.277734E-4       -0.905117E-5
        6.270000           0.253473E-4       -0.821221E-5
        6.280000           0.232039E-4       -0.728111E-5
        6.290000           0.213126E-4       -0.629222E-5
        6.300000           0.196449E-4       -0.527063E-5
        6.310000           0.181747E-4       -0.423440E-5
        6.320000           0.168788E-4       -0.319636E-5
        6.330000           0.157367E-4       -0.216521E-5
        6.340000           0.147305E-4       -0.114674E-5
        6.350000           0.138448E-4       -0.144526E-6
        6.360000           0.130663E-4        0.839511E-6
        6.370000           0.123836E-4        0.180461E-5
        6.380000           0.117869E-4        0.275091E-5
        6.390000           0.112678E-4        0.367917E-5
        6.400000           0.108196E-4        0.459058E-5
        6.410000           0.104361E-4        0.548670E-5
        6.420000           0.101127E-4        0.636928E-5
        6.430000           0.984535E-5        0.724026E-5
        6.440000           0.963087E-5        0.810167E-5
        6.450000           0.946689E-5        0.895561E-5
        6.460000           0.935170E-5        0.980423E-5
        6.470000           0.928426E-5        0.106497E-4
        6.480000           0.926417E-5        0.114942E-4
        6.490000           0.929170E-5        0.123399E-4
        6.500000           0.936776E-5        0.131889E-4
        6.510000           0.949390E-5        0.140432E-4
        6.520000           0.967244E-5        0.149049E-4
        6.530000           0.990647E-5        0.157757E-4
        6.540000           0.101999E-4        0.166575E-4
        6.550000           0.105577E-4        0.175516E-4
        6.560000           0.109858E-4        0.184590E-4
        6.570000           0.114913E-4        0.193803E-4
        6.580000           0.120829E-4        0.203154E-4
        6.590000           0.127706E-4        0.212631E-4
        6.600000           0.135663E-4        0.222212E-4
        6.610000           0.144838E-4        0.231852E-4
        6.620000           0.155389E-4        0.241487E-4
        6.630000           0.167497E-4        0.251016E-4
        6.640000           0.181367E-4        0.260297E-4
        6.650000           0.197219E-4        0.269126E-4
        6.660000           0.215288E-4        0.277228E-4
        6.670000           0.235807E-4        0.284228E-4
        6.680000           0.258986E-4        0.289628E-4
        6.690000           0.284968E-4        0.292788E-4
        6.700000           0.313778E-4        0.292905E-4
        6.710000           0.345237E-4        0.289014E-4
        6.720000           0.378864E-4        0.280026E-4
        6.730000           0.413756E-4        0.264813E-4
        6.740000           0.448502E-4        0.242381E-4
        6.750000           0.481160E-4        0.212119E-4
        6.760000           0.509379E-4        0.174090E-4
        6.770000           0.530698E-4        0.129281E-4
        6.780000           0.543007E-4        0.796795E-5
        6.790000           0.545036E-4        0.280678E-5
        6.800000           0.536675E-4       -0.224451E-5
        6.810000           0.518993E-4       -0.690103E-5
        6.820000           0.493936E-4       -0.109514E-4
        6.830000           0.463854E-4       -0.142809E-4
        6.840000           0.431047E-4       -0.168663E-4
        6.850000           0.397458E-4       -0.187527E-4
        6.860000           0.364542E-4       -0.200261E-4
        6.870000           0.333266E-4       -0.207889E-4
        6.880000           0.304191E-4       -0.211436E-4
        6.890000           0.277570E-4       -0.211825E-4
        6.900000           0.253449E-4       -0.209841E-4
        6.910000           0.231742E-4       -0.206123E-4
        6.920000           0.212290E-4       -0.201176E-4
        6.930000           0.194899E-4       -0.195391E-4
        6.940000           0.179364E-4       -0.189062E-4
        6.950000           0.165483E-4       -0.182412E-4
        6.960000           0.153070E-4       -0.175606E-4
        6.970000           0.141953E-4       -0.168762E-4
        6.980000           0.131979E-4       -0.161967E-4
        6.990000           0.123010E-4       -0.155281E-4
        7.000000           0.114929E-4       -0.148747E-4
        7.010000           0.107629E-4       -0.142391E-4
        7.020000           0.101019E-4       -0.136232E-4
        7.030000           0.950203E-5       -0.130278E-4
        7.039999           0.895628E-5       -0.124533E-4
        7.050000           0.845859E-5       -0.118998E-4
        7.059999           0.800369E-5       -0.113670E-4
        7.070000           0.758696E-5       -0.108544E-4
        7.079999           0.720437E-5       -0.103613E-4
        7.090000           0.685237E-5       -0.988709E-5
        7.099999           0.652786E-5       -0.943098E-5
        7.110000           0.622810E-5       -0.899221E-5
        7.119999           0.595069E-5       -0.856998E-5
        7.130000           0.569347E-5       -0.816351E-5
        7.140000           0.545454E-5       -0.777202E-5
        7.150000           0.523228E-5       -0.739481E-5
        7.160000           0.502515E-5       -0.703117E-5
        7.170000           0.483183E-5       -0.668039E-5
        7.180000           0.465112E-5       -0.634183E-5
        7.190000           0.448197E-5       -0.601487E-5
        7.200000           0.432341E-5       -0.569893E-5
        7.210000           0.417459E-5       -0.539344E-5
        7.220000           0.403472E-5       -0.509788E-5
        7.230000           0.390311E-5       -0.481176E-5
        7.240000           0.377913E-5       -0.453460E-5
        7.250000           0.366220E-5       -0.426596E-5
        7.260000           0.355181E-5       -0.400542E-5
        7.270000           0.344747E-5       -0.375258E-5
        7.280000           0.334876E-5       -0.350708E-5
        7.290000           0.325528E-5       -0.326856E-5
        7.300000           0.316669E-5       -0.303670E-5
        7.310000           0.308264E-5       -0.281117E-5
        7.320000           0.300283E-5       -0.259167E-5
        7.330000           0.292700E-5       -0.237795E-5
        7.340000           0.285489E-5       -0.216972E-5
        7.350000           0.278626E-5       -0.196673E-5
        7.360000           0.272089E-5       -0.176876E-5
        7.370000           0.265860E-5       -0.157558E-5
        7.380000           0.259919E-5       -0.138698E-5
        7.390000           0.254250E-5       -0.120274E-5
        7.400000           0.248837E-5       -0.102270E-5
        7.410000           0.243665E-5       -0.846664E-6
        7.420000           0.238722E-5       -0.674455E-6
        7.430000           0.233993E-5       -0.505915E-6
        7.440000           0.229468E-5       -0.340896E-6
        7.450000           0.225136E-5       -0.179242E-6
        7.460000           0.220987E-5       -0.208176E-7
        7.470000           0.217011E-5        0.134513E-6
        7.480000           0.213199E-5        0.286873E-6
        7.489999           0.209543E-5        0.436384E-6
        7.500000           0.206036E-5        0.583181E-6
        7.510000           0.202670E-5        0.727338E-6
        7.520000           0.199438E-5        0.868983E-6
        7.530000           0.196335E-5        0.100821E-5
        7.540000           0.193354E-5        0.114512E-5
        7.550000           0.190489E-5        0.127980E-5
        7.560000           0.187736E-5        0.141234E-5
        7.570000           0.185089E-5        0.154281E-5
        7.580000           0.182544E-5        0.167132E-5
        7.590000           0.180096E-5        0.179793E-5
        7.600000           0.177741E-5        0.192272E-5
        7.610000           0.175476E-5        0.204575E-5
        7.620000           0.173296E-5        0.216710E-5
        7.630000           0.171199E-5        0.228683E-5
        7.640000           0.169180E-5        0.240501E-5
        7.650000           0.167237E-5        0.252170E-5
        7.660000           0.165367E-5        0.263694E-5
        7.670000           0.163568E-5        0.275081E-5
        7.680000           0.161835E-5        0.286336E-5
        7.690000           0.160168E-5        0.297463E-5
        7.700000           0.158564E-5        0.308468E-5
        7.710000           0.157020E-5        0.319356E-5
        7.720000           0.155534E-5        0.330131E-5
        7.730000           0.154105E-5        0.340799E-5
        7.740000           0.152730E-5        0.351362E-5
        7.750000           0.151407E-5        0.361827E-5
        7.760000           0.150136E-5        0.372197E-5
        7.770000           0.148914E-5        0.382475E-5
        7.780000           0.147739E-5        0.392666E-5
        7.789999           0.146611E-5        0.402774E-5
        7.800000           0.145528E-5        0.412802E-5
        7.809999           0.144488E-5        0.422754E-5
        7.820000           0.143490E-5        0.432633E-5
        7.829999           0.142534E-5        0.442442E-5
        7.840000           0.141617E-5        0.452185E-5
        7.849999           0.140739E-5        0.461865E-5
        7.860000           0.139899E-5        0.471486E-5
        7.870000           0.139096E-5        0.481050E-5
        7.880000           0.138329E-5        0.490560E-5
        7.890000           0.137597E-5        0.500019E-5
        7.900000           0.136899E-5        0.509429E-5
        7.910000           0.136234E-5        0.518794E-5
        7.920000           0.135602E-5        0.528116E-5
        7.930000           0.135002E-5        0.537398E-5
        7.940000           0.134433E-5        0.546642E-5
        7.950000           0.133894E-5        0.555851E-5
        7.960000           0.133385E-5        0.565028E-5
        7.970000           0.132906E-5        0.574174E-5
        7.980000           0.132456E-5        0.583292E-5
        7.990000           0.132033E-5        0.592386E-5
        8.000000           0.131639E-5        0.601456E-5
        8.010000           0.131271E-5        0.610505E-5
        8.020000           0.130930E-5        0.619535E-5
        8.030000           0.130616E-5        0.628549E-5
        8.040000           0.130328E-5        0.637548E-5
        8.050000           0.130065E-5        0.646535E-5
        8.059999           0.129828E-5        0.655512E-5
        8.070000           0.129616E-5        0.664481E-5
        8.080000           0.129428E-5        0.673444E-5
        8.090000           0.129264E-5        0.682403E-5
        8.099999           0.129125E-5        0.691359E-5
        8.110000           0.129009E-5        0.700316E-5
        8.120000           0.128917E-5        0.709275E-5
        8.130000           0.128848E-5        0.718239E-5
        8.139999           0.128802E-5        0.727207E-5
        8.150000           0.128780E-5        0.736184E-5
        8.160000           0.128780E-5        0.745171E-5
        8.170000           0.128803E-5        0.754168E-5
        8.179999           0.128848E-5        0.763180E-5
        8.190000           0.128916E-5        0.772206E-5
        8.200000           0.129006E-5        0.781250E-5
        8.209999           0.129118E-5        0.790313E-5
        8.219999           0.129253E-5        0.799397E-5
        8.230000           0.129409E-5        0.808505E-5
        8.240001           0.129588E-5        0.817637E-5
        8.250000           0.129789E-5        0.826796E-5
        8.260000           0.130011E-5        0.835982E-5
        8.270000           0.130256E-5        0.845199E-5
        8.280000           0.130523E-5        0.854448E-5
        8.290000           0.130812E-5        0.863732E-5
        8.300000           0.131122E-5        0.873050E-5
        8.310000           0.131455E-5        0.882407E-5
        8.320000           0.131811E-5        0.891803E-5
        8.330000           0.132188E-5        0.901241E-5
        8.340000           0.132588E-5        0.910722E-5
        8.350000           0.133010E-5        0.920248E-5
        8.360000           0.133455E-5        0.929822E-5
        8.370000           0.133922E-5        0.939444E-5
        8.380000           0.134413E-5        0.949118E-5
        8.390000           0.134926E-5        0.958844E-5
        8.400000           0.135462E-5        0.968626E-5
        8.410000           0.136021E-5        0.978463E-5
        8.420000           0.136604E-5        0.988360E-5
        8.430000           0.137211E-5        0.998317E-5
        8.440000           0.137841E-5        0.100834E-4
        8.450000           0.138495E-5        0.101842E-4
        8.460000           0.139173E-5        0.102857E-4
        8.469999           0.139875E-5        0.103880E-4
        8.480000           0.140603E-5        0.104909E-4
        8.490000           0.141354E-5        0.105945E-4
        8.500000           0.142131E-5        0.106989E-4
        8.509999           0.142934E-5        0.108041E-4
        8.520000           0.143761E-5        0.109100E-4
        8.530000           0.144614E-5        0.110168E-4
        8.540000           0.145494E-5        0.111244E-4
        8.549999           0.146399E-5        0.112329E-4
        8.559999           0.147331E-5        0.113422E-4
        8.570000           0.148290E-5        0.114524E-4
        8.580000           0.149275E-5        0.115636E-4
        8.589999           0.150287E-5        0.116757E-4
        8.600000           0.151327E-5        0.117888E-4
        8.610001           0.152395E-5        0.119029E-4
        8.620000           0.153490E-5        0.120180E-4
        8.630000           0.154612E-5        0.121341E-4
        8.640000           0.155764E-5        0.122512E-4
        8.650001           0.156943E-5        0.123695E-4
        8.660000           0.158150E-5        0.124888E-4
        8.670000           0.159385E-5        0.126093E-4
        8.680000           0.160649E-5        0.127310E-4
        8.690001           0.161942E-5        0.128538E-4
        8.700000           0.163262E-5        0.129778E-4
        8.710000           0.164610E-5        0.131030E-4
        8.720000           0.165986E-5        0.132295E-4
        8.730000           0.167390E-5        0.133572E-4
        8.740000           0.168821E-5        0.134862E-4
        8.750000           0.170278E-5        0.136165E-4
        8.760000           0.171761E-5        0.137482E-4
        8.770000           0.173269E-5        0.138811E-4
        8.780000           0.174801E-5        0.140155E-4
        8.790000           0.176356E-5        0.141512E-4
        8.800000           0.177933E-5        0.142883E-4
        8.809999           0.179529E-5        0.144269E-4
        8.820000           0.181144E-5        0.145669E-4
        8.830000           0.182774E-5        0.147083E-4
        8.840000           0.184417E-5        0.148512E-4
        8.849999           0.186070E-5        0.149955E-4
        8.860000           0.187729E-5        0.151414E-4
        8.870000           0.189391E-5        0.152887E-4
        8.880000           0.191051E-5        0.154375E-4
        8.889999           0.192702E-5        0.155878E-4
        8.900000           0.194340E-5        0.157396E-4
        8.910000           0.195955E-5        0.158928E-4
        8.919999           0.197541E-5        0.160476E-4
        8.929999           0.199087E-5        0.162038E-4
        8.940000           0.200581E-5        0.163614E-4
        8.950000           0.202012E-5        0.165204E-4
        8.959999           0.203364E-5        0.166809E-4
        8.970000           0.204620E-5        0.168427E-4
        8.980000           0.205759E-5        0.170059E-4
        8.990000           0.206758E-5        0.171703E-4
        9.000000           0.207592E-5        0.173360E-4
        9.010000           0.208227E-5        0.175028E-4
        9.020000           0.208630E-5        0.176708E-4
        9.030000           0.208756E-5        0.178399E-4
        9.040000           0.208558E-5        0.180100E-4
        9.050000           0.207978E-5        0.181811E-4
        9.060000           0.206950E-5        0.183532E-4
        9.070000           0.205396E-5        0.185263E-4
        9.080000           0.203225E-5        0.187003E-4
        9.090000           0.200330E-5        0.188754E-4
        9.100000           0.196587E-5        0.190517E-4
        9.110000           0.191851E-5        0.192294E-4
        9.120000           0.185950E-5        0.194090E-4
        9.130000           0.178687E-5        0.195911E-4
        9.140000           0.169829E-5        0.197764E-4
        9.150000           0.159111E-5        0.199663E-4
        9.160000           0.146227E-5        0.201625E-4
        9.170000           0.130830E-5        0.203676E-4
        9.179999           0.112539E-5        0.205849E-4
        9.190000           0.909403E-6        0.208191E-4
        9.200000           0.656139E-6        0.210765E-4
        9.210000           0.361631E-6        0.213654E-4
        9.219999           0.227562E-7        0.216966E-4
        9.230000          -0.361852E-6        0.220837E-4
        9.240000          -0.790487E-6        0.225433E-4
        9.250000          -0.125663E-5        0.230948E-4
        9.259999          -0.174693E-5        0.237585E-4
        9.270000          -0.223944E-5        0.245538E-4
        9.280000          -0.270275E-5        0.254948E-4
        9.290000          -0.309741E-5        0.265849E-4
        9.299999          -0.338030E-5        0.278130E-4
        9.309999          -0.351209E-5        0.291504E-4
        9.320000          -0.346576E-5        0.305534E-4
        9.330000          -0.323305E-5        0.319708E-4
        9.340000          -0.282613E-5        0.333528E-4
        9.350000          -0.227349E-5        0.346607E-4
        9.360001          -0.161249E-5        0.358713E-4
        9.370000          -0.881437E-6        0.369774E-4
        9.380000          -0.113780E-6        0.379843E-4
        9.390000           0.664781E-6        0.389053E-4
        9.400001           0.143674E-5        0.397574E-4
        9.410000           0.219178E-5        0.405587E-4
        9.420000           0.292516E-5        0.413259E-4
        9.430000           0.363612E-5        0.420738E-4
        9.440000           0.432655E-5        0.428149E-4
        9.450000           0.499996E-5        0.435597E-4
        9.460000           0.566080E-5        0.443167E-4
        9.470000           0.631403E-5        0.450929E-4
        9.480000           0.696481E-5        0.458943E-4
        9.490000           0.761840E-5        0.467256E-4
        9.500000           0.828006E-5        0.475912E-4
        9.510000           0.895508E-5        0.484949E-4
        9.520000           0.964879E-5        0.494399E-4
        9.530000           0.103666E-4        0.504297E-4
        9.540000           0.111141E-4        0.514672E-4
        9.550000           0.118971E-4        0.525556E-4
        9.559999           0.127218E-4        0.536978E-4
        9.570000           0.135948E-4        0.548970E-4
        9.580000           0.145231E-4        0.561564E-4
        9.590000           0.155146E-4        0.574791E-4
        9.599999           0.165778E-4        0.588685E-4
        9.610000           0.177223E-4        0.603278E-4
        9.620000           0.189588E-4        0.618607E-4
        9.629999           0.202993E-4        0.634705E-4
        9.639999           0.217572E-4        0.651605E-4
        9.650000           0.233481E-4        0.669338E-4
        9.660000           0.250895E-4        0.687932E-4
        9.669999           0.270015E-4        0.707410E-4
        9.679999           0.291072E-4        0.727784E-4
        9.690000           0.314330E-4        0.749055E-4
        9.700000           0.340096E-4        0.771210E-4
        9.710000           0.368718E-4        0.794202E-4
        9.720000           0.400601E-4        0.817957E-4
        9.730000           0.436210E-4        0.842348E-4
        9.740000           0.476078E-4        0.867187E-4
        9.750000           0.520809E-4        0.892192E-4
        9.760000           0.571091E-4        0.916966E-4
        9.770000           0.627684E-4        0.940948E-4
        9.780000           0.691423E-4        0.963369E-4
        9.790000           0.763188E-4        0.983181E-4
        9.800000           0.843859E-4        0.998982E-4
        9.810000           0.934241E-4        0.100893E-3
        9.820000           0.103492E-3        0.101063E-3
        9.830000           0.114609E-3        0.100110E-3
        9.840000           0.126721E-3        0.976702E-4
        9.850000           0.139669E-3        0.933248E-4
        9.860000           0.153137E-3        0.866282E-4
        9.870000           0.166617E-3        0.771634E-4
        9.880000           0.179384E-3        0.646312E-4
        9.889999           0.190520E-3        0.489666E-4
        9.900000           0.199010E-3        0.304533E-4
        9.910000           0.203905E-3        0.979086E-5
        9.920000           0.204534E-3       -0.119392E-4
        9.929999           0.200676E-3       -0.334261E-4
        9.940000           0.192625E-3       -0.533649E-4
        9.950000           0.181126E-3       -0.706886E-4
        9.960000           0.167194E-3       -0.847168E-4
        9.969999           0.151921E-3       -0.951900E-4
        9.980000           0.136309E-3       -0.102212E-3
        9.990000           0.121173E-3       -0.106146E-3
        10.00000           0.107103E-3       -0.107513E-3
        10.01000           0.944623E-4       -0.106897E-3
        10.02000           0.834096E-4       -0.104872E-3
        10.03000           0.739387E-4       -0.101948E-3
        10.04000           0.659265E-4       -0.985398E-4
        10.05000           0.591854E-4       -0.949482E-4
        10.06000           0.535064E-4       -0.913724E-4
        10.07000           0.486921E-4       -0.879300E-4
        10.08000           0.445704E-4       -0.846775E-4
        10.09000           0.410019E-4       -0.816345E-4
        10.10000           0.378775E-4       -0.787991E-4
        10.11000           0.351134E-4       -0.761585E-4
        10.12000           0.326461E-4       -0.736964E-4
        10.13000           0.304270E-4       -0.713957E-4
        10.14000           0.284183E-4       -0.692406E-4
        10.15000           0.265904E-4       -0.672172E-4
        10.16000           0.249195E-4       -0.653134E-4
        10.17000           0.233862E-4       -0.635189E-4
        10.18000           0.219740E-4       -0.618249E-4
        10.19000           0.206692E-4       -0.602237E-4
        10.20000           0.194598E-4       -0.587089E-4
        10.21000           0.183353E-4       -0.572747E-4
        10.22000           0.172866E-4       -0.559160E-4
        10.23000           0.163053E-4       -0.546284E-4
        10.24000           0.153840E-4       -0.534080E-4
        10.25000           0.145160E-4       -0.522511E-4
        10.26000           0.136951E-4       -0.511546E-4
        10.27000           0.129155E-4       -0.501154E-4
        10.28000           0.121718E-4       -0.491310E-4
        10.29000           0.114590E-4       -0.481988E-4
        10.30000           0.107721E-4       -0.473167E-4
        10.31000           0.101063E-4       -0.464825E-4
        10.32000           0.945705E-5       -0.456941E-4
        10.33000           0.881946E-5       -0.449498E-4
        10.34000           0.818879E-5       -0.442474E-4
        10.35000           0.756004E-5       -0.435853E-4
        10.36000           0.692796E-5       -0.429613E-4
        10.37000           0.628698E-5       -0.423730E-4
        10.38000           0.563108E-5       -0.418180E-4
        10.39000           0.495372E-5       -0.412930E-4
        10.40000           0.424779E-5       -0.407943E-4
        10.41000           0.350547E-5       -0.403168E-4
        10.42000           0.271827E-5       -0.398544E-4
        10.43000           0.187700E-5       -0.393986E-4
        10.44000           0.972182E-6       -0.389388E-4
        10.45000          -0.593888E-8       -0.384608E-4
        10.46000          -0.106643E-5       -0.379463E-4
        10.47000          -0.221656E-5       -0.373717E-4
        10.48000          -0.345996E-5       -0.367076E-4
        10.49000          -0.479384E-5       -0.359175E-4
        10.50000          -0.620527E-5       -0.349595E-4
        10.51000          -0.766651E-5       -0.337874E-4
        10.52000          -0.913033E-5       -0.323561E-4
        10.53000          -0.105265E-4       -0.306302E-4
        10.54000          -0.117627E-4       -0.285963E-4
        10.55000          -0.127321E-4       -0.262760E-4
        10.56000          -0.133300E-4       -0.237367E-4
        10.57000          -0.134780E-4       -0.210916E-4
        10.58000          -0.131470E-4       -0.184854E-4
        10.59000          -0.123704E-4       -0.160668E-4
        10.60000          -0.112392E-4       -0.139569E-4
        10.61000          -0.987990E-5       -0.122257E-4
        10.62000          -0.842491E-5       -0.108854E-4
        10.63000          -0.698667E-5       -0.990053E-5
        10.64000          -0.564352E-5       -0.920686E-5
        10.65000          -0.443799E-5       -0.873148E-5
        10.66000          -0.338353E-5       -0.840699E-5
        10.67000          -0.247436E-5       -0.817884E-5
        10.68000          -0.169450E-5       -0.800704E-5
        10.69000          -0.102443E-5       -0.786440E-5
        10.70000          -0.445032E-6       -0.773367E-5
        10.71000           0.605722E-7       -0.760444E-5
        10.72000           0.506405E-6       -0.747078E-5
        10.73000           0.903820E-6       -0.732943E-5
        10.74000           0.126188E-5       -0.717874E-5
        10.75000           0.158783E-5       -0.701792E-5
        10.76000           0.188757E-5       -0.684658E-5
        10.77000           0.216589E-5       -0.666462E-5
        10.78000           0.242686E-5       -0.647198E-5
        10.79000           0.267393E-5       -0.626867E-5
        10.80000           0.291007E-5       -0.605468E-5
        10.81000           0.313796E-5       -0.583000E-5
        10.82000           0.336002E-5       -0.559457E-5
        10.83000           0.357847E-5       -0.534830E-5
        10.84000           0.379540E-5       -0.509108E-5
        10.85000           0.401283E-5       -0.482276E-5
        10.86000           0.423270E-5       -0.454315E-5
        10.87000           0.445697E-5       -0.425201E-5
        10.88000           0.468760E-5       -0.394911E-5
        10.89000           0.492663E-5       -0.363414E-5
        10.90000           0.517617E-5       -0.330683E-5
        10.91000           0.543847E-5       -0.296680E-5
        10.92000           0.571597E-5       -0.261376E-5
        10.93000           0.601130E-5       -0.224733E-5
        10.94000           0.632737E-5       -0.186724E-5
        10.95000           0.666738E-5       -0.147320E-5
        10.96000           0.703497E-5       -0.106500E-5
        10.97000           0.743417E-5       -0.642596E-6
        10.98000           0.786960E-5       -0.206068E-6
        10.99000           0.834650E-5        0.244213E-6
        11.00000           0.887082E-5        0.707528E-6
        11.01000           0.944941E-5        0.118269E-5
        11.02000           0.100901E-4        0.166780E-5
        11.03000           0.108019E-4        0.216009E-5
        11.04000           0.115952E-4        0.265545E-5
        11.05000           0.124816E-4        0.314821E-5
        11.06000           0.134745E-4        0.363036E-5
        11.07000           0.145890E-4        0.409096E-5
        11.08000           0.158417E-4        0.451500E-5
        11.09000           0.172507E-4        0.488225E-5
        11.10000           0.188349E-4        0.516562E-5
        11.11000           0.206130E-4        0.532910E-5
        11.12000           0.226015E-4        0.532547E-5
        11.13000           0.248112E-4        0.509369E-5
        11.14000           0.272423E-4        0.455642E-5
        11.15000           0.298768E-4        0.361874E-5
        11.16000           0.326678E-4        0.216862E-5
        11.17000           0.355245E-4        0.833040E-7
        11.18000           0.382983E-4       -0.275769E-5
        11.19000           0.407685E-4       -0.644667E-5
        11.20000           0.426395E-4       -0.110085E-4
        11.21000           0.435602E-4       -0.163504E-4
        11.22000           0.431776E-4       -0.222153E-4
        11.23000           0.412280E-4       -0.281639E-4
        11.24000           0.376445E-4       -0.336160E-4
        11.25000           0.326376E-4       -0.379657E-4
        11.26000           0.266923E-4       -0.407404E-4
        11.27000           0.204621E-4       -0.417390E-4
        11.28000           0.145969E-4       -0.410770E-4
        11.29000           0.958417E-5       -0.391202E-4
        11.30000           0.566991E-5       -0.363488E-4
        11.31000           0.287269E-5       -0.332224E-4
        11.32000           0.105621E-5       -0.300955E-4
        11.33000           0.133868E-7       -0.271921E-4
        11.34000          -0.469740E-6       -0.246225E-4
        11.35000          -0.577581E-6       -0.224159E-4
        11.36000          -0.452471E-6       -0.205532E-4
        11.37000          -0.195870E-6       -0.189925E-4
        11.38000           0.124573E-6       -0.176843E-4
        11.39000           0.466253E-6       -0.165808E-4
        11.40000           0.804174E-6       -0.156400E-4
        11.41000           0.112492E-5       -0.148268E-4
        11.42000           0.142249E-5       -0.141127E-4
        11.43000           0.169531E-5       -0.134752E-4
        11.44000           0.194442E-5       -0.128966E-4
        11.45000           0.217223E-5       -0.123633E-4
        11.46000           0.238176E-5       -0.118646E-4
        11.47000           0.257624E-5       -0.113921E-4
        11.48000           0.275887E-5       -0.109393E-4
        11.49000           0.293270E-5       -0.105012E-4
        11.50000           0.310053E-5       -0.100737E-4
        11.51000           0.326499E-5       -0.965346E-5
        11.52000           0.342852E-5       -0.923782E-5
        11.53000           0.359335E-5       -0.882456E-5
        11.54000           0.376161E-5       -0.841180E-5
        11.55000           0.393539E-5       -0.799791E-5
        11.56000           0.411667E-5       -0.758139E-5
        11.57000           0.430745E-5       -0.716105E-5
        11.58000           0.450979E-5       -0.673560E-5
        11.59000           0.472582E-5       -0.630406E-5
        11.60000           0.495779E-5       -0.586535E-5
        11.61000           0.520811E-5       -0.541858E-5
        11.62000           0.547942E-5       -0.496289E-5
        11.63000           0.577466E-5       -0.449747E-5
        11.64000           0.609705E-5       -0.402167E-5
        11.65000           0.645025E-5       -0.353496E-5
        11.66000           0.683839E-5       -0.303695E-5
        11.67000           0.726614E-5       -0.252753E-5
        11.68000           0.773883E-5       -0.200694E-5
        11.69000           0.826257E-5       -0.147583E-5
        11.70000           0.884430E-5       -0.935472E-6
        11.71000           0.949198E-5       -0.387992E-6
        11.72000           0.102147E-4        0.163407E-6
        11.73000           0.110226E-4        0.713977E-6
        11.74000           0.119274E-4        0.125703E-5
        11.75000           0.129418E-4        0.178319E-5
        11.76000           0.140798E-4        0.227961E-5
        11.77000           0.153562E-4        0.272894E-5
        11.78000           0.167857E-4        0.310801E-5
        11.79000           0.183819E-4        0.338646E-5
        11.80000           0.201553E-4        0.352513E-5
        11.81000           0.221095E-4        0.347490E-5
        11.82000           0.242375E-4        0.317600E-5
        11.83000           0.265150E-4        0.255930E-5
        11.84000           0.288931E-4        0.155034E-5
        11.85000           0.312918E-4        0.778314E-7
        11.86000           0.335951E-4       -0.191241E-5
        11.87000           0.356540E-4       -0.443861E-5
        11.88000           0.372998E-4       -0.746369E-5
        11.89000           0.383708E-4       -0.108825E-4
        11.90000           0.387457E-4       -0.145232E-4
        11.91000           0.383755E-4       -0.181721E-4
        11.92000           0.372975E-4       -0.216111E-4
        11.93000           0.356261E-4       -0.246583E-4
        11.94000           0.335244E-4       -0.271957E-4
        11.95000           0.311683E-4       -0.291768E-4
        11.96000           0.287175E-4       -0.306153E-4
        11.97000           0.262986E-4       -0.315663E-4
        11.98000           0.240003E-4       -0.321054E-4
        11.99000           0.218772E-4       -0.323132E-4
        12.00000           0.199570E-4       -0.322654E-4
        12.01000           0.182485E-4       -0.320279E-4
        12.02000           0.167487E-4       -0.316554E-4
        12.03000           0.154473E-4       -0.311922E-4
        12.04000           0.143309E-4       -0.306733E-4
        12.05000           0.133847E-4       -0.301270E-4
        12.06000           0.125941E-4       -0.295762E-4
        12.07000           0.119447E-4       -0.290400E-4
        12.08000           0.114225E-4       -0.285357E-4
        12.09000           0.110131E-4       -0.280789E-4
        12.10000           0.107011E-4       -0.276846E-4
        12.11000           0.104684E-4       -0.273666E-4
        12.12000           0.102933E-4       -0.271368E-4
        12.13000           0.101501E-4       -0.270030E-4
        12.14000           0.100097E-4       -0.269664E-4
        12.15000           0.984174E-5       -0.270190E-4
        12.16000           0.961899E-5       -0.271425E-4
        12.17000           0.932207E-5       -0.273095E-4
        12.18000           0.894354E-5       -0.274874E-4
        12.19000           0.848894E-5       -0.276447E-4
        12.20000           0.797451E-5       -0.277566E-4
        12.21000           0.742247E-5       -0.278082E-4
        12.22000           0.685589E-5       -0.277944E-4
        12.23000           0.629486E-5       -0.277187E-4
        12.24000           0.575446E-5       -0.275894E-4
        12.25000           0.524453E-5       -0.274171E-4
        12.26000           0.477028E-5       -0.272128E-4
        12.27000           0.433359E-5       -0.269865E-4
        12.28000           0.393384E-5       -0.267466E-4
        12.29000           0.356902E-5       -0.264999E-4
        12.30000           0.323633E-5       -0.262517E-4
        12.31000           0.293264E-5       -0.260059E-4
        12.32000           0.265480E-5       -0.257654E-4
        12.33000           0.239977E-5       -0.255324E-4
        12.34000           0.216474E-5       -0.253081E-4
        12.35000           0.194712E-5       -0.250936E-4
        12.36000           0.174460E-5       -0.248894E-4
        12.37000           0.155510E-5       -0.246960E-4
        12.38000           0.137674E-5       -0.245135E-4
        12.39000           0.120785E-5       -0.243419E-4
        12.40000           0.104692E-5       -0.241812E-4
        12.41000           0.892556E-6       -0.240313E-4
        12.42000           0.743509E-6       -0.238922E-4
        12.43000           0.598602E-6       -0.237635E-4
        12.44000           0.456731E-6       -0.236453E-4
        12.45000           0.316840E-6       -0.235372E-4
        12.46000           0.177908E-6       -0.234393E-4
        12.47000           0.389217E-7       -0.233513E-4
        12.48000          -0.101134E-6       -0.232730E-4
        12.49000          -0.243298E-6       -0.232045E-4
        12.50000          -0.388648E-6       -0.231454E-4
        12.51000          -0.538324E-6       -0.230956E-4
        12.52000          -0.693545E-6       -0.230551E-4
        12.53000          -0.855633E-6       -0.230235E-4
        12.54000          -0.102604E-5       -0.230006E-4
        12.55000          -0.120635E-5       -0.229860E-4
        12.56000          -0.139836E-5       -0.229794E-4
        12.57000          -0.160406E-5       -0.229800E-4
        12.58000          -0.182568E-5       -0.229872E-4
        12.59000          -0.206572E-5       -0.229996E-4
        12.60000          -0.232698E-5       -0.230159E-4
        12.61000          -0.261258E-5       -0.230340E-4
        12.62000          -0.292595E-5       -0.230511E-4
        12.63000          -0.327072E-5       -0.230635E-4
        12.64000          -0.365076E-5       -0.230664E-4
        12.65000          -0.406987E-5       -0.230533E-4
        12.66000          -0.453146E-5       -0.230161E-4
        12.67000          -0.503803E-5       -0.229441E-4
        12.68000          -0.559028E-5       -0.228242E-4
        12.69000          -0.618592E-5       -0.226404E-4
        12.70000          -0.681808E-5       -0.223745E-4
        12.71000          -0.747341E-5       -0.220069E-4
        12.72000          -0.813023E-5       -0.215190E-4
        12.73000          -0.875742E-5       -0.208970E-4
        12.74000          -0.931518E-5       -0.201365E-4
        12.75000          -0.975857E-5       -0.192479E-4
        12.76000          -0.100445E-4       -0.182599E-4
        12.77000          -0.101408E-4       -0.172190E-4
        12.78000          -0.100348E-4       -0.161829E-4
        12.79000          -0.973696E-5       -0.152106E-4
        12.80000          -0.927880E-5       -0.143512E-4
        12.81000          -0.870495E-5       -0.136364E-4
        12.82000          -0.806357E-5       -0.130785E-4
        12.83000          -0.739820E-5       -0.126730E-4
        12.84000          -0.674313E-5       -0.124044E-4
        12.85000          -0.612214E-5       -0.122517E-4
        12.86000          -0.554951E-5       -0.121925E-4
        12.87000          -0.503206E-5       -0.122060E-4
        12.88000          -0.457143E-5       -0.122746E-4
        12.89000          -0.416594E-5       -0.123835E-4
        12.90000          -0.381201E-5       -0.125215E-4
        12.91000          -0.350518E-5       -0.126797E-4
        12.92000          -0.324076E-5       -0.128518E-4
        12.93000          -0.301417E-5       -0.130330E-4
        12.94000          -0.282117E-5       -0.132199E-4
        12.95000          -0.265794E-5       -0.134102E-4
        12.96000          -0.252114E-5       -0.136024E-4
        12.97000          -0.240786E-5       -0.137955E-4
        12.98000          -0.231563E-5       -0.139890E-4
        12.99000          -0.224236E-5       -0.141827E-4
        13.00000          -0.218629E-5       -0.143764E-4
        13.01000          -0.214598E-5       -0.145705E-4
        13.02000          -0.212027E-5       -0.147652E-4
        13.03000          -0.210821E-5       -0.149608E-4
        13.04000          -0.210912E-5       -0.151579E-4
        13.05000          -0.212246E-5       -0.153569E-4
        13.06000          -0.214793E-5       -0.155583E-4
        13.07000          -0.218537E-5       -0.157628E-4
        13.08000          -0.223480E-5       -0.159708E-4
        13.09000          -0.229638E-5       -0.161830E-4
        13.10000          -0.237047E-5       -0.164001E-4
        13.11000          -0.245758E-5       -0.166225E-4
        13.12000          -0.255838E-5       -0.168510E-4
        13.13000          -0.267376E-5       -0.170861E-4
        13.14000          -0.280480E-5       -0.173286E-4
        13.15000          -0.295280E-5       -0.175789E-4
        13.16000          -0.311932E-5       -0.178377E-4
        13.17000          -0.330623E-5       -0.181054E-4
        13.18000          -0.351568E-5       -0.183827E-4
        13.19000          -0.375025E-5       -0.186697E-4
        13.20000          -0.401289E-5       -0.189667E-4
        13.21000          -0.430708E-5       -0.192737E-4
        13.22000          -0.463686E-5       -0.195905E-4
        13.23000          -0.500691E-5       -0.199162E-4
        13.24000          -0.542264E-5       -0.202496E-4
        13.25000          -0.589027E-5       -0.205888E-4
        13.26000          -0.641690E-5       -0.209306E-4
        13.27000          -0.701063E-5       -0.212705E-4
        13.28000          -0.768041E-5       -0.216023E-4
        13.29000          -0.843612E-5       -0.219171E-4
        13.30000          -0.928817E-5       -0.222029E-4
        13.31000          -0.102470E-4       -0.224436E-4
        13.32000          -0.113222E-4       -0.226179E-4
        13.33000          -0.125209E-4       -0.226982E-4
        13.34000          -0.138455E-4       -0.226498E-4
        13.35000          -0.152902E-4       -0.224309E-4
        13.36000          -0.168363E-4       -0.219933E-4
        13.37000          -0.184481E-4       -0.212858E-4
        13.38000          -0.200672E-4       -0.202613E-4
        13.39000          -0.216111E-4       -0.188864E-4
        13.40000          -0.229762E-4       -0.171550E-4
        13.41000          -0.240495E-4       -0.151007E-4
        13.42000          -0.247275E-4       -0.128031E-4
        13.43000          -0.249393E-4       -0.103827E-4
        13.44000          -0.246650E-4       -0.798217E-5
        13.45000          -0.239405E-4       -0.574014E-5
        13.46000          -0.228483E-4       -0.376603E-5
        13.47000          -0.214962E-4       -0.212571E-5
        13.48000          -0.199951E-4       -0.840387E-6
        13.49000          -0.184424E-4        0.104566E-6
        13.50000          -0.169133E-4        0.746626E-6
        13.51000          -0.154591E-4        0.113384E-5
        13.52000          -0.141109E-4        0.131582E-5
        13.53000          -0.128839E-4        0.133831E-5
        13.54000          -0.117824E-4        0.124068E-5
        13.55000          -0.108035E-4        0.105528E-5
        13.56000          -0.994069E-5        0.807937E-6
        13.57000          -0.918533E-5        0.518855E-6
        13.58000          -0.852827E-5        0.203735E-6
        13.59000          -0.796055E-5       -0.125231E-6
        13.60000          -0.747378E-5       -0.458419E-6
        13.61000          -0.706031E-5       -0.787980E-6
        13.62000          -0.671313E-5       -0.110727E-5
        13.63000          -0.642576E-5       -0.141020E-5
        13.64000          -0.619169E-5       -0.169114E-5
        13.65000          -0.600422E-5       -0.194443E-5
        13.66000          -0.585560E-5       -0.216483E-5
        13.67000          -0.573687E-5       -0.234764E-5
        13.68000          -0.563726E-5       -0.248971E-5
        13.69000          -0.554464E-5       -0.259036E-5
        13.70000          -0.544618E-5       -0.265262E-5
        13.71000          -0.533015E-5       -0.268375E-5
        13.72000          -0.518784E-5       -0.269491E-5
        13.73000          -0.501539E-5       -0.269954E-5
        13.74000          -0.481426E-5       -0.271096E-5
        13.75000          -0.459061E-5       -0.274000E-5
        13.76000          -0.435318E-5       -0.279351E-5
        13.77000          -0.411150E-5       -0.287413E-5
        13.78000          -0.387385E-5       -0.298107E-5
        13.79000          -0.364670E-5       -0.311123E-5
        13.80000          -0.343426E-5       -0.326050E-5
        13.81000          -0.323895E-5       -0.342451E-5
        13.82000          -0.306162E-5       -0.359932E-5
        13.83000          -0.290223E-5       -0.378149E-5
        13.84000          -0.276002E-5       -0.396835E-5
        13.85000          -0.263399E-5       -0.415777E-5
        13.86000          -0.252293E-5       -0.434825E-5
        13.87000          -0.242569E-5       -0.453865E-5
        13.88000          -0.234111E-5       -0.472829E-5
        13.89000          -0.226821E-5       -0.491662E-5
        13.90000          -0.220608E-5       -0.510345E-5
        13.91000          -0.215396E-5       -0.528861E-5
        13.92000          -0.211124E-5       -0.547205E-5
        13.93000          -0.207742E-5       -0.565391E-5
        13.94000          -0.205211E-5       -0.583422E-5
        13.95000          -0.203506E-5       -0.601319E-5
        13.96000          -0.202612E-5       -0.619091E-5
        13.97000          -0.202526E-5       -0.636758E-5
        13.98000          -0.203253E-5       -0.654328E-5
        13.99000          -0.204814E-5       -0.671815E-5
        14.00000          -0.207236E-5       -0.689220E-5
        14.01000          -0.210563E-5       -0.706547E-5
        14.02000          -0.214845E-5       -0.723778E-5
        14.03000          -0.220151E-5       -0.740897E-5
        14.04000          -0.226558E-5       -0.757857E-5
        14.05000          -0.234161E-5       -0.774603E-5
        14.06000          -0.243060E-5       -0.791041E-5
        14.07000          -0.253374E-5       -0.807051E-5
        14.08000          -0.265220E-5       -0.822455E-5
        14.09000          -0.278719E-5       -0.837023E-5
        14.10000          -0.293967E-5       -0.850440E-5
        14.11000          -0.311027E-5       -0.862309E-5
        14.12000          -0.329871E-5       -0.872111E-5
        14.13000          -0.350340E-5       -0.879225E-5
        14.14000          -0.372037E-5       -0.882937E-5
        14.15000          -0.394263E-5       -0.882521E-5
        14.16000          -0.415910E-5       -0.877380E-5
        14.17000          -0.435492E-5       -0.867278E-5
        14.18000          -0.451268E-5       -0.852584E-5
        14.19000          -0.461589E-5       -0.834428E-5
        14.20000          -0.465289E-5       -0.814658E-5
        14.21000          -0.462041E-5       -0.795506E-5
        14.22000          -0.452440E-5       -0.779140E-5
        14.23000          -0.437814E-5       -0.767222E-5
        14.24000          -0.419869E-5       -0.760704E-5
        14.25000          -0.400303E-5       -0.759830E-5
        14.26000          -0.380570E-5       -0.764314E-5
        14.27000          -0.361750E-5       -0.773551E-5
        14.28000          -0.344562E-5       -0.786810E-5
        14.29000          -0.329423E-5       -0.803363E-5
        14.30000          -0.316515E-5       -0.822572E-5
        14.31000          -0.305879E-5       -0.843893E-5
        14.32000          -0.297460E-5       -0.866911E-5
        14.33000          -0.291159E-5       -0.891300E-5
        14.34000          -0.286856E-5       -0.916836E-5
        14.35000          -0.284434E-5       -0.943350E-5
        14.36000          -0.283784E-5       -0.970749E-5
        14.37000          -0.284816E-5       -0.998964E-5
        14.38000          -0.287459E-5       -0.102798E-4
        14.39000          -0.291663E-5       -0.105779E-4
        14.40000          -0.297401E-5       -0.108842E-4
        14.41000          -0.304664E-5       -0.111991E-4
        14.42000          -0.313469E-5       -0.115231E-4
        14.43000          -0.323847E-5       -0.118569E-4
        14.44000          -0.335860E-5       -0.122011E-4
        14.45000          -0.349581E-5       -0.125565E-4
        14.46000          -0.365118E-5       -0.129240E-4
        14.47000          -0.382592E-5       -0.133044E-4
        14.48000          -0.402163E-5       -0.136989E-4
        14.49000          -0.424007E-5       -0.141082E-4
        14.50000          -0.448349E-5       -0.145335E-4
        14.51000          -0.475433E-5       -0.149757E-4
        14.52000          -0.505565E-5       -0.154359E-4
        14.53000          -0.539081E-5       -0.159151E-4
        14.54000          -0.576392E-5       -0.164142E-4
        14.55000          -0.617952E-5       -0.169340E-4
        14.56000          -0.664316E-5       -0.174751E-4
        14.57000          -0.716098E-5       -0.180379E-4
        14.58000          -0.774045E-5       -0.186223E-4
        14.59000          -0.838984E-5       -0.192276E-4
        14.60000          -0.911919E-5       -0.198525E-4
        14.61000          -0.993961E-5       -0.204942E-4
        14.62000          -0.108645E-4       -0.211487E-4
        14.63000          -0.119086E-4       -0.218097E-4
        14.64000          -0.130889E-4       -0.224678E-4
        14.65000          -0.144248E-4       -0.231102E-4
        14.66000          -0.159370E-4       -0.237184E-4
        14.67000          -0.176481E-4       -0.242674E-4
        14.68000          -0.195804E-4       -0.247232E-4
        14.69000          -0.217553E-4       -0.250409E-4
        14.70000          -0.241881E-4       -0.251616E-4
        14.71000          -0.268853E-4       -0.250115E-4
        14.72000          -0.298342E-4       -0.245002E-4
        14.73000          -0.329965E-4       -0.235234E-4
        14.74000          -0.362934E-4       -0.219708E-4
        14.75000          -0.395990E-4       -0.197397E-4
        14.76000          -0.427318E-4       -0.167600E-4
        14.77000          -0.454672E-4       -0.130213E-4
        14.78000          -0.475600E-4       -0.860363E-5
        14.79000          -0.487920E-4       -0.368537E-5
        14.80000          -0.490202E-4        0.146678E-5
        14.81000          -0.482150E-4        0.654759E-5
        14.82000          -0.464665E-4        0.112659E-4
        14.83000          -0.439572E-4        0.154020E-4
        14.84000          -0.409172E-4        0.188280E-4
        14.85000          -0.375749E-4        0.215105E-4
        14.86000          -0.341286E-4        0.234851E-4
        14.87000          -0.307269E-4        0.248323E-4
        14.88000          -0.274725E-4        0.256506E-4
        14.89000          -0.244248E-4        0.260410E-4
        14.90000          -0.216131E-4        0.260958E-4
        14.91000          -0.190421E-4        0.258933E-4
        14.92000          -0.167037E-4        0.254962E-4
        14.93000          -0.145807E-4        0.249514E-4
        14.94000          -0.126548E-4        0.242917E-4
        14.95000          -0.109089E-4        0.235384E-4
        14.96000          -0.933198E-5        0.227056E-4
        14.97000          -0.791842E-5        0.218035E-4
        14.98000          -0.666942E-5        0.208436E-4
        14.99000          -0.558865E-5        0.198414E-4
        15.00000          -0.467955E-5        0.188186E-4
        15.01000          -0.394023E-5        0.178022E-4
        15.02000          -0.336014E-5        0.168198E-4
        15.03000          -0.292058E-5        0.158966E-4
        15.04000          -0.259644E-5        0.150497E-4
        15.05000          -0.236082E-5        0.142880E-4
        15.06000          -0.218849E-5        0.136117E-4
        15.07000          -0.205874E-5        0.130158E-4
        15.08000          -0.195588E-5        0.124915E-4
        15.09000          -0.186903E-5        0.120300E-4
        15.10000          -0.179077E-5        0.116225E-4
        15.11000          -0.171615E-5        0.112616E-4
        15.12000          -0.164171E-5        0.109408E-4
        15.13000          -0.156495E-5        0.106547E-4
        15.14000          -0.148405E-5        0.103985E-4
        15.15000          -0.139774E-5        0.101682E-4
        15.16000          -0.130510E-5        0.996016E-5
        15.17000          -0.120561E-5        0.977132E-5
        15.18000          -0.109882E-5        0.959907E-5
        15.19000          -0.984463E-6        0.944131E-5
        15.20000          -0.862173E-6        0.929619E-5
        15.21000          -0.731595E-6        0.916221E-5
        15.22000          -0.592165E-6        0.903801E-5
        15.23000          -0.443238E-6        0.892242E-5
        15.24000          -0.283890E-6        0.881425E-5
        15.25000          -0.113079E-6        0.871237E-5
        15.26000           0.705689E-7        0.861547E-5
        15.27000           0.268556E-6        0.852211E-5
        15.28000           0.482750E-6        0.843051E-5
        15.29000           0.715123E-6        0.833850E-5
        15.30000           0.968000E-6        0.824330E-5
        15.31000           0.124369E-5        0.814145E-5
        15.32000           0.154469E-5        0.802841E-5
        15.33000           0.187316E-5        0.789851E-5
        15.34000           0.223092E-5        0.774452E-5
        15.35000           0.261859E-5        0.755748E-5
        15.36000           0.303527E-5        0.732646E-5
        15.37000           0.347714E-5        0.703868E-5
        15.38000           0.393633E-5        0.667997E-5
        15.39000           0.439972E-5        0.623563E-5
        15.40000           0.484722E-5        0.569296E-5
        15.41000           0.525176E-5        0.504377E-5
        15.42000           0.557993E-5        0.428910E-5
        15.43000           0.579592E-5        0.344220E-5
        15.44000           0.586722E-5        0.253159E-5
        15.45000           0.577225E-5        0.159847E-5
        15.46000           0.550653E-5        0.691982E-6
        15.47000           0.508467E-5       -0.140913E-6
        15.48000           0.453749E-5       -0.863121E-6
        15.49000           0.390414E-5       -0.145386E-5
        15.50000           0.322447E-5       -0.190823E-5
        15.51000           0.253168E-5       -0.223446E-5
        15.52000           0.185002E-5       -0.244777E-5
        15.53000           0.119387E-5       -0.256556E-5
        15.54000           0.570753E-6       -0.260342E-5
        15.55000          -0.166022E-7       -0.257342E-5
        15.56000          -0.566685E-6       -0.248391E-5
        15.57000          -0.107790E-5       -0.234051E-5
        15.58000          -0.154682E-5       -0.214786E-5
        15.59000          -0.196900E-5       -0.191124E-5
        15.60000          -0.233947E-5       -0.163799E-5
        15.61000          -0.265505E-5       -0.133742E-5
        15.62000          -0.291528E-5       -0.102002E-5
        15.63000          -0.312326E-5       -0.695180E-6
        15.64000          -0.328423E-5       -0.369774E-6
        15.65000          -0.340383E-5       -0.470846E-7
        15.66000          -0.348584E-5        0.272019E-6
        15.67000          -0.353134E-5        0.587587E-6
        15.68000          -0.353902E-5        0.898042E-6
        15.69000          -0.350693E-5        0.119927E-5
        15.70000          -0.343463E-5        0.148427E-5
        15.71000          -0.332476E-5        0.174500E-5
        15.72000          -0.318344E-5        0.197404E-5
        15.73000          -0.301921E-5        0.216665E-5
        15.74000          -0.284152E-5        0.232128E-5
        15.75000          -0.265917E-5        0.243941E-5
        15.76000          -0.247916E-5        0.252473E-5
        15.77000          -0.230660E-5        0.258203E-5
        15.78000          -0.214458E-5        0.261639E-5
        15.79000          -0.199471E-5        0.263259E-5
        15.80000          -0.185741E-5        0.263483E-5
        15.81000          -0.173241E-5        0.262663E-5
        15.82000          -0.161893E-5        0.261082E-5
        15.83000          -0.151601E-5        0.258964E-5
        15.84000          -0.142254E-5        0.256482E-5
        15.85000          -0.133746E-5        0.253769E-5
        15.86000          -0.125971E-5        0.250925E-5
        15.87000          -0.118833E-5        0.248025E-5
        15.88000          -0.112242E-5        0.245125E-5
        15.89000          -0.106117E-5        0.242268E-5
        15.90000          -0.100383E-5        0.239482E-5
        15.91000          -0.949728E-6        0.236788E-5
        15.92000          -0.898233E-6        0.234202E-5
        15.93000          -0.848775E-6        0.231732E-5
        15.94000          -0.800786E-6        0.229383E-5
        15.95000          -0.753753E-6        0.227155E-5
        15.96000          -0.707141E-6        0.225045E-5
        15.97000          -0.660447E-6        0.223045E-5
        15.98000          -0.613133E-6        0.221143E-5
        15.99000          -0.564673E-6        0.219321E-5
        16.00000          -0.514494E-6        0.217553E-5
        16.01000          -0.462031E-6        0.215806E-5
        16.02000          -0.406670E-6        0.214033E-5
        16.03000          -0.347825E-6        0.212175E-5
        16.04000          -0.284892E-6        0.210153E-5
        16.05000          -0.217366E-6        0.207869E-5
        16.06000          -0.144825E-6        0.205196E-5
        16.07000          -0.671098E-7        0.201989E-5
        16.08000           0.156611E-7        0.198073E-5
        16.09000           0.102867E-6        0.193266E-5
        16.10000           0.193394E-6        0.187381E-5
        16.11000           0.285525E-6        0.180261E-5
        16.12000           0.377100E-6        0.171802E-5
        16.13000           0.465858E-6        0.161963E-5
        16.14000           0.549772E-6        0.150783E-5
        16.15000           0.627601E-6        0.138331E-5
        16.16000           0.699006E-6        0.124662E-5
        16.17000           0.764451E-6        0.109720E-5
        16.18000           0.824394E-6        0.932915E-6
        16.19000           0.878221E-6        0.749535E-6
        16.20000           0.922808E-6        0.541370E-6
        16.21000           0.951331E-6        0.302112E-6
        16.22000           0.952382E-6        0.269547E-7
        16.23000           0.910031E-6       -0.285248E-6
        16.24000           0.805157E-6       -0.628913E-6
        16.25000           0.618290E-6       -0.989898E-6
        16.26000           0.334042E-6       -0.134435E-5
        16.27000          -0.544809E-7       -0.166080E-5
        16.28000          -0.541718E-6       -0.190375E-5
        16.29000          -0.110886E-5       -0.203950E-5
        16.30000          -0.172452E-5       -0.204130E-5
        16.31000          -0.234868E-5       -0.189388E-5
        16.32000          -0.293652E-5       -0.159630E-5
        16.33000          -0.344454E-5       -0.116311E-5
        16.34000          -0.383601E-5       -0.623859E-6
        16.35000          -0.408734E-5       -0.190417E-7
        16.36000          -0.419140E-5        0.605632E-6
        16.37000          -0.415803E-5        0.120767E-5
        16.38000          -0.401011E-5        0.175362E-5
        16.39000          -0.377736E-5        0.222325E-5
        16.40000          -0.349030E-5        0.260875E-5
        16.41000          -0.317536E-5        0.291256E-5
        16.42000          -0.285309E-5        0.314323E-5
        16.43000          -0.253748E-5        0.331247E-5
        16.44000          -0.223717E-5        0.343238E-5
        16.45000          -0.195639E-5        0.351430E-5
        16.46000          -0.169654E-5        0.356788E-5
        16.47000          -0.145710E-5        0.360108E-5
        16.48000          -0.123629E-5        0.362021E-5
        16.49000          -0.103183E-5        0.363011E-5
        16.50000          -0.841055E-6        0.363449E-5
        16.51000          -0.661300E-6        0.363606E-5
        16.52000          -0.489808E-6        0.363679E-5
        16.53000          -0.323988E-6        0.363805E-5
        16.54000          -0.161198E-6        0.364072E-5
        16.55000           0.105351E-8        0.364523E-5
        16.56000           0.165349E-6        0.365165E-5
        16.57000           0.334180E-6        0.365966E-5
        16.58000           0.510192E-6        0.366853E-5
        16.59000           0.695975E-6        0.367705E-5
        16.60000           0.894296E-6        0.368344E-5
        16.61000           0.110781E-5        0.368521E-5
        16.62000           0.133922E-5        0.367900E-5
        16.63000           0.159082E-5        0.366035E-5
        16.64000           0.186448E-5        0.362352E-5
        16.65000           0.216084E-5        0.356132E-5
        16.66000           0.247900E-5        0.346505E-5
        16.67000           0.281520E-5        0.332482E-5
        16.68000           0.316225E-5        0.313013E-5
        16.69000           0.350816E-5        0.287141E-5
        16.70000           0.383619E-5        0.254191E-5
        16.71000           0.412520E-5        0.214073E-5
        16.72000           0.435236E-5        0.167486E-5
        16.73000           0.449686E-5        0.116098E-5
        16.74000           0.454480E-5        0.623649E-6
        16.75000           0.449269E-5        0.921145E-7
        16.76000           0.434846E-5       -0.405839E-6
        16.77000           0.412937E-5       -0.848253E-6
        16.78000           0.385752E-5       -0.122247E-5
        16.79000           0.355561E-5       -0.152470E-5
        16.80000           0.324309E-5       -0.175861E-5
        16.81000           0.293494E-5       -0.193223E-5
        16.82000           0.264097E-5       -0.205569E-5
        16.83000           0.236686E-5       -0.213912E-5
        16.84000           0.211510E-5       -0.219167E-5
        16.85000           0.188592E-5       -0.222098E-5
        16.86000           0.167845E-5       -0.223305E-5
        16.87000           0.149112E-5       -0.223253E-5
        16.88000           0.132229E-5       -0.222293E-5
        16.89000           0.117022E-5       -0.220696E-5
        16.90000           0.103337E-5       -0.218675E-5
        16.91000           0.910201E-6       -0.216398E-5
        16.92000           0.799359E-6       -0.213998E-5
        16.93000           0.699500E-6       -0.211580E-5
        16.94000           0.609449E-6       -0.209229E-5
        16.95000           0.528070E-6       -0.207005E-5
        16.96000           0.454382E-6       -0.204957E-5
        16.97000           0.387462E-6       -0.203117E-5
        16.98000           0.326528E-6       -0.201511E-5
        16.99000           0.270855E-6       -0.200155E-5
        17.00000           0.219841E-6       -0.199061E-5
        17.01000           0.172927E-6       -0.198237E-5
        17.02000           0.129660E-6       -0.197687E-5
        17.03000           0.896216E-7       -0.197416E-5
        17.04000           0.524784E-7       -0.197426E-5
        17.05000           0.179247E-7       -0.197722E-5
        17.06000          -0.142730E-7       -0.198304E-5
        17.07000          -0.443258E-7       -0.199180E-5
        17.08000          -0.723817E-7       -0.200355E-5
        17.09000          -0.985666E-7       -0.201840E-5
        17.10000          -0.122949E-6       -0.203645E-5
        17.11000          -0.145574E-6       -0.205789E-5
        17.12000          -0.166431E-6       -0.208292E-5
        17.13000          -0.185483E-6       -0.211185E-5
        17.14000          -0.202640E-6       -0.214503E-5
        17.15000          -0.217788E-6       -0.218298E-5
        17.16000          -0.230765E-6       -0.222632E-5
        17.17000          -0.241400E-6       -0.227589E-5
        17.18000          -0.249512E-6       -0.233275E-5
        17.19000          -0.254968E-6       -0.239832E-5
        17.20000          -0.257734E-6       -0.247437E-5
        17.21000          -0.257982E-6       -0.256320E-5
        17.22000          -0.256269E-6       -0.266774E-5
        17.23000          -0.253775E-6       -0.279157E-5
        17.24000          -0.252689E-6       -0.293912E-5
        17.25000          -0.256719E-6       -0.311542E-5
        17.26000          -0.271761E-6       -0.332609E-5
        17.27000          -0.306658E-6       -0.357643E-5
        17.28000          -0.373935E-6       -0.387054E-5
        17.29000          -0.490067E-6       -0.420927E-5
        17.30000          -0.675054E-6       -0.458815E-5
        17.31000          -0.950322E-6       -0.499450E-5
        17.32000          -0.133540E-5       -0.540623E-5
        17.33000          -0.184275E-5       -0.579153E-5
        17.34000          -0.247360E-5       -0.611242E-5
        17.35000          -0.321447E-5       -0.632973E-5
        17.36000          -0.403831E-5       -0.640995E-5
        17.37000          -0.490720E-5       -0.633050E-5
        17.38000          -0.577917E-5       -0.608260E-5
        17.39000          -0.661303E-5       -0.567098E-5
        17.40000          -0.737384E-5       -0.511036E-5
        17.41000          -0.803346E-5       -0.442174E-5
        17.42000          -0.857034E-5       -0.362849E-5
        17.43000          -0.896669E-5       -0.275640E-5
        17.44000          -0.920843E-5       -0.183415E-5
        17.45000          -0.928662E-5       -0.895839E-6
        17.46000          -0.920150E-5        0.209893E-7
        17.47000          -0.896539E-5        0.878225E-6
        17.48000          -0.860231E-5        0.164419E-5
        17.49000          -0.814459E-5        0.229734E-5
        17.50000          -0.762673E-5        0.282909E-5
        17.51000          -0.708080E-5        0.324155E-5
        17.52000          -0.653258E-5        0.354493E-5
        17.53000          -0.600123E-5        0.375344E-5
        17.54000          -0.549911E-5        0.388282E-5
        17.55000          -0.503363E-5        0.394815E-5
        17.56000          -0.460798E-5        0.396311E-5
        17.57000          -0.422279E-5        0.393937E-5
        17.58000          -0.387689E-5        0.388664E-5
        17.59000          -0.356783E-5        0.381275E-5
        17.60000          -0.329277E-5        0.372389E-5
        17.61000          -0.304852E-5        0.362482E-5
        17.62000          -0.283200E-5        0.351919E-5
        17.63000          -0.264019E-5        0.340969E-5
        17.64000          -0.247042E-5        0.329835E-5
        17.65000          -0.232016E-5        0.318656E-5
        17.66000          -0.218726E-5        0.307537E-5
        17.67000          -0.206976E-5        0.296542E-5
        17.68000          -0.196601E-5        0.285719E-5
        17.69000          -0.187450E-5        0.275089E-5
        17.70000          -0.179401E-5        0.264666E-5
        17.71000          -0.172342E-5        0.254448E-5
        17.72000          -0.166185E-5        0.244428E-5
        17.73000          -0.160847E-5        0.234589E-5
        17.74000          -0.156268E-5        0.224913E-5
        17.75000          -0.152393E-5        0.215372E-5
        17.76000          -0.149185E-5        0.205938E-5
        17.77000          -0.146618E-5        0.196574E-5
        17.78000          -0.144685E-5        0.187246E-5
        17.79000          -0.143394E-5        0.177911E-5
        17.80000          -0.142778E-5        0.168537E-5
        17.81000          -0.142896E-5        0.159094E-5
        17.82000          -0.143836E-5        0.149582E-5
        17.83000          -0.145709E-5        0.140029E-5
        17.84000          -0.148638E-5        0.130524E-5
        17.85000          -0.152738E-5        0.121214E-5
        17.86000          -0.158078E-5        0.112322E-5
        17.87000          -0.164650E-5        0.104114E-5
        17.88000          -0.172338E-5        0.968828E-6
        17.89000          -0.180907E-5        0.908820E-6
        17.90000          -0.190013E-5        0.862840E-6
        17.91000          -0.199243E-5        0.831189E-6
        17.92000          -0.208173E-5        0.812460E-6
        17.93000          -0.216457E-5        0.803472E-6
        17.94000          -0.223904E-5        0.799702E-6
        17.95000          -0.230535E-5        0.796107E-6
        17.96000          -0.236593E-5        0.788171E-6
        17.97000          -0.242480E-5        0.772790E-6
        17.98000          -0.248693E-5        0.748748E-6
        17.99000          -0.255726E-5        0.716773E-6
        18.00000          -0.264020E-5        0.679223E-6
        18.01000          -0.273915E-5        0.639757E-6
        18.02000          -0.285642E-5        0.602932E-6
        18.03000          -0.299289E-5        0.573986E-6
        18.04000          -0.314811E-5        0.558528E-6
        18.05000          -0.331977E-5        0.562234E-6
        18.06000          -0.350377E-5        0.590302E-6
        18.07000          -0.369398E-5        0.646672E-6
        18.08000          -0.388278E-5        0.733117E-6
        18.09000          -0.406187E-5        0.848329E-6
        18.10000          -0.422402E-5        0.987734E-6
        18.11000          -0.436456E-5        0.114403E-5
        18.12000          -0.448279E-5        0.130910E-5
        18.13000          -0.458171E-5        0.147612E-5
        18.14000          -0.466670E-5        0.164161E-5
        18.15000          -0.474299E-5        0.180596E-5
        18.16000          -0.481345E-5        0.197272E-5
        18.17000          -0.487702E-5        0.214624E-5
        18.18000          -0.492888E-5        0.232929E-5
        18.19000          -0.496200E-5        0.252062E-5
        18.20000          -0.496985E-5        0.271428E-5
        18.21000          -0.494918E-5        0.290018E-5
        18.22000          -0.490191E-5        0.306663E-5
        18.23000          -0.483527E-5        0.320304E-5
        18.24000          -0.476043E-5        0.330233E-5
        18.25000          -0.469034E-5        0.336188E-5
        18.26000          -0.463772E-5        0.338330E-5
        18.27000          -0.461383E-5        0.337138E-5
        18.28000          -0.462801E-5        0.333298E-5
        18.29000          -0.468786E-5        0.327606E-5
        18.30000          -0.479964E-5        0.320928E-5
        18.31000          -0.496889E-5        0.314183E-5
        18.32000          -0.520064E-5        0.308375E-5
        18.33000          -0.549989E-5        0.304636E-5
        18.34000          -0.587118E-5        0.304303E-5
        18.35000          -0.631863E-5        0.308996E-5
        18.36000          -0.684457E-5        0.320703E-5
        18.37000          -0.744875E-5        0.341872E-5
        18.38000          -0.812548E-5        0.375444E-5
        18.39000          -0.886147E-5        0.424864E-5
        18.40000          -0.963122E-5        0.493882E-5
        18.41000          -0.103940E-4        0.586262E-5
        18.42000          -0.110897E-4        0.705046E-5
        18.43000          -0.116397E-4        0.851752E-5
        18.44000          -0.119504E-4        0.102514E-4
        18.45000          -0.119254E-4        0.122052E-4
        18.46000          -0.114820E-4        0.142922E-4
        18.47000          -0.105689E-4        0.163962E-4
        18.48000          -0.917880E-5        0.183852E-4
        18.49000          -0.734762E-5        0.201344E-4
        18.50000          -0.514684E-5        0.215400E-4
        18.51000          -0.266627E-5        0.225284E-4
        18.52000          -0.399947E-8        0.230523E-4
        18.53000           0.274321E-5        0.230856E-4
        18.54000           0.547638E-5        0.226172E-4
        18.55000           0.809431E-5        0.216502E-4
        18.56000           0.104880E-4        0.202085E-4
        18.57000           0.125477E-4        0.183435E-4
        18.58000           0.141718E-4        0.161440E-4
        18.59000           0.152873E-4        0.137326E-4
        18.60000           0.158650E-4        0.112561E-4
        18.61000           0.159293E-4        0.886059E-5
        18.62000           0.155523E-4        0.667012E-5
        18.63000           0.148365E-4        0.476742E-5
        18.64000           0.138941E-4        0.319179E-5
        18.65000           0.128277E-4        0.194279E-5
        18.66000           0.117209E-4        0.993983E-6
        18.67000           0.106339E-4        0.304371E-6
        18.68000           0.960558E-5       -0.171918E-6
        18.69000           0.865830E-5       -0.478521E-6
        18.70000           0.780158E-5       -0.654185E-6
        18.71000           0.703733E-5       -0.731167E-6
        18.72000           0.636196E-5       -0.735575E-6
        18.73000           0.576963E-5       -0.687964E-6
        18.74000           0.525279E-5       -0.604292E-6
        18.75000           0.480390E-5       -0.496914E-6
        18.76000           0.441517E-5       -0.375275E-6
        18.77000           0.407941E-5       -0.246707E-6
        18.78000           0.378956E-5       -0.116758E-6
        18.79000           0.353904E-5        0.103495E-7
        18.80000           0.332136E-5        0.131775E-6
        18.81000           0.313050E-5        0.245851E-6
        18.82000           0.296076E-5        0.352294E-6
        18.83000           0.280733E-5        0.451984E-6
        18.84000           0.266646E-5        0.546860E-6
        18.85000           0.253583E-5        0.639346E-6
        18.86000           0.241446E-5        0.731894E-6
        18.87000           0.230258E-5        0.826391E-6
        18.88000           0.220099E-5        0.924007E-6
        18.89000           0.211083E-5        0.102505E-5
        18.90000           0.203311E-5        0.112927E-5
        18.91000           0.196866E-5        0.123596E-5
        18.92000           0.191801E-5        0.134424E-5
        18.93000           0.188157E-5        0.145316E-5
        18.94000           0.185962E-5        0.156180E-5
        18.95000           0.185245E-5        0.166917E-5
        18.96000           0.186040E-5        0.177432E-5
        18.97000           0.188394E-5        0.187611E-5
        18.98000           0.192364E-5        0.197328E-5
        18.99000           0.198016E-5        0.206417E-5
        19.00000           0.205425E-5        0.214675E-5
        19.01000           0.214653E-5        0.221833E-5
        19.02000           0.225741E-5        0.227556E-5
        19.03000           0.238673E-5        0.231422E-5
        19.04000           0.253333E-5        0.232921E-5
        19.05000           0.269463E-5        0.231470E-5
        19.06000           0.286586E-5        0.226450E-5
        19.07000           0.303962E-5        0.217283E-5
        19.08000           0.320543E-5        0.203561E-5
        19.09000           0.335026E-5        0.185201E-5
        19.10000           0.345969E-5        0.162615E-5
        19.11000           0.352038E-5        0.136784E-5
        19.12000           0.352288E-5        0.109231E-5
        19.13000           0.346413E-5        0.817704E-6
        19.14000           0.334826E-5        0.562099E-6
        19.15000           0.318551E-5        0.339861E-6
        19.16000           0.298972E-5        0.159952E-6
        19.17000           0.277526E-5        0.253518E-7
        19.18000           0.255492E-5       -0.656570E-7
        19.19000           0.233848E-5       -0.117960E-6
        19.20000           0.213275E-5       -0.137868E-6
        19.21000           0.194162E-5       -0.131937E-6
        19.22000           0.176701E-5       -0.106219E-6
        19.23000           0.160923E-5       -0.658795E-7
        19.24000           0.146777E-5       -0.151509E-7
        19.25000           0.134149E-5        0.426593E-7
        19.26000           0.122910E-5        0.104988E-6
        19.27000           0.112914E-5        0.169947E-6
        19.28000           0.104026E-5        0.236109E-6
        19.29000           0.961147E-6        0.302478E-6
        19.30000           0.890643E-6        0.368313E-6
        19.31000           0.827682E-6        0.433134E-6
        19.32000           0.771363E-6        0.496588E-6
        19.33000           0.720856E-6        0.558479E-6
        19.34000           0.675477E-6        0.618665E-6
        19.35000           0.634597E-6        0.677106E-6
        19.36000           0.597700E-6        0.733767E-6
        19.37000           0.564313E-6        0.788686E-6
        19.38000           0.534047E-6        0.841883E-6
        19.39000           0.506545E-6        0.893434E-6
        19.40000           0.481511E-6        0.943394E-6
        19.41000           0.458683E-6        0.991823E-6
        19.42000           0.437825E-6        0.103881E-5
        19.43000           0.418742E-6        0.108442E-5
        19.44000           0.401250E-6        0.112874E-5
        19.45000           0.385200E-6        0.117182E-5
        19.46000           0.370448E-6        0.121376E-5
        19.47000           0.356881E-6        0.125459E-5
        19.48000           0.344383E-6        0.129441E-5
        19.49000           0.332866E-6        0.133325E-5
        19.50000           0.322240E-6        0.137120E-5
        19.51000           0.312433E-6        0.140830E-5
        19.52000           0.303375E-6        0.144459E-5
        19.53000           0.295007E-6        0.148014E-5
        19.54000           0.287272E-6        0.151499E-5
        19.55000           0.280124E-6        0.154918E-5
        19.56000           0.273517E-6        0.158276E-5
        19.57000           0.267414E-6        0.161576E-5
        19.58000           0.261775E-6        0.164822E-5
        19.59000           0.256571E-6        0.168018E-5
        19.60000           0.251770E-6        0.171167E-5
        19.61000           0.247348E-6        0.174272E-5
        19.62000           0.243277E-6        0.177337E-5
        19.63000           0.239537E-6        0.180363E-5
        19.64000           0.236106E-6        0.183355E-5
        19.65000           0.232968E-6        0.186313E-5
        19.66000           0.230104E-6        0.189242E-5
        19.67000           0.227498E-6        0.192142E-5
        19.68000           0.225138E-6        0.195017E-5
        19.69000           0.223008E-6        0.197868E-5
        19.70000           0.221099E-6        0.200698E-5
        19.71000           0.219397E-6        0.203507E-5
        19.72000           0.217893E-6        0.206299E-5
        19.73000           0.216578E-6        0.209074E-5
        19.74000           0.215443E-6        0.211835E-5
        19.75000           0.214480E-6        0.214584E-5
        19.76000           0.213681E-6        0.217320E-5
        19.77000           0.213040E-6        0.220047E-5
        19.78000           0.212550E-6        0.222766E-5
        19.79000           0.212205E-6        0.225477E-5
        19.80000           0.212001E-6        0.228183E-5
        19.81000           0.211931E-6        0.230885E-5
        19.82000           0.211991E-6        0.233582E-5
        19.83000           0.212177E-6        0.236279E-5
        19.84000           0.212485E-6        0.238974E-5
        19.85000           0.212910E-6        0.241670E-5
        19.86000           0.213450E-6        0.244367E-5
        19.87000           0.214101E-6        0.247067E-5
        19.88000           0.214860E-6        0.249770E-5
        19.89000           0.215724E-6        0.252479E-5
        19.90000           0.216691E-6        0.255192E-5
        19.91000           0.217757E-6        0.257912E-5
        19.92000           0.218920E-6        0.260640E-5
        19.93000           0.220178E-6        0.263376E-5
        19.94000           0.221528E-6        0.266121E-5
        19.95000           0.222969E-6        0.268877E-5
        19.96000           0.224497E-6        0.271643E-5
        19.97000           0.226111E-6        0.274422E-5
        19.98000           0.227808E-6        0.277213E-5
        19.99000           0.229587E-6        0.280019E-5
        20.00000           0.231443E-6        0.282838E-5
# 
# 11/10/2023 at 10:04 yambo @ unimi-XPS-8930 [start]
# 11/10/2023 at 10:05                        [end]
#
# .-Input file  yambo.in
# | rim_cut                          # [R] Coulomb potential
# | optics                           # [R] Linear Response optical properties
# | dipoles                          # [R] Oscillator strenghts (or dipoles)
# | bse                              # [R][BSE] Bethe Salpeter Equation.
# | ElecTemp= 0.025861         eV    # Electronic Temperature
# | BoseTemp= 0.025861         eV    # Bosonic Temperature
# | DIP_Threads= 1                   # [OPENMP/X] Number of threads for dipoles
# | BS_nCPU_LinAlg_INV= 1            # [PARALLEL] CPUs for Linear Algebra (if -1 it is automatically set)
# | BS_nCPU_LinAlg_DIAGO= 1          # [PARALLEL] CPUs for Linear Algebra (if -1 it is automatically set)
# | X_Threads= 1                     # [OPENMP/X] Number of threads for response functions
# | K_Threads= 1                     # [OPENMP/BSK] Number of threads for response functions
# | RandQpts=0                       # [RIM] Number of random q-points in the BZ
# | RandGvec= 1                RL    # [RIM] Coulomb interaction RS components
# | CUTGeo= "ws xyz"                 # [CUT] Coulomb Cutoff geometry: box/cylinder/sphere/ws/slab X/Y/Z/XY..
# | % CUTBox
# |  0.000000 | 0.000000 | 0.000000 |        # [CUT] [au] Box sides
# | %
# | CUTRadius= 0.000000              # [CUT] [au] Sphere/Cylinder radius
# | CUTCylLen= 0.000000              # [CUT] [au] Cylinder length
# | CUTwsGvec= 0.700000              # [CUT] WS cutoff: number of G to be modified
# | BSKmod= "IP"                     # [BSE] IP/Hartree/HF/ALDA/SEX/BSfxc
# | BSEmod= "retarded"               # [BSE] resonant/retarded/coupling
# | Lkind= "Lbar"                    # [BSE,X] bar(default)/full
# | DipBandsALL                    # [DIP] Compute all bands range, not only valence and conduction
# | DipComputed= "R V P"             # [DIP] [default R P V; extra P2 Spin Orb]
# | DbGdQsize= 1.000000              # [X,DbGd][o/o] Percentual of the total DbGd transitions to be used
# | BSENGexx= 20395            RL    # [BSK] Exchange components
# | % BSEQptR
# |  1 | 1 |                             # [BSK] Transferred momenta range
# | %
# | % BSEBands
# |   1 | 20 |                           # [BSK] Bands range
# | %
# | % BEnRange
# |   0.00000 | 20.00000 |         eV    # [BSS] Energy range
# | %
# | % BDmRange
# |  0.100000 | 0.100000 |         eV    # [BSS] Damping range
# | %
# | BEnSteps= 2001                   # [BSS] Energy steps
# | % BLongDir
# |  0.100000E-4 |  0.00000    |  0.00000    # [BSS] [cc] Electric Field
# | %
# | BSEprop= "abs dichr jdos"        # [BSS] Can be any among abs/jdos/kerr/magn/dich/photolum/esrt
# | BSEdips= "none"                  # [BSS] Can be "trace/none" or "xy/xz/yz" to define off-diagonal rotation plane
