#                                                                     
#   __   __     _        __  __       ____      U  ___  u             
#   \ \ / / U  /"\  U u |" \/ "| u U | __") u    \/"_ \/              
#    \ V /   \/ _ \/   \| |\/| |/   \|  _ \/     | | | |              
#   U_|"|_u  / ___ \    | |  | |     | |_) | .-,_| |_| |              
#     |_|   /_/   \_\   |_|  |_|     |____/   \_)-\___/               
# .-,//|(_   \\    >>  <<,-,,-.     _|| \\_        \\                 
#  \_) (__) (__)  (__)  (./  \.)   (__) (__)      (__)                
#                                                                     
#                                                                     
# Version 5.2.0 Revision 22368 Hash (prev commit) b42959ab6a          
#                    Branch is develop                                
#         MPI+OpenMP+SLK+SLEPC+HDF5_MPI_IO Build                      
#                http://www.yambo-code.org                            
#
# Absorption @ Q(1):  0.999999975E-5   0.00000000      0.00000000    [q->0 direction]
#
# [GEN] GF Energies                               : Perdew, Burke & Ernzerhof(X)+Perdew, Burke & Ernzerhof(C)
# [GEN] Green`s Function                          : Retarded
#
# [GEN] Gauge                                     : Length
# [GEN] [r,Vnl] included                          : yes
#
# DIP band range                                  :   1  20
# DIP band range limits                           :  20   1
# DIP e/h energy range                            :  -1.00000000     -1.00000000    [eV]
# RL vectors in the sum                           :  2637
# [r,Vnl] included                                : yes
# Bands ordered                                   : no
# Direct v evaluation                             : no
# Approach used                                   : G-space v
# Dipoles computed                                : R V P
# Wavefunctions                                   : Perdew, Burke & Ernzerhof(X)+Perdew, Burke & Ernzerhof(C)
#
# Diamagnetic term                                
# Ao                                              :  -8.00000000    [nel]
#
#    E[1] [eV]          Im(eps)            Re(eps)
#
        0.000000           0.000000           1.000000
        0.010000           0.54706E-13        1.000000
        0.020000           0.10941E-12        1.000000
        0.030000           0.16412E-12        1.000000
        0.040000           0.21884E-12        1.000000
        0.050000           0.27356E-12        1.000000
        0.060000           0.32829E-12        1.000000
        0.070000           0.38302E-12        1.000000
        0.080000           0.43777E-12        1.000000
        0.090000           0.49253E-12        1.000000
        0.100000           0.54731E-12        1.000000
        0.110000           0.60210E-12        1.000000
        0.120000           0.65690E-12        1.000000
        0.130000           0.71172E-12        1.000000
        0.140000           0.76657E-12        1.000000
        0.150000           0.82143E-12        1.000000
        0.160000           0.87632E-12        1.000000
        0.170000           0.93123E-12        1.000000
        0.180000           0.98617E-12        1.000000
        0.190000           0.10411E-11        1.000000
        0.200000           0.10961E-11        1.000000
        0.210000           0.11512E-11        1.000000
        0.220000           0.12062E-11        1.000000
        0.230000           0.12613E-11        1.000000
        0.240000           0.13164E-11        1.000000
        0.250000           0.13716E-11        1.000000
        0.260000           0.14268E-11        1.000000
        0.270000           0.14820E-11        1.000000
        0.280000           0.15373E-11        1.000000
        0.290000           0.15926E-11        1.000000
        0.300000           0.16480E-11        1.000000
        0.310000           0.17034E-11        1.000000
        0.320000           0.17589E-11        1.000000
        0.330000           0.18144E-11        1.000000
        0.340000           0.18699E-11        1.000000
        0.350000           0.19256E-11        1.000000
        0.360000           0.19812E-11        1.000000
        0.370000           0.20369E-11        1.000000
        0.380000           0.20927E-11        1.000000
        0.390000           0.21486E-11        1.000000
        0.400000           0.22045E-11        1.000000
        0.410000           0.22604E-11        1.000000
        0.420000           0.23164E-11        1.000000
        0.430000           0.23725E-11        1.000000
        0.440000           0.24287E-11        1.000000
        0.450000           0.24849E-11        1.000000
        0.460000           0.25412E-11        1.000000
        0.470000           0.25976E-11        1.000000
        0.480000           0.26540E-11        1.000000
        0.490000           0.27105E-11        1.000000
        0.500000           0.27671E-11        1.000000
        0.510000           0.28238E-11        1.000000
        0.520000           0.28805E-11        1.000000
        0.530000           0.29374E-11        1.000000
        0.540000           0.29943E-11        1.000000
        0.550000           0.30513E-11        1.000000
        0.560000           0.31083E-11        1.000000
        0.570000           0.31655E-11        1.000000
        0.580000           0.32228E-11        1.000000
        0.590000           0.32801E-11        1.000000
        0.600000           0.33376E-11        1.000000
        0.610000           0.33951E-11        1.000000
        0.620000           0.34528E-11        1.000000
        0.630000           0.35105E-11        1.000000
        0.640000           0.35683E-11        1.000000
        0.650000           0.36263E-11        1.000000
        0.660000           0.36843E-11        1.000000
        0.670000           0.37425E-11        1.000000
        0.680000           0.38007E-11        1.000000
        0.690000           0.38591E-11        1.000000
        0.700000           0.39176E-11        1.000000
        0.710000           0.39762E-11        1.000000
        0.720000           0.40349E-11        1.000000
        0.730000           0.40937E-11        1.000000
        0.740000           0.41526E-11        1.000000
        0.750000           0.42117E-11        1.000000
        0.760000           0.42709E-11        1.000000
        0.770000           0.43302E-11        1.000000
        0.780000           0.43896E-11        1.000000
        0.790000           0.44492E-11        1.000000
        0.800000           0.45089E-11        1.000000
        0.810000           0.45687E-11        1.000000
        0.820000           0.46287E-11        1.000000
        0.830000           0.46888E-11        1.000000
        0.840000           0.47490E-11        1.000000
        0.850000           0.48094E-11        1.000000
        0.860000           0.48699E-11        1.000000
        0.870000           0.49305E-11        1.000000
        0.880000           0.49913E-11        1.000000
        0.890000           0.50523E-11        1.000000
        0.900000           0.51134E-11        1.000000
        0.910000           0.51746E-11        1.000000
        0.920000           0.52360E-11        1.000000
        0.930000           0.52976E-11        1.000000
        0.940000           0.53593E-11        1.000000
        0.950000           0.54212E-11        1.000000
        0.960000           0.54832E-11        1.000000
        0.970000           0.55454E-11        1.000000
        0.980000           0.56078E-11        1.000000
        0.990000           0.56704E-11        1.000000
        1.000000           0.57331E-11        1.000000
        1.010000           0.57959E-11        1.000000
        1.020000           0.58590E-11        1.000000
        1.030000           0.59222E-11        1.000000
        1.040000           0.59857E-11        1.000000
        1.050000           0.60492E-11        1.000000
        1.060000           0.61130E-11        1.000000
        1.070000           0.61770E-11        1.000000
        1.080000           0.62412E-11        1.000000
        1.090000           0.63055E-11        1.000000
        1.100000           0.63700E-11        1.000000
        1.110000           0.64348E-11        1.000000
        1.120000           0.64997E-11        1.000000
        1.130000           0.65648E-11        1.000000
        1.140000           0.66302E-11        1.000000
        1.150000           0.66957E-11        1.000000
        1.160000           0.67615E-11        1.000000
        1.170000           0.68274E-11        1.000000
        1.180000           0.68936E-11        1.000000
        1.190000           0.69600E-11        1.000000
        1.200000           0.70266E-11        1.000000
        1.210000           0.70934E-11        1.000000
        1.220000           0.71605E-11        1.000000
        1.230000           0.72277E-11        1.000000
        1.240000           0.72952E-11        1.000000
        1.250000           0.73630E-11        1.000000
        1.260000           0.74309E-11        1.000000
        1.270000           0.74991E-11        1.000000
        1.280000           0.75676E-11        1.000000
        1.290000           0.76363E-11        1.000000
        1.300000           0.77052E-11        1.000000
        1.310000           0.77743E-11        1.000000
        1.320000           0.78438E-11        1.000000
        1.330000           0.79134E-11        1.000000
        1.340000           0.79834E-11        1.000000
        1.350000           0.80536E-11        1.000000
        1.360000           0.81240E-11        1.000000
        1.370000           0.81947E-11        1.000000
        1.380000           0.82657E-11        1.000000
        1.390000           0.83370E-11        1.000000
        1.400000           0.84085E-11        1.000000
        1.410000           0.84803E-11        1.000000
        1.420000           0.85524E-11        1.000000
        1.430000           0.86247E-11        1.000000
        1.440000           0.86974E-11        1.000000
        1.450000           0.87703E-11        1.000000
        1.460000           0.88435E-11        1.000000
        1.470000           0.89170E-11        1.000000
        1.480000           0.89908E-11        1.000000
        1.490000           0.90650E-11        1.000000
        1.500000           0.91394E-11        1.000000
        1.510000           0.92141E-11        1.000000
        1.520000           0.92892E-11        1.000000
        1.530000           0.93645E-11        1.000000
        1.540000           0.94402E-11        1.000000
        1.550000           0.95162E-11        1.000000
        1.560000           0.95925E-11        1.000000
        1.570000           0.96692E-11        1.000000
        1.580000           0.97461E-11        1.000000
        1.590000           0.98234E-11        1.000000
        1.600000           0.99011E-11        1.000000
        1.610000           0.99791E-11        1.000000
        1.620000           0.10057E-10        1.000000
        1.630000           0.10136E-10        1.000000
        1.640000           0.10215E-10        1.000000
        1.650000           0.10295E-10        1.000000
        1.660000           0.10374E-10        1.000000
        1.670000           0.10455E-10        1.000000
        1.680000           0.10535E-10        1.000000
        1.690000           0.10616E-10        1.000000
        1.700000           0.10697E-10        1.000000
        1.710000           0.10779E-10        1.000000
        1.720000           0.10861E-10        1.000000
        1.730000           0.10943E-10        1.000000
        1.740000           0.11026E-10        1.000000
        1.750000           0.11109E-10        1.000000
        1.760000           0.11193E-10        1.000000
        1.770000           0.11277E-10        1.000000
        1.780000           0.11361E-10        1.000000
        1.790000           0.11446E-10        1.000000
        1.800000           0.11531E-10        1.000000
        1.810000           0.11617E-10        1.000000
        1.820000           0.11703E-10        1.000000
        1.830000           0.11790E-10        1.000000
        1.840000           0.11877E-10        1.000000
        1.850000           0.11964E-10        1.000000
        1.860000           0.12052E-10        1.000000
        1.870000           0.12140E-10        1.000000
        1.880000           0.12229E-10        1.000000
        1.890000           0.12318E-10        1.000000
        1.900000           0.12408E-10        1.000000
        1.910000           0.12498E-10        1.000000
        1.920000           0.12589E-10        1.000000
        1.930000           0.12680E-10        1.000000
        1.940000           0.12772E-10        1.000000
        1.950000           0.12864E-10        1.000000
        1.960000           0.12957E-10        1.000000
        1.970000           0.13050E-10        1.000000
        1.980000           0.13143E-10        1.000000
        1.990000           0.13238E-10        1.000000
        2.000000           0.13332E-10        1.000000
        2.010000           0.13427E-10        1.000000
        2.020000           0.13523E-10        1.000000
        2.030000           0.13619E-10        1.000000
        2.040000           0.13716E-10        1.000000
        2.050000           0.13814E-10        1.000000
        2.060000           0.13912E-10        1.000000
        2.070000           0.14010E-10        1.000000
        2.080000           0.14109E-10        1.000000
        2.090000           0.14209E-10        1.000000
        2.100000           0.14309E-10        1.000000
        2.110000           0.14410E-10        1.000000
        2.120000           0.14511E-10        1.000000
        2.130000           0.14613E-10        1.000000
        2.140000           0.14716E-10        1.000000
        2.150000           0.14819E-10        1.000000
        2.160000           0.14923E-10        1.000000
        2.170000           0.15028E-10        1.000000
        2.180000           0.15133E-10        1.000000
        2.190000           0.15238E-10        1.000000
        2.200000           0.15345E-10        1.000000
        2.210000           0.15452E-10        1.000000
        2.220000           0.15560E-10        1.000000
        2.230000           0.15668E-10        1.000000
        2.240000           0.15777E-10        1.000000
        2.250000           0.15887E-10        1.000000
        2.260000           0.15997E-10        1.000000
        2.270000           0.16108E-10        1.000000
        2.280000           0.16220E-10        1.000000
        2.290000           0.16333E-10        1.000000
        2.300000           0.16446E-10        1.000000
        2.310000           0.16560E-10        1.000000
        2.320000           0.16675E-10        1.000000
        2.330000           0.16791E-10        1.000000
        2.340000           0.16907E-10        1.000000
        2.350000           0.17024E-10        1.000000
        2.360000           0.17142E-10        1.000000
        2.370000           0.17260E-10        1.000000
        2.380000           0.17380E-10        1.000000
        2.390000           0.17500E-10        1.000000
        2.400000           0.17621E-10        1.000000
        2.410000           0.17743E-10        1.000000
        2.420000           0.17866E-10        1.000000
        2.430000           0.17989E-10        1.000000
        2.440000           0.18114E-10        1.000000
        2.450000           0.18239E-10        1.000000
        2.460000           0.18365E-10        1.000000
        2.470000           0.18492E-10        1.000000
        2.480000           0.18620E-10        1.000000
        2.490000           0.18749E-10        1.000000
        2.500000           0.18879E-10        1.000000
        2.510000           0.19009E-10        1.000000
        2.520000           0.19141E-10        1.000000
        2.530000           0.19274E-10        1.000000
        2.540000           0.19407E-10        1.000000
        2.550000           0.19542E-10        1.000000
        2.560000           0.19677E-10        1.000000
        2.570000           0.19814E-10        1.000000
        2.580000           0.19951E-10        1.000000
        2.590000           0.20090E-10        1.000000
        2.600000           0.20229E-10        1.000000
        2.610000           0.20370E-10        1.000000
        2.620000           0.20511E-10        1.000000
        2.630000           0.20654E-10        1.000000
        2.640000           0.20798E-10        1.000000
        2.650000           0.20943E-10        1.000000
        2.660000           0.21089E-10        1.000000
        2.670000           0.21236E-10        1.000000
        2.680000           0.21384E-10        1.000000
        2.690000           0.21533E-10        1.000000
        2.700000           0.21684E-10        1.000000
        2.710000           0.21836E-10        1.000000
        2.720000           0.21989E-10        1.000000
        2.730000           0.22143E-10        1.000000
        2.740000           0.22298E-10        1.000000
        2.750000           0.22455E-10        1.000000
        2.760000           0.22613E-10        1.000000
        2.770000           0.22772E-10        1.000000
        2.780000           0.22932E-10        1.000000
        2.790000           0.23094E-10        1.000000
        2.800000           0.23257E-10        1.000000
        2.810000           0.23422E-10        1.000000
        2.820000           0.23588E-10        1.000000
        2.830000           0.23755E-10        1.000000
        2.840000           0.23923E-10        1.000000
        2.850000           0.24093E-10        1.000000
        2.860000           0.24265E-10        1.000000
        2.870000           0.24438E-10        1.000000
        2.880000           0.24612E-10        1.000000
        2.890000           0.24788E-10        1.000000
        2.900000           0.24965E-10        1.000000
        2.910000           0.25144E-10        1.000000
        2.920000           0.25324E-10        1.000000
        2.930000           0.25506E-10        1.000000
        2.940000           0.25690E-10        1.000000
        2.950000           0.25875E-10        1.000000
        2.960000           0.26062E-10        1.000000
        2.970000           0.26250E-10        1.000000
        2.980000           0.26440E-10        1.000000
        2.990000           0.26632E-10        1.000000
        3.000000           0.26826E-10        1.000000
        3.010000           0.27021E-10        1.000000
        3.020000           0.27218E-10        1.000000
        3.030000           0.27417E-10        1.000000
        3.040000           0.27618E-10        1.000000
        3.050000           0.27821E-10        1.000000
        3.060000           0.28025E-10        1.000000
        3.070000           0.28231E-10        1.000000
        3.080000           0.28440E-10        1.000000
        3.090000           0.28650E-10        1.000000
        3.100000           0.28862E-10        1.000000
        3.110000           0.29076E-10        1.000000
        3.120000           0.29293E-10        1.000000
        3.130000           0.29511E-10        1.000000
        3.140000           0.29732E-10        1.000000
        3.150000           0.29954E-10        1.000000
        3.160000           0.30179E-10        1.000000
        3.170000           0.30406E-10        1.000000
        3.180000           0.30635E-10        1.000000
        3.190000           0.30866E-10        1.000000
        3.200000           0.31100E-10        1.000000
        3.210000           0.31336E-10        1.000000
        3.220000           0.31575E-10        1.000000
        3.230000           0.31815E-10        1.000000
        3.240000           0.32059E-10        1.000000
        3.250000           0.32304E-10        1.000000
        3.260000           0.32553E-10        1.000000
        3.270000           0.32803E-10        1.000000
        3.280000           0.33057E-10        1.000000
        3.290000           0.33313E-10        1.000000
        3.300000           0.33571E-10        1.000000
        3.310000           0.33833E-10        1.000000
        3.320000           0.34097E-10        1.000000
        3.330000           0.34364E-10        1.000000
        3.340000           0.34634E-10        1.000000
        3.350000           0.34906E-10        1.000000
        3.360000           0.35182E-10        1.000000
        3.370000           0.35460E-10        1.000000
        3.380000           0.35742E-10        1.000000
        3.390000           0.36026E-10        1.000000
        3.400000           0.36314E-10        1.000000
        3.410000           0.36605E-10        1.000000
        3.420000           0.36899E-10        1.000000
        3.430000           0.37196E-10        1.000000
        3.440000           0.37497E-10        1.000000
        3.450000           0.37801E-10        1.000000
        3.460000           0.38109E-10        1.000000
        3.470000           0.38420E-10        1.000000
        3.480000           0.38734E-10        1.000000
        3.490000           0.39052E-10        1.000000
        3.500000           0.39374E-10        1.000000
        3.510000           0.39700E-10        1.000000
        3.520000           0.40029E-10        1.000000
        3.530000           0.40362E-10        1.000000
        3.540000           0.40700E-10        1.000000
        3.550000           0.41041E-10        1.000000
        3.560000           0.41386E-10        1.000000
        3.570000           0.41735E-10        1.000000
        3.580000           0.42089E-10        1.000000
        3.590000           0.42447E-10        1.000000
        3.600000           0.42809E-10        1.000000
        3.610000           0.43176E-10        1.000000
        3.620000           0.43547E-10        1.000000
        3.630000           0.43922E-10        1.000000
        3.640000           0.44303E-10        1.000000
        3.650000           0.44688E-10        1.000000
        3.660000           0.45078E-10        1.000000
        3.670000           0.45473E-10        1.000000
        3.680000           0.45873E-10        1.000000
        3.690000           0.46278E-10        1.000000
        3.700000           0.46688E-10        1.000000
        3.710000           0.47104E-10        1.000000
        3.720000           0.47525E-10        1.000000
        3.730000           0.47952E-10        1.000000
        3.740000           0.48384E-10        1.000000
        3.750000           0.48822E-10        1.000000
        3.760000           0.49265E-10        1.000000
        3.770000           0.49715E-10        1.000000
        3.780000           0.50171E-10        1.000000
        3.790000           0.50633E-10        1.000000
        3.800000           0.51101E-10        1.000000
        3.810000           0.51576E-10        1.000000
        3.820000           0.52057E-10        1.000000
        3.830000           0.52545E-10        1.000000
        3.840000           0.53040E-10        1.000000
        3.850000           0.53541E-10        1.000000
        3.860000           0.54050E-10        1.000000
        3.870000           0.54566E-10        1.000000
        3.880000           0.55089E-10        1.000000
        3.890000           0.55620E-10        1.000000
        3.900000           0.56159E-10        1.000000
        3.910000           0.56706E-10        1.000000
        3.920000           0.57260E-10        1.000000
        3.930000           0.57823E-10        1.000000
        3.940000           0.58394E-10        1.000000
        3.950000           0.58974E-10        1.000000
        3.960000           0.59562E-10        1.000000
        3.970000           0.60159E-10        1.000000
        3.980000           0.60766E-10        1.000000
        3.990000           0.61382E-10        1.000000
        4.000000           0.62007E-10        1.000000
        4.010000           0.62642E-10        1.000000
        4.020000           0.63287E-10        1.000000
        4.030000           0.63942E-10        1.000000
        4.040000           0.64608E-10        1.000000
        4.050000           0.65284E-10        1.000000
        4.060000           0.65971E-10        1.000000
        4.070000           0.66669E-10        1.000000
        4.080000           0.67379E-10        1.000000
        4.090000           0.68100E-10        1.000000
        4.100000           0.68833E-10        1.000000
        4.110000           0.69579E-10        1.000000
        4.120000           0.70337E-10        1.000000
        4.130000           0.71108E-10        1.000000
        4.140000           0.71892E-10        1.000000
        4.150000           0.72689E-10        1.000000
        4.160000           0.73500E-10        1.000000
        4.170000           0.74326E-10        1.000000
        4.180000           0.75166E-10        1.000000
        4.190000           0.76020E-10        1.000000
        4.200000           0.76890E-10        1.000000
        4.210000           0.77776E-10        1.000000
        4.220000           0.78677E-10        1.000000
        4.230000           0.79595E-10        1.000000
        4.240000           0.80530E-10        1.000000
        4.250000           0.81482E-10        1.000000
        4.260000           0.82452E-10        1.000000
        4.270000           0.83440E-10        1.000000
        4.280000           0.84447E-10        1.000000
        4.290000           0.85473E-10        1.000000
        4.300000           0.86519E-10        1.000000
        4.310000           0.87585E-10        1.000000
        4.320000           0.88672E-10        1.000000
        4.330000           0.89781E-10        1.000000
        4.340000           0.90911E-10        1.000000
        4.350000           0.92065E-10        1.000000
        4.360000           0.93241E-10        1.000000
        4.370000           0.94442E-10        1.000000
        4.380000           0.95668E-10        1.000000
        4.390000           0.96919E-10        1.000000
        4.400000           0.98196E-10        1.000000
        4.410000           0.99500E-10        1.000000
        4.420000           0.10083E-09        1.000000
        4.430000           0.10219E-09        1.000000
        4.440000           0.10358E-09        1.000000
        4.450000           0.10500E-09        1.000000
        4.460000           0.10646E-09        1.000000
        4.470000           0.10794E-09        1.000000
        4.480000           0.10946E-09        1.000000
        4.490000           0.11101E-09        1.000000
        4.500000           0.11260E-09        1.000000
        4.510000           0.11423E-09        1.000000
        4.520000           0.11589E-09        1.000000
        4.530000           0.11760E-09        1.000000
        4.540000           0.11934E-09        1.000000
        4.550000           0.12113E-09        1.000000
        4.560000           0.12296E-09        1.000000
        4.570000           0.12484E-09        1.000000
        4.580000           0.12676E-09        1.000000
        4.590000           0.12873E-09        1.000000
        4.600000           0.13075E-09        1.000000
        4.610000           0.13283E-09        1.000000
        4.620000           0.13495E-09        1.000000
        4.630000           0.13714E-09        1.000000
        4.640000           0.13938E-09        1.000000
        4.650000           0.14169E-09        1.000000
        4.660000           0.14405E-09        1.000000
        4.670000           0.14648E-09        1.000000
        4.680000           0.14899E-09        1.000000
        4.690000           0.15156E-09        1.000000
        4.700000           0.15420E-09        1.000000
        4.710000           0.15692E-09        1.000000
        4.720000           0.15973E-09        1.000000
        4.730000           0.16261E-09        1.000000
        4.740000           0.16559E-09        1.000000
        4.750000           0.16865E-09        1.000000
        4.760000           0.17181E-09        1.000000
        4.770000           0.17507E-09        1.000000
        4.780000           0.17843E-09        1.000000
        4.790000           0.18191E-09        1.000000
        4.800000           0.18549E-09        1.000000
        4.810000           0.18920E-09        1.000000
        4.820000           0.19303E-09        1.000000
        4.830000           0.19699E-09        1.000000
        4.840000           0.20109E-09        1.000000
        4.850000           0.20534E-09        1.000000
        4.860000           0.20974E-09        1.000000
        4.870000           0.21429E-09        1.000000
        4.880000           0.21902E-09        1.000000
        4.890000           0.22393E-09        1.000000
        4.900000           0.22902E-09        1.000000
        4.910000           0.23431E-09        1.000000
        4.920000           0.23981E-09        1.000000
        4.930000           0.24554E-09        1.000000
        4.940000           0.25150E-09        1.000000
        4.950000           0.25770E-09        1.000000
        4.960000           0.26418E-09        1.000000
        4.970000           0.27093E-09        1.000000
        4.980000           0.27798E-09        1.000000
        4.990000           0.28535E-09        1.000000
        5.000000           0.29305E-09        1.000000
        5.010000           0.30112E-09        1.000000
        5.020000           0.30958E-09        1.000000
        5.030000           0.31845E-09        1.000000
        5.040000           0.32776E-09        1.000000
        5.050000           0.33754E-09        1.000000
        5.060000           0.34783E-09        1.000000
        5.070000           0.35868E-09        1.000000
        5.080000           0.37011E-09        1.000000
        5.090000           0.38218E-09        1.000000
        5.100000           0.39494E-09        1.000000
        5.110000           0.40844E-09        1.000000
        5.120000           0.42275E-09        1.000000
        5.130000           0.43794E-09        1.000000
        5.140000           0.45409E-09        1.000000
        5.150000           0.47128E-09        1.000000
        5.160000           0.48961E-09        1.000000
        5.170000           0.50918E-09        1.000000
        5.180000           0.53013E-09        1.000000
        5.190000           0.55257E-09        1.000000
        5.200000           0.57668E-09        1.000000
        5.210000           0.60262E-09        1.000000
        5.220000           0.63058E-09        1.000000
        5.230000           0.66080E-09        1.000000
        5.240000           0.69352E-09        1.000000
        5.250000           0.72903E-09        1.000000
        5.260000           0.76766E-09        1.000000
        5.270000           0.80979E-09        1.000000
        5.280000           0.85585E-09        1.000000
        5.290000           0.90634E-09        1.000000
        5.300000           0.96182E-09        1.000000
        5.310000           0.102297E-8        1.000000
        5.320000           0.109052E-8        1.000000
        5.330000           0.116536E-8        1.000000
        5.340000           0.124847E-8        1.000000
        5.350000           0.134101E-8        1.000000
        5.360000           0.144426E-8        1.000000
        5.370000           0.155967E-8        1.000000
        5.380000           0.168887E-8        1.000000
        5.390000           0.183357E-8        1.000000
        5.400000           0.199561E-8        1.000000
        5.410000           0.217674E-8        1.000000
        5.420000           0.237850E-8        1.000000
        5.430000           0.260189E-8        1.000000
        5.440000           0.284692E-8        1.000000
        5.450000           0.311197E-8        1.000000
        5.460000           0.339298E-8        1.000000
        5.470000           0.368259E-8        1.000000
        5.480000           0.396944E-8        1.000000
        5.490000           0.423800E-8        1.000000
        5.500000           0.446955E-8        1.000000
        5.510000           0.464459E-8        1.000000
        5.520000           0.474646E-8        1.000000
        5.530000           0.476527E-8        1.000000
        5.540000           0.470056E-8        1.000000
        5.550000           0.456142E-8        1.000000
        5.560000           0.436407E-8        1.000000
        5.570000           0.412799E-8        1.000000
        5.580000           0.387221E-8        1.000000
        5.590000           0.361274E-8        1.000000
        5.600000           0.336149E-8        1.000000
        5.610000           0.312631E-8        1.000000
        5.620000           0.291165E-8        1.000000
        5.630000           0.271947E-8        1.000000
        5.640000           0.255002E-8        1.000000
        5.650000           0.240249E-8        1.000000
        5.660000           0.227554E-8        1.000000
        5.670000           0.216756E-8        1.000000
        5.680000           0.207689E-8        1.000000
        5.690000           0.200197E-8        1.000000
        5.700000           0.194137E-8        1.000000
        5.710000           0.189383E-8        1.000000
        5.720000           0.185827E-8        1.000000
        5.730000           0.183379E-8        1.000000
        5.740000           0.181967E-8        1.000000
        5.750000           0.181534E-8        1.000000
        5.760000           0.182038E-8        1.000000
        5.770000           0.183453E-8        1.000000
        5.780000           0.185763E-8        1.000000
        5.790000           0.188968E-8        1.000000
        5.800000           0.193080E-8        1.000000
        5.810000           0.198122E-8        1.000000
        5.820000           0.204133E-8        1.000000
        5.830000           0.211162E-8        1.000000
        5.840000           0.219276E-8        1.000000
        5.850000           0.228556E-8        1.000000
        5.860000           0.239100E-8        1.000000
        5.870000           0.251028E-8        1.000000
        5.880000           0.264480E-8        1.000000
        5.890000           0.279620E-8        1.000000
        5.900000           0.296644E-8        1.000000
        5.910000           0.315776E-8        1.000000
        5.920000           0.337282E-8        1.000000
        5.930000           0.361466E-8        1.000000
        5.940000           0.388682E-8        1.000000
        5.950000           0.419339E-8        1.000000
        5.960000           0.453900E-8        1.000000
        5.970000           0.492892E-8        1.000000
        5.980000           0.536904E-8        1.000000
        5.990000           0.586578E-8        1.000000
        6.000000           0.642595E-8        1.000000
        6.010000           0.705639E-8        1.000000
        6.020000           0.776335E-8        1.000000
        6.030000           0.855154E-8        1.000000
        6.040000           0.942252E-8        1.000000
        6.050000           0.103726E-7        1.000000
        6.060000           0.113899E-7        1.000000
        6.070000           0.124510E-7        1.000000
        6.080000           0.135180E-7        1.000000
        6.090000           0.145367E-7        1.000000
        6.100000           0.154386E-7        1.000000
        6.110000           0.161483E-7        1.000000
        6.120000           0.165954E-7        1.000000
        6.130000           0.167307E-7        1.000000
        6.140000           0.165380E-7        1.000000
        6.150000           0.160392E-7        1.000000
        6.160000           0.152881E-7        1.000000
        6.170000           0.143565E-7        1.000000
        6.180000           0.133198E-7        1.000000
        6.190000           0.122442E-7        1.000000
        6.200000           0.111815E-7        1.000000
        6.210000           0.101670E-7        1.000000
        6.220000           0.922222E-8        1.000000
        6.230000           0.835735E-8        1.000000
        6.240000           0.757508E-8        1.000000
        6.250000           0.687320E-8        1.000000
        6.260000           0.624664E-8        1.000000
        6.270000           0.568898E-8        1.000000
        6.280000           0.519330E-8        1.000000
        6.290000           0.475280E-8        1.000000
        6.300000           0.436110E-8        1.000000
        6.310000           0.401234E-8        1.000000
        6.320000           0.370134E-8        1.000000
        6.330000           0.342346E-8        1.000000
        6.340000           0.317465E-8        1.000000
        6.350000           0.295141E-8        1.000000
        6.360000           0.275064E-8        1.000000
        6.370000           0.256970E-8        1.000000
        6.380000           0.240628E-8        1.000000
        6.390000           0.225838E-8        1.000000
        6.400000           0.212427E-8        1.000000
        6.410000           0.200244E-8        1.000000
        6.420000           0.189157E-8        1.000000
        6.430000           0.179055E-8        1.000000
        6.440000           0.169836E-8        1.000000
        6.450000           0.161416E-8        1.000000
        6.460000           0.153720E-8        1.000000
        6.470000           0.146680E-8        1.000000
        6.480000           0.140242E-8        1.000000
        6.490000           0.134355E-8        1.000000
        6.500000           0.128977E-8        1.000000
        6.510000           0.124071E-8        1.000000
        6.520000           0.119607E-8        1.000000
        6.530000           0.115557E-8        1.000000
        6.540000           0.111900E-8        1.000000
        6.550000           0.108619E-8        1.000000
        6.560000           0.105702E-8        1.000000
        6.570000           0.103139E-8        1.000000
        6.580000           0.100925E-8        1.000000
        6.590000           0.99062E-09        1.000000
        6.600000           0.97551E-09        1.000000
        6.610000           0.96403E-09        1.000000
        6.620000           0.95628E-09        1.000000
        6.630000           0.95243E-09        1.000000
        6.640000           0.95271E-09        1.000000
        6.650000           0.95735E-09        1.000000
        6.660000           0.96662E-09        1.000000
        6.670000           0.98078E-09        1.000000
        6.680000           0.100004E-8        1.000000
        6.690000           0.102452E-8        1.000000
        6.700000           0.105411E-8        1.000000
        6.710000           0.108839E-8        1.000000
        6.720000           0.112643E-8        1.000000
        6.730000           0.116662E-8        1.000000
        6.740000           0.120658E-8        1.000000
        6.750000           0.124309E-8        1.000000
        6.760000           0.127235E-8        1.000000
        6.770000           0.129046E-8        1.000000
        6.780000           0.129421E-8        1.000000
        6.790000           0.128178E-8        1.000000
        6.800000           0.125326E-8        1.000000
        6.810000           0.121060E-8        1.000000
        6.820000           0.115711E-8        1.000000
        6.830000           0.109662E-8        1.000000
        6.840000           0.103283E-8        1.000000
        6.850000           0.96879E-09        1.000000
        6.860000           0.90674E-09        1.000000
        6.870000           0.84812E-09        1.000000
        6.880000           0.79371E-09        1.000000
        6.890000           0.74382E-09        1.000000
        6.900000           0.69843E-09        1.000000
        6.910000           0.65734E-09        1.000000
        6.920000           0.62023E-09        1.000000
        6.930000           0.58674E-09        1.000000
        6.940000           0.55650E-09        1.000000
        6.950000           0.52916E-09        1.000000
        6.960000           0.50439E-09        1.000000
        6.970000           0.48191E-09        1.000000
        6.980000           0.46144E-09        1.000000
        6.990000           0.44275E-09        1.000000
        7.000000           0.42564E-09        1.000000
        7.010000           0.40994E-09        1.000000
        7.020000           0.39548E-09        1.000000
        7.030000           0.38213E-09        1.000000
        7.039999           0.36978E-09        1.000000
        7.050000           0.35832E-09        1.000000
        7.059999           0.34766E-09        1.000000
        7.070000           0.33773E-09        1.000000
        7.079999           0.32844E-09        1.000000
        7.090000           0.31975E-09        1.000000
        7.099999           0.31160E-09        1.000000
        7.110000           0.30394E-09        1.000000
        7.119999           0.29672E-09        1.000000
        7.130000           0.28992E-09        1.000000
        7.140000           0.28350E-09        1.000000
        7.150000           0.27743E-09        1.000000
        7.160000           0.27168E-09        1.000000
        7.170000           0.26623E-09        1.000000
        7.180000           0.26105E-09        1.000000
        7.190000           0.25614E-09        1.000000
        7.200000           0.25146E-09        1.000000
        7.210000           0.24700E-09        1.000000
        7.220000           0.24276E-09        1.000000
        7.230000           0.23871E-09        1.000000
        7.240000           0.23485E-09        1.000000
        7.250000           0.23116E-09        1.000000
        7.260000           0.22764E-09        1.000000
        7.270000           0.22427E-09        1.000000
        7.280000           0.22104E-09        1.000000
        7.290000           0.21796E-09        1.000000
        7.300000           0.21500E-09        1.000000
        7.310000           0.21217E-09        1.000000
        7.320000           0.20946E-09        1.000000
        7.330000           0.20686E-09        1.000000
        7.340000           0.20436E-09        1.000000
        7.350000           0.20197E-09        1.000000
        7.360000           0.19968E-09        1.000000
        7.370000           0.19748E-09        1.000000
        7.380000           0.19537E-09        1.000000
        7.390000           0.19335E-09        1.000000
        7.400000           0.19141E-09        1.000000
        7.410000           0.18955E-09        1.000000
        7.420000           0.18777E-09        1.000000
        7.430000           0.18606E-09        1.000000
        7.440000           0.18442E-09        1.000000
        7.450000           0.18285E-09        1.000000
        7.460000           0.18135E-09        1.000000
        7.470000           0.17991E-09        1.000000
        7.480000           0.17853E-09        1.000000
        7.489999           0.17722E-09        1.000000
        7.500000           0.17596E-09        1.000000
        7.510000           0.17476E-09        1.000000
        7.520000           0.17361E-09        1.000000
        7.530000           0.17252E-09        1.000000
        7.540000           0.17148E-09        1.000000
        7.550000           0.17049E-09        1.000000
        7.560000           0.16955E-09        1.000000
        7.570000           0.16866E-09        1.000000
        7.580000           0.16782E-09        1.000000
        7.590000           0.16702E-09        1.000000
        7.600000           0.16627E-09        1.000000
        7.610000           0.16556E-09        1.000000
        7.620000           0.16490E-09        1.000000
        7.630000           0.16428E-09        1.000000
        7.640000           0.16370E-09        1.000000
        7.650000           0.16317E-09        1.000000
        7.660000           0.16267E-09        1.000000
        7.670000           0.16222E-09        1.000000
        7.680000           0.16180E-09        1.000000
        7.690000           0.16143E-09        1.000000
        7.700000           0.16109E-09        1.000000
        7.710000           0.16080E-09        1.000000
        7.720000           0.16054E-09        1.000000
        7.730000           0.16031E-09        1.000000
        7.740000           0.16013E-09        1.000000
        7.750000           0.15998E-09        1.000000
        7.760000           0.15987E-09        1.000000
        7.770000           0.15980E-09        1.000000
        7.780000           0.15977E-09        1.000000
        7.789999           0.15977E-09        1.000000
        7.800000           0.15980E-09        1.000000
        7.809999           0.15988E-09        1.000000
        7.820000           0.15999E-09        1.000000
        7.829999           0.16013E-09        1.000000
        7.840000           0.16032E-09        1.000000
        7.849999           0.16053E-09        1.000000
        7.860000           0.16079E-09        1.000000
        7.870000           0.16108E-09        1.000000
        7.880000           0.16141E-09        1.000000
        7.890000           0.16178E-09        1.000000
        7.900000           0.16218E-09        1.000000
        7.910000           0.16263E-09        1.000000
        7.920000           0.16311E-09        1.000000
        7.930000           0.16362E-09        1.000000
        7.940000           0.16418E-09        1.000000
        7.950000           0.16478E-09        1.000000
        7.960000           0.16541E-09        1.000000
        7.970000           0.16609E-09        1.000000
        7.980000           0.16680E-09        1.000000
        7.990000           0.16756E-09        1.000000
        8.000000           0.16836E-09        1.000000
        8.010000           0.16920E-09        1.000000
        8.020000           0.17008E-09        1.000000
        8.030000           0.17101E-09        1.000000
        8.040000           0.17198E-09        1.000000
        8.050000           0.17300E-09        1.000000
        8.059999           0.17407E-09        1.000000
        8.070000           0.17518E-09        1.000000
        8.080000           0.17634E-09        1.000000
        8.090000           0.17754E-09        1.000000
        8.099999           0.17880E-09        1.000000
        8.110000           0.18011E-09        1.000000
        8.120000           0.18147E-09        1.000000
        8.130000           0.18289E-09        1.000000
        8.139999           0.18436E-09        1.000000
        8.150000           0.18588E-09        1.000000
        8.160000           0.18747E-09        1.000000
        8.170000           0.18911E-09        1.000000
        8.179999           0.19081E-09        1.000000
        8.190000           0.19258E-09        1.000000
        8.200000           0.19441E-09        1.000000
        8.209999           0.19631E-09        1.000000
        8.219999           0.19827E-09        1.000000
        8.230000           0.20031E-09        1.000000
        8.240001           0.20242E-09        1.000000
        8.250000           0.20460E-09        1.000000
        8.260000           0.20686E-09        1.000000
        8.270000           0.20919E-09        1.000000
        8.280000           0.21161E-09        1.000000
        8.290000           0.21412E-09        1.000000
        8.300000           0.21671E-09        1.000000
        8.310000           0.21939E-09        1.000000
        8.320000           0.22217E-09        1.000000
        8.330000           0.22504E-09        1.000000
        8.340000           0.22801E-09        1.000000
        8.350000           0.23109E-09        1.000000
        8.360000           0.23427E-09        1.000000
        8.370000           0.23757E-09        1.000000
        8.380000           0.24098E-09        1.000000
        8.390000           0.24452E-09        1.000000
        8.400000           0.24818E-09        1.000000
        8.410000           0.25197E-09        1.000000
        8.420000           0.25589E-09        1.000000
        8.430000           0.25996E-09        1.000000
        8.440000           0.26418E-09        1.000000
        8.450000           0.26855E-09        1.000000
        8.460000           0.27308E-09        1.000000
        8.469999           0.27778E-09        1.000000
        8.480000           0.28265E-09        1.000000
        8.490000           0.28771E-09        1.000000
        8.500000           0.29295E-09        1.000000
        8.509999           0.29840E-09        1.000000
        8.520000           0.30406E-09        1.000000
        8.530000           0.30994E-09        1.000000
        8.540000           0.31605E-09        1.000000
        8.549999           0.32240E-09        1.000000
        8.559999           0.32900E-09        1.000000
        8.570000           0.33587E-09        1.000000
        8.580000           0.34302E-09        1.000000
        8.589999           0.35046E-09        1.000000
        8.600000           0.35822E-09        1.000000
        8.610001           0.36630E-09        1.000000
        8.620000           0.37473E-09        1.000000
        8.630000           0.38352E-09        1.000000
        8.640000           0.39270E-09        1.000000
        8.650001           0.40228E-09        1.000000
        8.660000           0.41229E-09        1.000000
        8.670000           0.42275E-09        1.000000
        8.680000           0.43370E-09        1.000000
        8.690001           0.44516E-09        1.000000
        8.700000           0.45716E-09        1.000000
        8.710000           0.46973E-09        1.000000
        8.720000           0.48292E-09        1.000000
        8.730000           0.49676E-09        1.000000
        8.740000           0.51130E-09        1.000000
        8.750000           0.52658E-09        1.000000
        8.760000           0.54265E-09        1.000000
        8.770000           0.55956E-09        1.000000
        8.780000           0.57738E-09        1.000000
        8.790000           0.59617E-09        1.000000
        8.800000           0.61601E-09        1.000000
        8.809999           0.63696E-09        1.000000
        8.820000           0.65911E-09        1.000000
        8.830000           0.68256E-09        1.000000
        8.840000           0.70740E-09        1.000000
        8.849999           0.73375E-09        1.000000
        8.860000           0.76173E-09        1.000000
        8.870000           0.79148E-09        1.000000
        8.880000           0.82314E-09        1.000000
        8.889999           0.85687E-09        1.000000
        8.900000           0.89287E-09        1.000000
        8.910000           0.93133E-09        1.000000
        8.919999           0.97249E-09        1.000000
        8.929999           0.101658E-8        1.000000
        8.940000           0.106390E-8        1.000000
        8.950000           0.111475E-8        1.000000
        8.959999           0.116950E-8        1.000000
        8.970000           0.122854E-8        1.000000
        8.980000           0.129230E-8        1.000000
        8.990000           0.136131E-8        1.000000
        9.000000           0.143613E-8        1.000000
        9.010000           0.151740E-8        1.000000
        9.020000           0.160587E-8        1.000000
        9.030000           0.170237E-8        1.000000
        9.040000           0.180786E-8        1.000000
        9.050000           0.192344E-8        1.000000
        9.060000           0.205036E-8        1.000000
        9.070000           0.219006E-8        1.000000
        9.080000           0.234421E-8        1.000000
        9.090000           0.251470E-8        1.000000
        9.100000           0.270375E-8        1.000000
        9.110000           0.291388E-8        1.000000
        9.120000           0.314801E-8        1.000000
        9.130000           0.340950E-8        1.000000
        9.140000           0.370216E-8        1.000000
        9.150000           0.403034E-8        1.000000
        9.160000           0.439895E-8        1.000000
        9.170000           0.481338E-8        1.000000
        9.179999           0.527951E-8        1.000000
        9.190000           0.580341E-8        1.000000
        9.200000           0.639106E-8        1.000000
        9.210000           0.704763E-8        1.000000
        9.219999           0.777649E-8        1.000000
        9.230000           0.857767E-8        1.000000
        9.240000           0.944566E-8        1.000000
        9.250000           0.103667E-7        1.000000
        9.259999           0.113160E-7        1.000000
        9.270000           0.122549E-7        1.000000
        9.280000           0.131308E-7        1.000000
        9.290000           0.138801E-7        1.000000
        9.299999           0.144365E-7        1.000000
        9.309999           0.147429E-7        1.000000
        9.320000           0.147654E-7        1.000000
        9.330000           0.145018E-7        1.000000
        9.340000           0.139823E-7        1.000000
        9.350000           0.132618E-7        1.000000
        9.360001           0.124062E-7        1.000000
        9.370000           0.114800E-7        1.000000
        9.380000           0.105376E-7        1.000000
        9.390000           0.961930E-8        1.000000
        9.400001           0.875177E-8        1.000000
        9.410000           0.794999E-8        1.000000
        9.420000           0.722039E-8        1.000000
        9.430000           0.656355E-8        1.000000
        9.440000           0.597647E-8        1.000000
        9.450000           0.545414E-8        1.000000
        9.460000           0.499072E-8        1.000000
        9.470000           0.458012E-8        1.000000
        9.480000           0.421648E-8        1.000000
        9.490000           0.389438E-8        1.000000
        9.500000           0.360889E-8        1.000000
        9.510000           0.335566E-8        1.000000
        9.520000           0.313083E-8        1.000000
        9.530000           0.293107E-8        1.000000
        9.540000           0.275347E-8        1.000000
        9.550000           0.259552E-8        1.000000
        9.559999           0.245507E-8        1.000000
        9.570000           0.233025E-8        1.000000
        9.580000           0.221949E-8        1.000000
        9.590000           0.212143E-8        1.000000
        9.599999           0.203492E-8        1.000000
        9.610000           0.195897E-8        1.000000
        9.620000           0.189279E-8        1.000000
        9.629999           0.183569E-8        1.000000
        9.639999           0.178713E-8        1.000000
        9.650000           0.174668E-8        1.000000
        9.660000           0.171403E-8        1.000000
        9.669999           0.168897E-8        1.000000
        9.679999           0.167138E-8        1.000000
        9.690000           0.166126E-8        1.000000
        9.700000           0.165870E-8        1.000000
        9.710000           0.166388E-8        1.000000
        9.720000           0.167713E-8        1.000000
        9.730000           0.169886E-8        1.000000
        9.740000           0.172963E-8        1.000000
        9.750000           0.177010E-8        1.000000
        9.760000           0.182111E-8        1.000000
        9.770000           0.188363E-8        1.000000
        9.780000           0.195874E-8        1.000000
        9.790000           0.204768E-8        1.000000
        9.800000           0.215177E-8        1.000000
        9.810000           0.227234E-8        1.000000
        9.820000           0.241060E-8        1.000000
        9.830000           0.256747E-8        1.000000
        9.840000           0.274328E-8        1.000000
        9.850000           0.293740E-8        1.000000
        9.860000           0.314779E-8        1.000000
        9.870000           0.337055E-8        1.000000
        9.880000           0.359974E-8        1.000000
        9.889999           0.382745E-8        1.000000
        9.900000           0.404473E-8        1.000000
        9.910000           0.424298E-8        1.000000
        9.920000           0.441575E-8        1.000000
        9.929999           0.455999E-8        1.000000
        9.940000           0.467614E-8        1.000000
        9.950000           0.476666E-8        1.000000
        9.960000           0.483373E-8        1.000000
        9.969999           0.487690E-8        1.000000
        9.980000           0.489201E-8        1.000000
        9.990000           0.487171E-8        1.000000
        10.00000           0.480779E-8        1.000000
        10.01000           0.469428E-8        1.000000
        10.02000           0.453017E-8        1.000000
        10.03000           0.432052E-8        1.000000
        10.04000           0.407553E-8        1.000000
        10.05000           0.380822E-8        1.000000
        10.06000           0.353175E-8        1.000000
        10.07000           0.325752E-8        1.000000
        10.08000           0.299401E-8        1.000000
        10.09000           0.274677E-8        1.000000
        10.10000           0.251881E-8        1.000000
        10.11000           0.231121E-8        1.000000
        10.12000           0.212374E-8        1.000000
        10.13000           0.195537E-8        1.000000
        10.14000           0.180464E-8        1.000000
        10.15000           0.166991E-8        1.000000
        10.16000           0.154951E-8        1.000000
        10.17000           0.144185E-8        1.000000
        10.18000           0.134546E-8        1.000000
        10.19000           0.125902E-8        1.000000
        10.20000           0.118134E-8        1.000000
        10.21000           0.111139E-8        1.000000
        10.22000           0.104824E-8        1.000000
        10.23000           0.99112E-09        1.000000
        10.24000           0.93931E-09        1.000000
        10.25000           0.89223E-09        1.000000
        10.26000           0.84933E-09        1.000000
        10.27000           0.81018E-09        1.000000
        10.28000           0.77436E-09        1.000000
        10.29000           0.74154E-09        1.000000
        10.30000           0.71140E-09        1.000000
        10.31000           0.68368E-09        1.000000
        10.32000           0.65815E-09        1.000000
        10.33000           0.63460E-09        1.000000
        10.34000           0.61285E-09        1.000000
        10.35000           0.59274E-09        1.000000
        10.36000           0.57413E-09        1.000000
        10.37000           0.55690E-09        1.000000
        10.38000           0.54094E-09        1.000000
        10.39000           0.52615E-09        1.000000
        10.40000           0.51244E-09        1.000000
        10.41000           0.49975E-09        1.000000
        10.42000           0.48801E-09        1.000000
        10.43000           0.47716E-09        1.000000
        10.44000           0.46714E-09        1.000000
        10.45000           0.45793E-09        1.000000
        10.46000           0.44947E-09        1.000000
        10.47000           0.44175E-09        1.000000
        10.48000           0.43472E-09        1.000000
        10.49000           0.42837E-09        1.000000
        10.50000           0.42267E-09        1.000000
        10.51000           0.41760E-09        1.000000
        10.52000           0.41311E-09        1.000000
        10.53000           0.40917E-09        1.000000
        10.54000           0.40571E-09        1.000000
        10.55000           0.40266E-09        1.000000
        10.56000           0.39994E-09        1.000000
        10.57000           0.39742E-09        1.000000
        10.58000           0.39500E-09        1.000000
        10.59000           0.39256E-09        1.000000
        10.60000           0.39001E-09        1.000000
        10.61000           0.38729E-09        1.000000
        10.62000           0.38438E-09        1.000000
        10.63000           0.38132E-09        1.000000
        10.64000           0.37820E-09        1.000000
        10.65000           0.37511E-09        1.000000
        10.66000           0.37217E-09        1.000000
        10.67000           0.36948E-09        1.000000
        10.68000           0.36712E-09        1.000000
        10.69000           0.36515E-09        1.000000
        10.70000           0.36359E-09        1.000000
        10.71000           0.36248E-09        1.000000
        10.72000           0.36181E-09        1.000000
        10.73000           0.36160E-09        1.000000
        10.74000           0.36184E-09        1.000000
        10.75000           0.36253E-09        1.000000
        10.76000           0.36367E-09        1.000000
        10.77000           0.36526E-09        1.000000
        10.78000           0.36731E-09        1.000000
        10.79000           0.36981E-09        1.000000
        10.80000           0.37279E-09        1.000000
        10.81000           0.37624E-09        1.000000
        10.82000           0.38020E-09        1.000000
        10.83000           0.38467E-09        1.000000
        10.84000           0.38970E-09        1.000000
        10.85000           0.39529E-09        1.000000
        10.86000           0.40150E-09        1.000000
        10.87000           0.40835E-09        1.000000
        10.88000           0.41590E-09        1.000000
        10.89000           0.42418E-09        1.000000
        10.90000           0.43328E-09        1.000000
        10.91000           0.44324E-09        1.000000
        10.92000           0.45415E-09        1.000000
        10.93000           0.46609E-09        1.000000
        10.94000           0.47917E-09        1.000000
        10.95000           0.49349E-09        1.000000
        10.96000           0.50918E-09        1.000000
        10.97000           0.52639E-09        1.000000
        10.98000           0.54529E-09        1.000000
        10.99000           0.56607E-09        1.000000
        11.00000           0.58895E-09        1.000000
        11.01000           0.61419E-09        1.000000
        11.02000           0.64207E-09        1.000000
        11.03000           0.67294E-09        1.000000
        11.04000           0.70717E-09        1.000000
        11.05000           0.74523E-09        1.000000
        11.06000           0.78761E-09        1.000000
        11.07000           0.83491E-09        1.000000
        11.08000           0.88780E-09        1.000000
        11.09000           0.94703E-09        1.000000
        11.10000           0.101345E-8        1.000000
        11.11000           0.108798E-8        1.000000
        11.12000           0.117160E-8        1.000000
        11.13000           0.126532E-8        1.000000
        11.14000           0.137007E-8        1.000000
        11.15000           0.148658E-8        1.000000
        11.16000           0.161521E-8        1.000000
        11.17000           0.175557E-8        1.000000
        11.18000           0.190626E-8        1.000000
        11.19000           0.206432E-8        1.000000
        11.20000           0.222486E-8        1.000000
        11.21000           0.238077E-8        1.000000
        11.22000           0.252295E-8        1.000000
        11.23000           0.264109E-8        1.000000
        11.24000           0.272521E-8        1.000000
        11.25000           0.276763E-8        1.000000
        11.26000           0.276466E-8        1.000000
        11.27000           0.271748E-8        1.000000
        11.28000           0.263187E-8        1.000000
        11.29000           0.251673E-8        1.000000
        11.30000           0.238232E-8        1.000000
        11.31000           0.223843E-8        1.000000
        11.32000           0.209330E-8        1.000000
        11.33000           0.195310E-8        1.000000
        11.34000           0.182188E-8        1.000000
        11.35000           0.170198E-8        1.000000
        11.36000           0.159443E-8        1.000000
        11.37000           0.149931E-8        1.000000
        11.38000           0.141620E-8        1.000000
        11.39000           0.134432E-8        1.000000
        11.40000           0.128280E-8        1.000000
        11.41000           0.123071E-8        1.000000
        11.42000           0.118717E-8        1.000000
        11.43000           0.115137E-8        1.000000
        11.44000           0.112259E-8        1.000000
        11.45000           0.110023E-8        1.000000
        11.46000           0.108375E-8        1.000000
        11.47000           0.107271E-8        1.000000
        11.48000           0.106677E-8        1.000000
        11.49000           0.106565E-8        1.000000
        11.50000           0.106915E-8        1.000000
        11.51000           0.107713E-8        1.000000
        11.52000           0.108950E-8        1.000000
        11.53000           0.110626E-8        1.000000
        11.54000           0.112745E-8        1.000000
        11.55000           0.115315E-8        1.000000
        11.56000           0.118353E-8        1.000000
        11.57000           0.121880E-8        1.000000
        11.58000           0.125923E-8        1.000000
        11.59000           0.130518E-8        1.000000
        11.60000           0.135706E-8        1.000000
        11.61000           0.141537E-8        1.000000
        11.62000           0.148069E-8        1.000000
        11.63000           0.155374E-8        1.000000
        11.64000           0.163530E-8        1.000000
        11.65000           0.172635E-8        1.000000
        11.66000           0.182797E-8        1.000000
        11.67000           0.194144E-8        1.000000
        11.68000           0.206825E-8        1.000000
        11.69000           0.221012E-8        1.000000
        11.70000           0.236904E-8        1.000000
        11.71000           0.254729E-8        1.000000
        11.72000           0.274752E-8        1.000000
        11.73000           0.297274E-8        1.000000
        11.74000           0.322637E-8        1.000000
        11.75000           0.351224E-8        1.000000
        11.76000           0.383457E-8        1.000000
        11.77000           0.419785E-8        1.000000
        11.78000           0.460670E-8        1.000000
        11.79000           0.506546E-8        1.000000
        11.80000           0.557766E-8        1.000000
        11.81000           0.614505E-8        1.000000
        11.82000           0.676632E-8        1.000000
        11.83000           0.743528E-8        1.000000
        11.84000           0.813868E-8        1.000000
        11.85000           0.885404E-8        1.000000
        11.86000           0.954818E-8        1.000000
        11.87000           0.101778E-7        1.000000
        11.88000           0.106929E-7        1.000000
        11.89000           0.110448E-7        1.000000
        11.90000           0.111956E-7        1.000000
        11.91000           0.111278E-7        1.000000
        11.92000           0.108491E-7        1.000000
        11.93000           0.103903E-7        1.000000
        11.94000           0.979698E-8        1.000000
        11.95000           0.911980E-8        1.000000
        11.96000           0.840529E-8        1.000000
        11.97000           0.769088E-8        1.000000
        11.98000           0.700319E-8        1.000000
        11.99000           0.635888E-8        1.000000
        12.00000           0.576665E-8        1.000000
        12.01000           0.522953E-8        1.000000
        12.02000           0.474676E-8        1.000000
        12.03000           0.431541E-8        1.000000
        12.04000           0.393135E-8        1.000000
        12.05000           0.359003E-8        1.000000
        12.06000           0.328686E-8        1.000000
        12.07000           0.301749E-8        1.000000
        12.08000           0.277792E-8        1.000000
        12.09000           0.256455E-8        1.000000
        12.10000           0.237415E-8        1.000000
        12.11000           0.220389E-8        1.000000
        12.12000           0.205127E-8        1.000000
        12.13000           0.191407E-8        1.000000
        12.14000           0.179036E-8        1.000000
        12.15000           0.167842E-8        1.000000
        12.16000           0.157676E-8        1.000000
        12.17000           0.148409E-8        1.000000
        12.18000           0.139934E-8        1.000000
        12.19000           0.132163E-8        1.000000
        12.20000           0.125023E-8        1.000000
        12.21000           0.118454E-8        1.000000
        12.22000           0.112405E-8        1.000000
        12.23000           0.106832E-8        1.000000
        12.24000           0.101694E-8        1.000000
        12.25000           0.96955E-09        1.000000
        12.26000           0.92580E-09        1.000000
        12.27000           0.88540E-09        1.000000
        12.28000           0.84807E-09        1.000000
        12.29000           0.81353E-09        1.000000
        12.30000           0.78156E-09        1.000000
        12.31000           0.75195E-09        1.000000
        12.32000           0.72452E-09        1.000000
        12.33000           0.69909E-09        1.000000
        12.34000           0.67551E-09        1.000000
        12.35000           0.65366E-09        1.000000
        12.36000           0.63342E-09        1.000000
        12.37000           0.61467E-09        1.000000
        12.38000           0.59733E-09        1.000000
        12.39000           0.58133E-09        1.000000
        12.40000           0.56658E-09        1.000000
        12.41000           0.55303E-09        1.000000
        12.42000           0.54064E-09        1.000000
        12.43000           0.52935E-09        1.000000
        12.44000           0.51914E-09        1.000000
        12.45000           0.50999E-09        1.000000
        12.46000           0.50187E-09        1.000000
        12.47000           0.49478E-09        1.000000
        12.48000           0.48873E-09        1.000000
        12.49000           0.48373E-09        1.000000
        12.50000           0.47980E-09        1.000000
        12.51000           0.47697E-09        1.000000
        12.52000           0.47530E-09        1.000000
        12.53000           0.47483E-09        1.000000
        12.54000           0.47566E-09        1.000000
        12.55000           0.47785E-09        1.000000
        12.56000           0.48154E-09        1.000000
        12.57000           0.48686E-09        1.000000
        12.58000           0.49395E-09        1.000000
        12.59000           0.50302E-09        1.000000
        12.60000           0.51426E-09        1.000000
        12.61000           0.52794E-09        1.000000
        12.62000           0.54433E-09        1.000000
        12.63000           0.56375E-09        1.000000
        12.64000           0.58652E-09        1.000000
        12.65000           0.61299E-09        1.000000
        12.66000           0.64350E-09        1.000000
        12.67000           0.67832E-09        1.000000
        12.68000           0.71758E-09        1.000000
        12.69000           0.76122E-09        1.000000
        12.70000           0.80877E-09        1.000000
        12.71000           0.85928E-09        1.000000
        12.72000           0.91107E-09        1.000000
        12.73000           0.96166E-09        1.000000
        12.74000           0.100774E-8        1.000000
        12.75000           0.104549E-8        1.000000
        12.76000           0.107111E-8        1.000000
        12.77000           0.108153E-8        1.000000
        12.78000           0.107525E-8        1.000000
        12.79000           0.105267E-8        1.000000
        12.80000           0.101601E-8        1.000000
        12.81000           0.96873E-09        1.000000
        12.82000           0.91473E-09        1.000000
        12.83000           0.85765E-09        1.000000
        12.84000           0.80046E-09        1.000000
        12.85000           0.74529E-09        1.000000
        12.86000           0.69350E-09        1.000000
        12.87000           0.64579E-09        1.000000
        12.88000           0.60244E-09        1.000000
        12.89000           0.56342E-09        1.000000
        12.90000           0.52850E-09        1.000000
        12.91000           0.49737E-09        1.000000
        12.92000           0.46968E-09        1.000000
        12.93000           0.44508E-09        1.000000
        12.94000           0.42323E-09        1.000000
        12.95000           0.40382E-09        1.000000
        12.96000           0.38656E-09        1.000000
        12.97000           0.37123E-09        1.000000
        12.98000           0.35759E-09        1.000000
        12.99000           0.34545E-09        1.000000
        13.00000           0.33467E-09        1.000000
        13.01000           0.32510E-09        1.000000
        13.02000           0.31661E-09        1.000000
        13.03000           0.30911E-09        1.000000
        13.04000           0.30252E-09        1.000000
        13.05000           0.29675E-09        1.000000
        13.06000           0.29174E-09        1.000000
        13.07000           0.28745E-09        1.000000
        13.08000           0.28384E-09        1.000000
        13.09000           0.28087E-09        1.000000
        13.10000           0.27852E-09        1.000000
        13.11000           0.27678E-09        1.000000
        13.12000           0.27563E-09        1.000000
        13.13000           0.27507E-09        1.000000
        13.14000           0.27511E-09        1.000000
        13.15000           0.27576E-09        1.000000
        13.16000           0.27704E-09        1.000000
        13.17000           0.27899E-09        1.000000
        13.18000           0.28162E-09        1.000000
        13.19000           0.28501E-09        1.000000
        13.20000           0.28919E-09        1.000000
        13.21000           0.29425E-09        1.000000
        13.22000           0.30026E-09        1.000000
        13.23000           0.30733E-09        1.000000
        13.24000           0.31556E-09        1.000000
        13.25000           0.32511E-09        1.000000
        13.26000           0.33611E-09        1.000000
        13.27000           0.34874E-09        1.000000
        13.28000           0.36322E-09        1.000000
        13.29000           0.37974E-09        1.000000
        13.30000           0.39854E-09        1.000000
        13.31000           0.41984E-09        1.000000
        13.32000           0.44386E-09        1.000000
        13.33000           0.47074E-09        1.000000
        13.34000           0.50053E-09        1.000000
        13.35000           0.53308E-09        1.000000
        13.36000           0.56796E-09        1.000000
        13.37000           0.60435E-09        1.000000
        13.38000           0.64092E-09        1.000000
        13.39000           0.67582E-09        1.000000
        13.40000           0.70674E-09        1.000000
        13.41000           0.73115E-09        1.000000
        13.42000           0.74678E-09        1.000000
        13.43000           0.75209E-09        1.000000
        13.44000           0.74671E-09        1.000000
        13.45000           0.73153E-09        1.000000
        13.46000           0.70845E-09        1.000000
        13.47000           0.67994E-09        1.000000
        13.48000           0.64853E-09        1.000000
        13.49000           0.61643E-09        1.000000
        13.50000           0.58534E-09        1.000000
        13.51000           0.55644E-09        1.000000
        13.52000           0.53044E-09        1.000000
        13.53000           0.50774E-09        1.000000
        13.54000           0.48847E-09        1.000000
        13.55000           0.47262E-09        1.000000
        13.56000           0.46011E-09        1.000000
        13.57000           0.45084E-09        1.000000
        13.58000           0.44468E-09        1.000000
        13.59000           0.44154E-09        1.000000
        13.60000           0.44133E-09        1.000000
        13.61000           0.44397E-09        1.000000
        13.62000           0.44938E-09        1.000000
        13.63000           0.45744E-09        1.000000
        13.64000           0.46798E-09        1.000000
        13.65000           0.48069E-09        1.000000
        13.66000           0.49509E-09        1.000000
        13.67000           0.51044E-09        1.000000
        13.68000           0.52577E-09        1.000000
        13.69000           0.53983E-09        1.000000
        13.70000           0.55125E-09        1.000000
        13.71000           0.55875E-09        1.000000
        13.72000           0.56138E-09        1.000000
        13.73000           0.55879E-09        1.000000
        13.74000           0.55129E-09        1.000000
        13.75000           0.53978E-09        1.000000
        13.76000           0.52548E-09        1.000000
        13.77000           0.50973E-09        1.000000
        13.78000           0.49369E-09        1.000000
        13.79000           0.47832E-09        1.000000
        13.80000           0.46426E-09        1.000000
        13.81000           0.45192E-09        1.000000
        13.82000           0.44152E-09        1.000000
        13.83000           0.43315E-09        1.000000
        13.84000           0.42680E-09        1.000000
        13.85000           0.42242E-09        1.000000
        13.86000           0.41994E-09        1.000000
        13.87000           0.41931E-09        1.000000
        13.88000           0.42046E-09        1.000000
        13.89000           0.42336E-09        1.000000
        13.90000           0.42798E-09        1.000000
        13.91000           0.43432E-09        1.000000
        13.92000           0.44242E-09        1.000000
        13.93000           0.45234E-09        1.000000
        13.94000           0.46415E-09        1.000000
        13.95000           0.47797E-09        1.000000
        13.96000           0.49395E-09        1.000000
        13.97000           0.51228E-09        1.000000
        13.98000           0.53319E-09        1.000000
        13.99000           0.55693E-09        1.000000
        14.00000           0.58384E-09        1.000000
        14.01000           0.61428E-09        1.000000
        14.02000           0.64867E-09        1.000000
        14.03000           0.68749E-09        1.000000
        14.04000           0.73128E-09        1.000000
        14.05000           0.78062E-09        1.000000
        14.06000           0.83607E-09        1.000000
        14.07000           0.89822E-09        1.000000
        14.08000           0.96749E-09        1.000000
        14.09000           0.104413E-8        1.000000
        14.10000           0.112797E-8        1.000000
        14.11000           0.121825E-8        1.000000
        14.12000           0.131326E-8        1.000000
        14.13000           0.141018E-8        1.000000
        14.14000           0.150474E-8        1.000000
        14.15000           0.159147E-8        1.000000
        14.16000           0.166397E-8        1.000000
        14.17000           0.171604E-8        1.000000
        14.18000           0.174281E-8        1.000000
        14.19000           0.174207E-8        1.000000
        14.20000           0.171479E-8        1.000000
        14.21000           0.166488E-8        1.000000
        14.22000           0.159822E-8        1.000000
        14.23000           0.152128E-8        1.000000
        14.24000           0.144008E-8        1.000000
        14.25000           0.135943E-8        1.000000
        14.26000           0.128283E-8        1.000000
        14.27000           0.121244E-8        1.000000
        14.28000           0.114944E-8        1.000000
        14.29000           0.109429E-8        1.000000
        14.30000           0.104695E-8        1.000000
        14.31000           0.100712E-8        1.000000
        14.32000           0.97433E-09        1.000000
        14.33000           0.94809E-09        1.000000
        14.34000           0.92789E-09        1.000000
        14.35000           0.91328E-09        1.000000
        14.36000           0.90384E-09        1.000000
        14.37000           0.89924E-09        1.000000
        14.38000           0.89920E-09        1.000000
        14.39000           0.90350E-09        1.000000
        14.40000           0.91201E-09        1.000000
        14.41000           0.92462E-09        1.000000
        14.42000           0.94132E-09        1.000000
        14.43000           0.96211E-09        1.000000
        14.44000           0.98710E-09        1.000000
        14.45000           0.101641E-8        1.000000
        14.46000           0.105024E-8        1.000000
        14.47000           0.108886E-8        1.000000
        14.48000           0.113258E-8        1.000000
        14.49000           0.118180E-8        1.000000
        14.50000           0.123701E-8        1.000000
        14.51000           0.129874E-8        1.000000
        14.52000           0.136768E-8        1.000000
        14.53000           0.144459E-8        1.000000
        14.54000           0.153039E-8        1.000000
        14.55000           0.162611E-8        1.000000
        14.56000           0.173300E-8        1.000000
        14.57000           0.185245E-8        1.000000
        14.58000           0.198614E-8        1.000000
        14.59000           0.213592E-8        1.000000
        14.60000           0.230404E-8        1.000000
        14.61000           0.249293E-8        1.000000
        14.62000           0.270553E-8        1.000000
        14.63000           0.294501E-8        1.000000
        14.64000           0.321490E-8        1.000000
        14.65000           0.351912E-8        1.000000
        14.66000           0.386161E-8        1.000000
        14.67000           0.424640E-8        1.000000
        14.68000           0.467679E-8        1.000000
        14.69000           0.515515E-8        1.000000
        14.70000           0.568135E-8        1.000000
        14.71000           0.625194E-8        1.000000
        14.72000           0.685771E-8        1.000000
        14.73000           0.748243E-8        1.000000
        14.74000           0.810048E-8        1.000000
        14.75000           0.867733E-8        1.000000
        14.76000           0.917080E-8        1.000000
        14.77000           0.953712E-8        1.000000
        14.78000           0.973847E-8        1.000000
        14.79000           0.975219E-8        1.000000
        14.80000           0.957665E-8        1.000000
        14.81000           0.923161E-8        1.000000
        14.82000           0.875317E-8        1.000000
        14.83000           0.818475E-8        1.000000
        14.84000           0.756921E-8        1.000000
        14.85000           0.694237E-8        1.000000
        14.86000           0.633127E-8        1.000000
        14.87000           0.575338E-8        1.000000
        14.88000           0.521892E-8        1.000000
        14.89000           0.473201E-8        1.000000
        14.90000           0.429324E-8        1.000000
        14.91000           0.390049E-8        1.000000
        14.92000           0.355060E-8        1.000000
        14.93000           0.323956E-8        1.000000
        14.94000           0.296347E-8        1.000000
        14.95000           0.271832E-8        1.000000
        14.96000           0.250059E-8        1.000000
        14.97000           0.230693E-8        1.000000
        14.98000           0.213449E-8        1.000000
        14.99000           0.198063E-8        1.000000
        15.00000           0.184313E-8        1.000000
        15.01000           0.172004E-8        1.000000
        15.02000           0.160960E-8        1.000000
        15.03000           0.151035E-8        1.000000
        15.04000           0.142094E-8        1.000000
        15.05000           0.134021E-8        1.000000
        15.06000           0.126710E-8        1.000000
        15.07000           0.120071E-8        1.000000
        15.08000           0.114019E-8        1.000000
        15.09000           0.108489E-8        1.000000
        15.10000           0.103422E-8        1.000000
        15.11000           0.98776E-09        1.000000
        15.12000           0.94519E-09        1.000000
        15.13000           0.90626E-09        1.000000
        15.14000           0.87079E-09        1.000000
        15.15000           0.83863E-09        1.000000
        15.16000           0.80962E-09        1.000000
        15.17000           0.78366E-09        1.000000
        15.18000           0.76063E-09        1.000000
        15.19000           0.74044E-09        1.000000
        15.20000           0.72303E-09        1.000000
        15.21000           0.70835E-09        1.000000
        15.22000           0.69639E-09        1.000000
        15.23000           0.68716E-09        1.000000
        15.24000           0.68071E-09        1.000000
        15.25000           0.67714E-09        1.000000
        15.26000           0.67656E-09        1.000000
        15.27000           0.67914E-09        1.000000
        15.28000           0.68509E-09        1.000000
        15.29000           0.69466E-09        1.000000
        15.30000           0.70814E-09        1.000000
        15.31000           0.72585E-09        1.000000
        15.32000           0.74811E-09        1.000000
        15.33000           0.77523E-09        1.000000
        15.34000           0.80746E-09        1.000000
        15.35000           0.84487E-09        1.000000
        15.36000           0.88731E-09        1.000000
        15.37000           0.93417E-09        1.000000
        15.38000           0.98426E-09        1.000000
        15.39000           0.103564E-8        1.000000
        15.40000           0.108543E-8        1.000000
        15.41000           0.113001E-8        1.000000
        15.42000           0.116523E-8        1.000000
        15.43000           0.118713E-8        1.000000
        15.44000           0.119277E-8        1.000000
        15.45000           0.118094E-8        1.000000
        15.46000           0.115254E-8        1.000000
        15.47000           0.111030E-8        1.000000
        15.48000           0.105809E-8        1.000000
        15.49000           0.100010E-8        1.000000
        15.50000           0.94011E-09        1.000000
        15.51000           0.88112E-09        1.000000
        15.52000           0.82524E-09        1.000000
        15.53000           0.77370E-09        1.000000
        15.54000           0.72710E-09        1.000000
        15.55000           0.68548E-09        1.000000
        15.56000           0.64853E-09        1.000000
        15.57000           0.61564E-09        1.000000
        15.58000           0.58605E-09        1.000000
        15.59000           0.55891E-09        1.000000
        15.60000           0.53340E-09        1.000000
        15.61000           0.50886E-09        1.000000
        15.62000           0.48483E-09        1.000000
        15.63000           0.46115E-09        1.000000
        15.64000           0.43788E-09        1.000000
        15.65000           0.41521E-09        1.000000
        15.66000           0.39341E-09        1.000000
        15.67000           0.37271E-09        1.000000
        15.68000           0.35326E-09        1.000000
        15.69000           0.33516E-09        1.000000
        15.70000           0.31841E-09        1.000000
        15.71000           0.30299E-09        1.000000
        15.72000           0.28883E-09        1.000000
        15.73000           0.27583E-09        1.000000
        15.74000           0.26391E-09        1.000000
        15.75000           0.25297E-09        1.000000
        15.76000           0.24291E-09        1.000000
        15.77000           0.23365E-09        1.000000
        15.78000           0.22512E-09        1.000000
        15.79000           0.21724E-09        1.000000
        15.80000           0.20994E-09        1.000000
        15.81000           0.20318E-09        1.000000
        15.82000           0.19690E-09        1.000000
        15.83000           0.19106E-09        1.000000
        15.84000           0.18562E-09        1.000000
        15.85000           0.18055E-09        1.000000
        15.86000           0.17581E-09        1.000000
        15.87000           0.17139E-09        1.000000
        15.88000           0.16726E-09        1.000000
        15.89000           0.16340E-09        1.000000
        15.90000           0.15979E-09        1.000000
        15.91000           0.15643E-09        1.000000
        15.92000           0.15330E-09        1.000000
        15.93000           0.15040E-09        1.000000
        15.94000           0.14771E-09        1.000000
        15.95000           0.14523E-09        1.000000
        15.96000           0.14297E-09        1.000000
        15.97000           0.14091E-09        1.000000
        15.98000           0.13907E-09        1.000000
        15.99000           0.13745E-09        1.000000
        16.00000           0.13605E-09        1.000000
        16.01000           0.13488E-09        1.000000
        16.02000           0.13397E-09        1.000000
        16.03000           0.13330E-09        1.000000
        16.04000           0.13291E-09        1.000000
        16.05000           0.13279E-09        1.000000
        16.06000           0.13294E-09        1.000000
        16.07000           0.13337E-09        1.000000
        16.08000           0.13404E-09        1.000000
        16.09000           0.13490E-09        1.000000
        16.10000           0.13587E-09        1.000000
        16.11000           0.13683E-09        1.000000
        16.12000           0.13763E-09        1.000000
        16.13000           0.13808E-09        1.000000
        16.14000           0.13802E-09        1.000000
        16.15000           0.13730E-09        1.000000
        16.16000           0.13585E-09        1.000000
        16.17000           0.13369E-09        1.000000
        16.18000           0.13093E-09        1.000000
        16.19000           0.12773E-09        1.000000
        16.20000           0.12426E-09        1.000000
        16.21000           0.12069E-09        1.000000
        16.22000           0.11716E-09        1.000000
        16.23000           0.11375E-09        1.000000
        16.24000           0.11052E-09        1.000000
        16.25000           0.10751E-09        1.000000
        16.26000           0.10471E-09        1.000000
        16.27000           0.10212E-09        1.000000
        16.28000           0.99740E-10        1.000000
        16.29000           0.97547E-10        1.000000
        16.30000           0.95533E-10        1.000000
        16.31000           0.93685E-10        1.000000
        16.32000           0.91991E-10        1.000000
        16.33000           0.90441E-10        1.000000
        16.34000           0.89024E-10        1.000000
        16.35000           0.87731E-10        1.000000
        16.36000           0.86553E-10        1.000000
        16.37000           0.85485E-10        1.000000
        16.38000           0.84523E-10        1.000000
        16.39000           0.83663E-10        1.000000
        16.40000           0.82905E-10        1.000000
        16.41000           0.82248E-10        1.000000
        16.42000           0.81693E-10        1.000000
        16.43000           0.81239E-10        1.000000
        16.44000           0.80890E-10        1.000000
        16.45000           0.80647E-10        1.000000
        16.46000           0.80515E-10        1.000000
        16.47000           0.80500E-10        1.000000
        16.48000           0.80607E-10        1.000000
        16.49000           0.80845E-10        1.000000
        16.50000           0.81224E-10        1.000000
        16.51000           0.81757E-10        1.000000
        16.52000           0.82459E-10        1.000000
        16.53000           0.83347E-10        1.000000
        16.54000           0.84441E-10        1.000000
        16.55000           0.85766E-10        1.000000
        16.56000           0.87349E-10        1.000000
        16.57000           0.89223E-10        1.000000
        16.58000           0.91423E-10        1.000000
        16.59000           0.93989E-10        1.000000
        16.60000           0.96967E-10        1.000000
        16.61000           0.10040E-09        1.000000
        16.62000           0.10434E-09        1.000000
        16.63000           0.10883E-09        1.000000
        16.64000           0.11390E-09        1.000000
        16.65000           0.11956E-09        1.000000
        16.66000           0.12577E-09        1.000000
        16.67000           0.13247E-09        1.000000
        16.68000           0.13947E-09        1.000000
        16.69000           0.14652E-09        1.000000
        16.70000           0.15325E-09        1.000000
        16.71000           0.15919E-09        1.000000
        16.72000           0.16385E-09        1.000000
        16.73000           0.16676E-09        1.000000
        16.74000           0.16764E-09        1.000000
        16.75000           0.16642E-09        1.000000
        16.76000           0.16326E-09        1.000000
        16.77000           0.15856E-09        1.000000
        16.78000           0.15279E-09        1.000000
        16.79000           0.14644E-09        1.000000
        16.80000           0.13989E-09        1.000000
        16.81000           0.13344E-09        1.000000
        16.82000           0.12725E-09        1.000000
        16.83000           0.12137E-09        1.000000
        16.84000           0.11582E-09        1.000000
        16.85000           0.11054E-09        1.000000
        16.86000           0.10550E-09        1.000000
        16.87000           0.10068E-09        1.000000
        16.88000           0.96082E-10        1.000000
        16.89000           0.91728E-10        1.000000
        16.90000           0.87641E-10        1.000000
        16.91000           0.83841E-10        1.000000
        16.92000           0.80339E-10        1.000000
        16.93000           0.77136E-10        1.000000
        16.94000           0.74224E-10        1.000000
        16.95000           0.71585E-10        1.000000
        16.96000           0.69201E-10        1.000000
        16.97000           0.67050E-10        1.000000
        16.98000           0.65111E-10        1.000000
        16.99000           0.63364E-10        1.000000
        17.00000           0.61789E-10        1.000000
        17.01000           0.60369E-10        1.000000
        17.02000           0.59090E-10        1.000000
        17.03000           0.57937E-10        1.000000
        17.04000           0.56899E-10        1.000000
        17.05000           0.55967E-10        1.000000
        17.06000           0.55131E-10        1.000000
        17.07000           0.54385E-10        1.000000
        17.08000           0.53723E-10        1.000000
        17.09000           0.53141E-10        1.000000
        17.10000           0.52633E-10        1.000000
        17.11000           0.52198E-10        1.000000
        17.12000           0.51834E-10        1.000000
        17.13000           0.51540E-10        1.000000
        17.14000           0.51315E-10        1.000000
        17.15000           0.51160E-10        1.000000
        17.16000           0.51077E-10        1.000000
        17.17000           0.51068E-10        1.000000
        17.18000           0.51137E-10        1.000000
        17.19000           0.51288E-10        1.000000
        17.20000           0.51527E-10        1.000000
        17.21000           0.51859E-10        1.000000
        17.22000           0.52293E-10        1.000000
        17.23000           0.52838E-10        1.000000
        17.24000           0.53504E-10        1.000000
        17.25000           0.54301E-10        1.000000
        17.26000           0.55241E-10        1.000000
        17.27000           0.56335E-10        1.000000
        17.28000           0.57595E-10        1.000000
        17.29000           0.59028E-10        1.000000
        17.30000           0.60641E-10        1.000000
        17.31000           0.62437E-10        1.000000
        17.32000           0.64412E-10        1.000000
        17.33000           0.66557E-10        1.000000
        17.34000           0.68856E-10        1.000000
        17.35000           0.71281E-10        1.000000
        17.36000           0.73797E-10        1.000000
        17.37000           0.76360E-10        1.000000
        17.38000           0.78926E-10        1.000000
        17.39000           0.81459E-10        1.000000
        17.40000           0.83946E-10        1.000000
        17.41000           0.86393E-10        1.000000
        17.42000           0.88826E-10        1.000000
        17.43000           0.91267E-10        1.000000
        17.44000           0.93721E-10        1.000000
        17.45000           0.96156E-10        1.000000
        17.46000           0.98489E-10        1.000000
        17.47000           0.10058E-09        1.000000
        17.48000           0.10226E-09        1.000000
        17.49000           0.10330E-09        1.000000
        17.50000           0.10351E-09        1.000000
        17.51000           0.10273E-09        1.000000
        17.52000           0.10094E-09        1.000000
        17.53000           0.98198E-10        1.000000
        17.54000           0.94689E-10        1.000000
        17.55000           0.90652E-10        1.000000
        17.56000           0.86336E-10        1.000000
        17.57000           0.81964E-10        1.000000
        17.58000           0.77708E-10        1.000000
        17.59000           0.73686E-10        1.000000
        17.60000           0.69966E-10        1.000000
        17.61000           0.66580E-10        1.000000
        17.62000           0.63533E-10        1.000000
        17.63000           0.60814E-10        1.000000
        17.64000           0.58401E-10        1.000000
        17.65000           0.56270E-10        1.000000
        17.66000           0.54395E-10        1.000000
        17.67000           0.52749E-10        1.000000
        17.68000           0.51310E-10        1.000000
        17.69000           0.50055E-10        1.000000
        17.70000           0.48967E-10        1.000000
        17.71000           0.48029E-10        1.000000
        17.72000           0.47228E-10        1.000000
        17.73000           0.46551E-10        1.000000
        17.74000           0.45988E-10        1.000000
        17.75000           0.45533E-10        1.000000
        17.76000           0.45178E-10        1.000000
        17.77000           0.44919E-10        1.000000
        17.78000           0.44752E-10        1.000000
        17.79000           0.44676E-10        1.000000
        17.80000           0.44688E-10        1.000000
        17.81000           0.44789E-10        1.000000
        17.82000           0.44980E-10        1.000000
        17.83000           0.45262E-10        1.000000
        17.84000           0.45637E-10        1.000000
        17.85000           0.46106E-10        1.000000
        17.86000           0.46671E-10        1.000000
        17.87000           0.47331E-10        1.000000
        17.88000           0.48085E-10        1.000000
        17.89000           0.48929E-10        1.000000
        17.90000           0.49853E-10        1.000000
        17.91000           0.50851E-10        1.000000
        17.92000           0.51912E-10        1.000000
        17.93000           0.53031E-10        1.000000
        17.94000           0.54211E-10        1.000000
        17.95000           0.55466E-10        1.000000
        17.96000           0.56819E-10        1.000000
        17.97000           0.58304E-10        1.000000
        17.98000           0.59963E-10        1.000000
        17.99000           0.61838E-10        1.000000
        18.00000           0.63977E-10        1.000000
        18.01000           0.66424E-10        1.000000
        18.02000           0.69230E-10        1.000000
        18.03000           0.72445E-10        1.000000
        18.04000           0.76123E-10        1.000000
        18.05000           0.80324E-10        1.000000
        18.06000           0.85113E-10        1.000000
        18.07000           0.90558E-10        1.000000
        18.08000           0.96731E-10        1.000000
        18.09000           0.10370E-09        1.000000
        18.10000           0.11151E-09        1.000000
        18.11000           0.12020E-09        1.000000
        18.12000           0.12976E-09        1.000000
        18.13000           0.14008E-09        1.000000
        18.14000           0.15099E-09        1.000000
        18.15000           0.16214E-09        1.000000
        18.16000           0.17303E-09        1.000000
        18.17000           0.18300E-09        1.000000
        18.18000           0.19129E-09        1.000000
        18.19000           0.19712E-09        1.000000
        18.20000           0.19989E-09        1.000000
        18.21000           0.19930E-09        1.000000
        18.22000           0.19543E-09        1.000000
        18.23000           0.18875E-09        1.000000
        18.24000           0.17995E-09        1.000000
        18.25000           0.16981E-09        1.000000
        18.26000           0.15909E-09        1.000000
        18.27000           0.14836E-09        1.000000
        18.28000           0.13808E-09        1.000000
        18.29000           0.12852E-09        1.000000
        18.30000           0.11982E-09        1.000000
        18.31000           0.11206E-09        1.000000
        18.32000           0.10522E-09        1.000000
        18.33000           0.99288E-10        1.000000
        18.34000           0.94201E-10        1.000000
        18.35000           0.89901E-10        1.000000
        18.36000           0.86327E-10        1.000000
        18.37000           0.83420E-10        1.000000
        18.38000           0.81123E-10        1.000000
        18.39000           0.79377E-10        1.000000
        18.40000           0.78121E-10        1.000000
        18.41000           0.77286E-10        1.000000
        18.42000           0.76792E-10        1.000000
        18.43000           0.76546E-10        1.000000
        18.44000           0.76449E-10        1.000000
        18.45000           0.76405E-10        1.000000
        18.46000           0.76332E-10        1.000000
        18.47000           0.76186E-10        1.000000
        18.48000           0.75965E-10        1.000000
        18.49000           0.75708E-10        1.000000
        18.50000           0.75480E-10        1.000000
        18.51000           0.75352E-10        1.000000
        18.52000           0.75378E-10        1.000000
        18.53000           0.75577E-10        1.000000
        18.54000           0.75922E-10        1.000000
        18.55000           0.76338E-10        1.000000
        18.56000           0.76701E-10        1.000000
        18.57000           0.76860E-10        1.000000
        18.58000           0.76659E-10        1.000000
        18.59000           0.75973E-10        1.000000
        18.60000           0.74740E-10        1.000000
        18.61000           0.72973E-10        1.000000
        18.62000           0.70760E-10        1.000000
        18.63000           0.68233E-10        1.000000
        18.64000           0.65544E-10        1.000000
        18.65000           0.62828E-10        1.000000
        18.66000           0.60196E-10        1.000000
        18.67000           0.57728E-10        1.000000
        18.68000           0.55468E-10        1.000000
        18.69000           0.53443E-10        1.000000
        18.70000           0.51659E-10        1.000000
        18.71000           0.50111E-10        1.000000
        18.72000           0.48791E-10        1.000000
        18.73000           0.47685E-10        1.000000
        18.74000           0.46780E-10        1.000000
        18.75000           0.46063E-10        1.000000
        18.76000           0.45521E-10        1.000000
        18.77000           0.45145E-10        1.000000
        18.78000           0.44924E-10        1.000000
        18.79000           0.44851E-10        1.000000
        18.80000           0.44919E-10        1.000000
        18.81000           0.45124E-10        1.000000
        18.82000           0.45460E-10        1.000000
        18.83000           0.45927E-10        1.000000
        18.84000           0.46529E-10        1.000000
        18.85000           0.47270E-10        1.000000
        18.86000           0.48164E-10        1.000000
        18.87000           0.49223E-10        1.000000
        18.88000           0.50469E-10        1.000000
        18.89000           0.51923E-10        1.000000
        18.90000           0.53612E-10        1.000000
        18.91000           0.55562E-10        1.000000
        18.92000           0.57807E-10        1.000000
        18.93000           0.60384E-10        1.000000
        18.94000           0.63336E-10        1.000000
        18.95000           0.66708E-10        1.000000
        18.96000           0.70557E-10        1.000000
        18.97000           0.74941E-10        1.000000
        18.98000           0.79929E-10        1.000000
        18.99000           0.85589E-10        1.000000
        19.00000           0.91995E-10        1.000000
        19.01000           0.99211E-10        1.000000
        19.02000           0.10729E-09        1.000000
        19.03000           0.11625E-09        1.000000
        19.04000           0.12606E-09        1.000000
        19.05000           0.13659E-09        1.000000
        19.06000           0.14762E-09        1.000000
        19.07000           0.15876E-09        1.000000
        19.08000           0.16945E-09        1.000000
        19.09000           0.17897E-09        1.000000
        19.10000           0.18654E-09        1.000000
        19.11000           0.19139E-09        1.000000
        19.12000           0.19299E-09        1.000000
        19.13000           0.19113E-09        1.000000
        19.14000           0.18600E-09        1.000000
        19.15000           0.17816E-09        1.000000
        19.16000           0.16836E-09        1.000000
        19.17000           0.15738E-09        1.000000
        19.18000           0.14594E-09        1.000000
        19.19000           0.13460E-09        1.000000
        19.20000           0.12374E-09        1.000000
        19.21000           0.11361E-09        1.000000
        19.22000           0.10432E-09        1.000000
        19.23000           0.95899E-10        1.000000
        19.24000           0.88335E-10        1.000000
        19.25000           0.81570E-10        1.000000
        19.26000           0.75541E-10        1.000000
        19.27000           0.70172E-10        1.000000
        19.28000           0.65394E-10        1.000000
        19.29000           0.61135E-10        1.000000
        19.30000           0.57337E-10        1.000000
        19.31000           0.53941E-10        1.000000
        19.32000           0.50900E-10        1.000000
        19.33000           0.48168E-10        1.000000
        19.34000           0.45710E-10        1.000000
        19.35000           0.43492E-10        1.000000
        19.36000           0.41485E-10        1.000000
        19.37000           0.39665E-10        1.000000
        19.38000           0.38010E-10        1.000000
        19.39000           0.36501E-10        1.000000
        19.40000           0.35122E-10        1.000000
        19.41000           0.33859E-10        1.000000
        19.42000           0.32700E-10        1.000000
        19.43000           0.31633E-10        1.000000
        19.44000           0.30649E-10        1.000000
        19.45000           0.29741E-10        1.000000
        19.46000           0.28899E-10        1.000000
        19.47000           0.28119E-10        1.000000
        19.48000           0.27394E-10        1.000000
        19.49000           0.26719E-10        1.000000
        19.50000           0.26090E-10        1.000000
        19.51000           0.25502E-10        1.000000
        19.52000           0.24952E-10        1.000000
        19.53000           0.24438E-10        1.000000
        19.54000           0.23954E-10        1.000000
        19.55000           0.23501E-10        1.000000
        19.56000           0.23074E-10        1.000000
        19.57000           0.22672E-10        1.000000
        19.58000           0.22293E-10        1.000000
        19.59000           0.21936E-10        1.000000
        19.60000           0.21598E-10        1.000000
        19.61000           0.21278E-10        1.000000
        19.62000           0.20976E-10        1.000000
        19.63000           0.20689E-10        1.000000
        19.64000           0.20418E-10        1.000000
        19.65000           0.20160E-10        1.000000
        19.66000           0.19915E-10        1.000000
        19.67000           0.19682E-10        1.000000
        19.68000           0.19461E-10        1.000000
        19.69000           0.19251E-10        1.000000
        19.70000           0.19050E-10        1.000000
        19.71000           0.18860E-10        1.000000
        19.72000           0.18678E-10        1.000000
        19.73000           0.18505E-10        1.000000
        19.74000           0.18340E-10        1.000000
        19.75000           0.18183E-10        1.000000
        19.76000           0.18034E-10        1.000000
        19.77000           0.17891E-10        1.000000
        19.78000           0.17755E-10        1.000000
        19.79000           0.17626E-10        1.000000
        19.80000           0.17503E-10        1.000000
        19.81000           0.17385E-10        1.000000
        19.82000           0.17274E-10        1.000000
        19.83000           0.17168E-10        1.000000
        19.84000           0.17068E-10        1.000000
        19.85000           0.16973E-10        1.000000
        19.86000           0.16883E-10        1.000000
        19.87000           0.16798E-10        1.000000
        19.88000           0.16718E-10        1.000000
        19.89000           0.16643E-10        1.000000
        19.90000           0.16572E-10        1.000000
        19.91000           0.16507E-10        1.000000
        19.92000           0.16446E-10        1.000000
        19.93000           0.16390E-10        1.000000
        19.94000           0.16339E-10        1.000000
        19.95000           0.16293E-10        1.000000
        19.96000           0.16251E-10        1.000000
        19.97000           0.16215E-10        1.000000
        19.98000           0.16184E-10        1.000000
        19.99000           0.16158E-10        1.000000
        20.00000           0.16137E-10        1.000000
# 
# 11/10/2023 at 10:04 yambo @ unimi-XPS-8930 [start]
# 11/10/2023 at 10:05                        [end]
#
# .-Input file  yambo.in
# | rim_cut                          # [R] Coulomb potential
# | optics                           # [R] Linear Response optical properties
# | dipoles                          # [R] Oscillator strenghts (or dipoles)
# | bse                              # [R][BSE] Bethe Salpeter Equation.
# | ElecTemp= 0.025861         eV    # Electronic Temperature
# | BoseTemp= 0.025861         eV    # Bosonic Temperature
# | DIP_Threads= 1                   # [OPENMP/X] Number of threads for dipoles
# | BS_nCPU_LinAlg_INV= 1            # [PARALLEL] CPUs for Linear Algebra (if -1 it is automatically set)
# | BS_nCPU_LinAlg_DIAGO= 1          # [PARALLEL] CPUs for Linear Algebra (if -1 it is automatically set)
# | X_Threads= 1                     # [OPENMP/X] Number of threads for response functions
# | K_Threads= 1                     # [OPENMP/BSK] Number of threads for response functions
# | RandQpts=0                       # [RIM] Number of random q-points in the BZ
# | RandGvec= 1                RL    # [RIM] Coulomb interaction RS components
# | CUTGeo= "ws xyz"                 # [CUT] Coulomb Cutoff geometry: box/cylinder/sphere/ws/slab X/Y/Z/XY..
# | % CUTBox
# |  0.000000 | 0.000000 | 0.000000 |        # [CUT] [au] Box sides
# | %
# | CUTRadius= 0.000000              # [CUT] [au] Sphere/Cylinder radius
# | CUTCylLen= 0.000000              # [CUT] [au] Cylinder length
# | CUTwsGvec= 0.700000              # [CUT] WS cutoff: number of G to be modified
# | BSKmod= "IP"                     # [BSE] IP/Hartree/HF/ALDA/SEX/BSfxc
# | BSEmod= "retarded"               # [BSE] resonant/retarded/coupling
# | Lkind= "Lbar"                    # [BSE,X] bar(default)/full
# | DipBandsALL                    # [DIP] Compute all bands range, not only valence and conduction
# | DipComputed= "R V P"             # [DIP] [default R P V; extra P2 Spin Orb]
# | DbGdQsize= 1.000000              # [X,DbGd][o/o] Percentual of the total DbGd transitions to be used
# | BSENGexx= 20395            RL    # [BSK] Exchange components
# | % BSEQptR
# |  1 | 1 |                             # [BSK] Transferred momenta range
# | %
# | % BSEBands
# |   1 | 20 |                           # [BSK] Bands range
# | %
# | % BEnRange
# |   0.00000 | 20.00000 |         eV    # [BSS] Energy range
# | %
# | % BDmRange
# |  0.100000 | 0.100000 |         eV    # [BSS] Damping range
# | %
# | BEnSteps= 2001                   # [BSS] Energy steps
# | % BLongDir
# |  0.100000E-4 |  0.00000    |  0.00000    # [BSS] [cc] Electric Field
# | %
# | BSEprop= "abs dichr jdos"        # [BSS] Can be any among abs/jdos/kerr/magn/dich/photolum/esrt
# | BSEdips= "none"                  # [BSS] Can be "trace/none" or "xy/xz/yz" to define off-diagonal rotation plane
