#                                                                     
#  /$$     /$$ /$$$$$$  /$$      /$$ /$$$$$$$   /$$$$$$               
# |  $$   /$$//$$__  $$| $$$    /$$$| $$__  $$ /$$__  $$              
#  \  $$ /$$/| $$  \ $$| $$$$  /$$$$| $$  \ $$| $$  \ $$              
#   \  $$$$/ | $$$$$$$$| $$ $$/$$ $$| $$$$$$$ | $$  | $$              
#    \  $$/  | $$__  $$| $$  $$$| $$| $$__  $$| $$  | $$              
#     | $$   | $$  | $$| $$\  $ | $$| $$  \ $$| $$  | $$              
#     | $$   | $$  | $$| $$ \/  | $$| $$$$$$$/|  $$$$$$/              
#     |__/   |__/  |__/|__/     |__/|_______/  \______/               
#                                                                     
#      Version 5.0.0 Revision 19547 Hash 53446ff7e                    
#                  Branch is bug-fixes                                
#         MPI+OpenMP+SLK+SLEPC+HDF5_MPI_IO Build                      
#               http://www.yambo-code.org                             
#
# Polarizability ( -<<X>> ) [volume @ Q(1):  0.999999975E-5   0.00000000      0.00000000    [q->0 direction]
#
# [GEN] GF Energies                               : Perdew, Burke & Ernzerhof(X)+Perdew, Burke & Ernzerhof(C)
# [GEN] Wavefunctions                             : Perdew, Burke & Ernzerhof(X)+Perdew, Burke & Ernzerhof(C)
# [GEN] Green`s Function                          : Retarded
# [GEN] Gauge                                     : Length
# [GEN] [r,Vnl] included                          : yes
#
# DIP band range                                  :   1  20
# DIP band range limits                           :  20   1
# DIP e/h energy range                            :  -1.00000000     -1.00000000    [eV]
# RL vectors in the sum                           :  2637
# [r,Vnl] included                                : yes
# Bands ordered                                   : no
# Direct v evaluation                             : no
# Approach used                                   : G-space v
# Dipoles computed                                : R V P
# Wavefunctions                                   : Perdew, Burke & Ernzerhof(X)+Perdew, Burke & Ernzerhof(C)
#
#
#    Alpha is in a.u. of volume
#
#    E/ev[1]            ALPHA-Im[2]        ALPHA-Re[3]
#
     0.00000000         0.00000000         57.3933067   
    0.999999978E-2     0.214290642E-2      57.3934135   
    0.199999996E-1     0.428584311E-2      57.3937340   
    0.299999993E-1     0.642894814E-2      57.3942680   
    0.399999991E-1     0.857223850E-2      57.3950195   
    0.500000007E-1     0.107158143E-1      57.3959923   
    0.599999987E-1     0.128596947E-1      57.3971558   
    0.699999928E-1     0.150039382E-1      57.3985443   
    0.799999982E-1     0.171486866E-1      57.4001579   
    0.900000036E-1     0.192939993E-1      57.4019737   
    0.100000001        0.214398522E-1      57.4040146   
    0.109999999        0.235863216E-1      57.4062576   
    0.119999997        0.257335696E-1      57.4087181   
    0.129999995        0.278815832E-1      57.4113998   
    0.139999986        0.300304350E-1      57.4143028   
    0.149999991        0.321802013E-1      57.4174118   
    0.159999996        0.343309566E-1      57.4207306   
    0.170000002        0.364827774E-1      57.4242592   
    0.180000007        0.386357307E-1      57.4279900   
    0.189999998        0.407898575E-1      57.4319992   
    0.200000003        0.429452248E-1      57.4361649   
    0.210000008        0.451019183E-1      57.4405594   
    0.219999999        0.472599342E-1      57.4451790   
    0.229999989        0.494195037E-1      57.4500160   
    0.239999995        0.515805036E-1      57.4550438   
    0.250000000        0.537430905E-1      57.4603195   
    0.259999990        0.559073351E-1      57.4657860   
    0.270000011        0.580733567E-1      57.4714737   
    0.279999971        0.602411255E-1      57.4773865   
    0.289999992        0.624107681E-1      57.4835243   
    0.299999982        0.645823106E-1      57.4898567   
    0.310000002        0.667558238E-1      57.4964256   
    0.319999993        0.689313784E-1      57.5031891   
    0.330000013        0.711091012E-1      57.5101967   
    0.340000004        0.732890218E-1      57.5174179   
    0.349999994        0.754711628E-1      57.5248337   
    0.360000014        0.776556656E-1      57.5325050   
    0.369999975        0.798425376E-1      57.5403557   
    0.379999995        0.820318907E-1      57.5484467   
    0.389999986        0.842238292E-1      57.5567398   
    0.400000006        0.864183158E-1      57.5652695   
    0.409999996        0.886155069E-1      57.5740089   
    0.420000017        0.908154249E-1      57.5829735   
    0.430000007        0.930181742E-1      57.5921478   
    0.439999998        0.952238441E-1      57.6015396   
    0.450000018        0.974324793E-1      57.6111794   
    0.459999979        0.996440649E-1      57.6210175   
    0.470000029        0.101858847         57.6310806   
    0.479999989        0.104076795         57.6413727   
    0.489999980        0.106297918         57.6518707   
    0.500000000        0.108522415         57.6626053   
    0.509999990        0.110750243         57.6735420   
    0.519999981        0.112981588         57.6847267   
    0.529999971        0.115216441         57.6961365   
    0.540000021        0.117455021         57.7077522   
    0.550000012        0.119697116         57.7195892   
    0.559999943        0.121943109         57.7316704   
    0.569999993        0.124192834         57.7439613   
    0.579999983        0.126446530         57.7564812   
    0.590000033        0.128704175         57.7692184   
    0.599999964        0.130965859         57.7822075   
    0.610000014        0.133231685         57.7953720   
    0.620000005        0.135501757         57.8088112   
    0.629999995        0.137776136         57.8224564   
    0.639999986        0.140054867         57.8363342   
    0.649999976        0.142338037         57.8504295   
    0.660000026        0.144625798         57.8647652   
    0.669999957        0.146918088         57.8793297   
    0.680000007        0.149214998         57.8941231   
    0.689999998        0.151516706         57.9091568   
    0.699999988        0.153823331         57.9244003   
    0.709999979        0.156134799         57.9398842   
    0.720000029        0.158451259         57.9556046   
    0.730000019        0.160772771         57.9715233   
    0.739999950        0.163099572         57.9877052   
    0.750000000        0.165431499         58.0041084   
    0.759999990        0.167768776         58.0207710   
    0.770000041        0.170111448         58.0376282   
    0.779999971        0.172459617         58.0547371   
    0.790000021        0.174813420         58.0720901   
    0.800000012        0.177172810         58.0896645   
    0.810000002        0.179538026         58.1074867   
    0.819999993        0.181909010         58.1255379   
    0.829999983        0.184286043         58.1438370   
    0.840000033        0.186668873         58.1623573   
    0.849999964        0.189057961         58.1811180   
    0.860000014        0.191453189         58.2001228   
    0.870000005        0.193854615         58.2193642   
    0.879999995        0.196262509         58.2388535   
    0.889999926        0.198676676         58.2585754   
    0.900000036        0.201097533         58.2785454   
    0.910000026        0.203525022         58.2987633   
    0.919999957        0.205959171         58.3192062   
    0.929999948        0.208400175         58.3399048   
    0.940000057        0.210848033         58.3608437   
    0.949999988        0.213302940         58.3820381   
    0.959999979        0.215764850         58.4034615   
    0.969999969        0.218233988         58.4251366   
    0.979999959        0.220710471         58.4470558   
    0.990000010        0.223194256         58.4692421   
     1.00000000        0.225685537         58.4916420   
     1.00999999        0.228184447         58.5143051   
     1.01999998        0.230690926         58.5372238   
     1.03000009        0.233205363         58.5603981   
     1.03999996        0.235727578         58.5838318   
     1.04999995        0.238257825         58.6074944   
     1.05999994        0.240796074         58.6314125   
     1.06999993        0.243342444         58.6555939   
     1.08000004        0.245897099         58.6800346   
     1.09000003        0.248460248         58.7047310   
     1.10000002        0.251031816         58.7296944   
     1.11000001        0.253611922         58.7548714   
     1.11999989        0.256200939         58.7803345   
     1.13000000        0.258798599         58.8060417   
     1.13999999        0.261405170         58.8320312   
     1.14999998        0.264020920         58.8582726   
     1.15999997        0.266645610         58.8848000   
     1.17000008        0.269279808         58.9115524   
     1.18000007        0.271923155         58.9385643   
     1.18999994        0.274576068         58.9658775   
     1.19999993        0.277238518         58.9934273   
     1.20999992        0.279910743         59.0212593   
     1.22000003        0.282592773         59.0493393   
     1.23000002        0.285284758         59.0777016   
     1.24000001        0.287986785         59.1063271   
     1.25000000        0.290699095         59.1352272   
     1.25999999        0.293421596         59.1644058   
     1.26999998        0.296154529         59.1938400   
     1.27999997        0.298898011         59.2235527   
     1.28999996        0.301652133         59.2535515   
     1.29999995        0.304417044         59.2838058   
     1.31000006        0.307192981         59.3143692   
     1.32000005        0.309979767         59.3451881   
     1.32999992        0.312778056         59.3762856   
     1.33999991        0.315587461         59.4076653   
     1.35000002        0.318408281         59.4393311   
     1.36000001        0.321240664         59.4712639   
     1.37000000        0.324084938         59.5034866   
     1.38000000        0.326940864         59.5360222   
     1.38999999        0.329808712         59.5688133   
     1.39999998        0.332688838         59.6018906   
     1.40999997        0.335581273         59.6352501   
     1.41999996        0.338485986         59.6689186   
     1.42999995        0.341403216         59.7028770   
     1.44000006        0.344333202         59.7371178   
     1.45000005        0.347276092         59.7716560   
     1.46000004        0.350231737         59.8065071   
     1.47000003        0.353200585         59.8416328   
     1.47999990        0.356182665         59.8770409   
     1.49000001        0.359178334         59.9127655   
     1.50000000        0.362187505         59.9487839   
     1.50999999        0.365210325         59.9850998   
     1.51999998        0.368247151         60.0217361   
     1.52999997        0.371297926         60.0586624   
     1.54000008        0.374363005         60.0958939   
     1.54999995        0.377442330         60.1334419   
     1.55999994        0.380536228         60.1712875   
     1.56999993        0.383644760         60.2094650   
     1.58000004        0.386768311         60.2479095   
     1.59000003        0.389906675         60.2867088   
     1.60000002        0.393060267         60.3258133   
     1.61000001        0.396229297         60.3652153   
     1.62000000        0.399413764         60.4049416   
     1.63000000        0.402614057         60.4450073   
     1.63999999        0.405830234         60.4853668   
     1.64999998        0.409062386         60.5260696   
     1.65999997        0.412311047         60.5670662   
     1.67000008        0.415575773         60.6084137   
     1.68000007        0.418857336         60.6500778   
     1.68999994        0.422155678         60.6920738   
     1.69999993        0.425471038         60.7343826   
     1.71000004        0.428803504         60.7770386   
     1.72000003        0.432153344         60.8200340   
     1.73000002        0.435520798         60.8633614   
     1.74000001        0.438906103         60.9070244   
     1.75000000        0.442309320         60.9510307   
     1.75999999        0.445730656         60.9953690   
     1.76999986        0.449170381         61.0400467   
     1.77999985        0.452628821         61.0850792   
     1.79000008        0.456106037         61.1304588   
     1.80000007        0.459602207         61.1761665   
     1.81000006        0.463117659         61.2222366   
     1.82000005        0.466652453         61.2686691   
     1.83000004        0.470207065         61.3154526   
     1.83999991        0.473781526         61.3625870   
     1.84999990        0.477375925         61.4100761   
     1.85999990        0.480990916         61.4579163   
     1.86999989        0.484626234         61.5061302   
     1.88000011        0.488282740         61.5547104   
     1.89000010        0.491959929         61.6036301   
     1.89999998        0.495658755         61.6529541   
     1.90999997        0.499378771         61.7026367   
     1.91999996        0.503120720         61.7526894   
     1.92999995        0.506884694         61.8031082   
     1.93999994        0.510670841         61.8539124   
     1.94999993        0.514479756         61.9050941   
     1.95999992        0.518311083         61.9566727   
     1.97000003        0.522165835         62.0085983   
     1.98000002        0.526043832         62.0609474   
     1.99000001        0.529945314         62.1136665   
     2.00000000        0.533870816         62.1667633   
     2.00999999        0.537820280         62.2202644   
     2.01999998        0.541794300         62.2741661   
     2.02999997        0.545792878         62.3284798   
     2.03999996        0.549816489         62.3831635   
     2.04999995        0.553865373         62.4382706   
     2.06000018        0.557940006         62.4937668   
     2.07000017        0.562040269         62.5496788   
     2.07999992        0.566166878         62.6059990   
     2.08999991        0.570319653         62.6627388   
     2.09999990        0.574499667         62.7198830   
     2.10999990        0.578706443         62.7774734   
     2.11999989        0.582940876         62.8354263   
     2.12999988        0.587202907         62.8938408   
     2.13999987        0.591493011         62.9527016   
     2.15000010        0.595811725         63.0119629   
     2.16000009        0.600158691         63.0716858   
     2.17000008        0.604535282         63.1318207   
     2.18000007        0.608940959         63.1923714   
     2.19000006        0.613376439         63.2534027   
     2.20000005        0.617842138         63.3148613   
     2.21000004        0.622338235         63.3767738   
     2.22000003        0.626865327         63.4391098   
     2.23000002        0.631423473         63.5019302   
     2.23999977        0.636013210         63.5651779   
     2.25000000        0.640635133         63.6289330   
     2.25999999        0.645289361         63.6931038   
     2.26999998        0.649976075         63.7577515   
     2.27999997        0.654696107         63.8228798   
     2.28999996        0.659449756         63.8884811   
     2.29999995        0.664237320         63.9545403   
     2.30999994        0.669059217         64.0210953   
     2.31999993        0.673915863         64.0881195   
     2.32999992        0.678808153         64.1556473   
     2.34000015        0.683735847         64.2236404   
     2.35000014        0.688699424         64.2921448   
     2.36000013        0.693699479         64.3611526   
     2.36999989        0.698736966         64.4306564   
     2.37999988        0.703811347         64.5006561   
     2.38999987        0.708924234         64.5711365   
     2.39999986        0.714075446         64.6421738   
     2.40999985        0.719265103         64.7137146   
     2.41999984        0.724494219         64.7857590   
     2.43000007        0.729763210         64.8583527   
     2.44000006        0.735072792         64.9314499   
     2.45000005        0.740422904         65.0050888   
     2.46000004        0.745814621         65.0792618   
     2.47000003        0.751248419         65.1539688   
     2.48000002        0.756724477         65.2292252   
     2.49000001        0.762243330         65.3050308   
     2.50000000        0.767805636         65.3813858   
     2.50999999        0.773412287         65.4582977   
     2.51999998        0.779063702         65.5357819   
     2.52999997        0.784760118         65.6138229   
     2.53999996        0.790502369         65.6924057   
     2.54999995        0.796290696         65.7716064   
     2.55999994        0.802126527         65.8513641   
     2.56999993        0.808009982         65.9317245   
     2.57999992        0.813941061         66.0126572   
     2.58999991        0.819921434         66.0941849   
     2.59999990        0.825951338         66.1763077   
     2.61000013        0.832031429         66.2590332   
     2.62000012        0.838162243         66.3423843   
     2.63000011        0.844344616         66.4263382   
     2.64000010        0.850579262         66.5109024   
     2.65000010        0.856866419         66.5961075   
     2.65999985        0.863207579         66.6819229   
     2.66999984        0.869602621         66.7683792   
     2.67999983        0.876053333         66.8554840   
     2.68999982        0.882559359         66.9432144   
     2.70000005        0.889122188         67.0316010   
     2.71000004        0.895741880         67.1206436   
     2.72000003        0.902420223         67.2103653   
     2.73000002        0.909157217         67.3007507   
     2.74000001        0.915953934         67.3917923   
     2.75000000        0.922811151         67.4835358   
     2.75999999        0.929729640         67.5759659   
     2.76999998        0.936710417         67.6690750   
     2.77999997        0.943754077         67.7628860   
     2.79000020        0.950861931         67.8573914   
     2.79999995        0.958034396         67.9526138   
     2.80999994        0.965272903         68.0485687   
     2.81999993        0.972577691         68.1452484   
     2.82999992        0.979950309         68.2426300   
     2.83999991        0.987391412         68.3407669   
     2.84999990        0.994902194         68.4396515   
     2.85999990         1.00248349         68.5392838   
     2.86999989         1.01013649         68.6396866   
     2.88000011         1.01786196         68.7408295   
     2.89000010         1.02566075         68.8427582   
     2.90000010         1.03353477         68.9454651   
     2.91000009         1.04148424         69.0489578   
     2.92000008         1.04951060         69.1532516   
     2.93000007         1.05761492         69.2583466   
     2.94000006         1.06579864         69.3642426   
     2.94999981         1.07406259         69.4709702   
     2.95999980         1.08240819         69.5785065   
     2.96999979         1.09083593         69.6868896   
     2.98000002         1.09934819         69.7961349   
     2.99000001         1.10794580         69.9061966   
     3.00000000         1.11662984         70.0171432   
     3.00999999         1.12540150         70.1289444   
     3.01999998         1.13426244         70.2416229   
     3.02999997         1.14321351         70.3551788   
     3.03999996         1.15225697         70.4696503   
     3.04999995         1.16139328         70.5850296   
     3.05999994         1.17062533         70.7013016   
     3.07000017         1.17995274         70.8185272   
     3.08000016         1.18937755         70.9366531   
     3.08999991         1.19890153         71.0557251   
     3.09999990         1.20852673         71.1757660   
     3.10999990         1.21825433         71.2967529   
     3.11999989         1.22808504         71.4187241   
     3.12999988         1.23802233         71.5416565   
     3.13999987         1.24806583         71.6656036   
     3.14999986         1.25821912         71.7905655   
     3.16000009         1.26848316         71.9165268   
     3.17000008         1.27885950         72.0435028   
     3.18000007         1.28934968         72.1715164   
     3.19000006         1.29995668         72.3006134   
     3.20000005         1.31068134         72.4307327   
     3.21000004         1.32152557         72.5619431   
     3.22000003         1.33249211         72.6942215   
     3.23000002         1.34358299         72.8276215   
     3.24000001         1.35479927         72.9621201   
     3.25000000         1.36614454         73.0977402   
     3.25999999         1.37761939         73.2344513   
     3.26999998         1.38922679         73.3723831   
     3.27999997         1.40096843         73.5114288   
     3.28999996         1.41284740         73.6516495   
     3.29999995         1.42486548         73.7930679   
     3.30999994         1.43702531         73.9356918   
     3.31999993         1.44932914         74.0795212   
     3.32999992         1.46177971         74.2245789   
     3.34000015         1.47437918         74.3708878   
     3.35000014         1.48713017         74.5184631   
     3.36000013         1.50003564         74.6672668   
     3.37000012         1.51309824         74.8174057   
     3.37999988         1.52632034         74.9688339   
     3.38999987         1.53970563         75.1215973   
     3.39999986         1.55325568         75.2756653   
     3.41000009         1.56697488         75.4311371   
     3.42000008         1.58086526         75.5879211   
     3.43000007         1.59493005         75.7461395   
     3.44000006         1.60917246         75.9057465   
     3.45000005         1.62359667         76.0667496   
     3.46000004         1.63820469         76.2292099   
     3.47000003         1.65300024         76.3931503   
     3.48000002         1.66798675         76.5585709   
     3.49000001         1.68316829         76.7254257   
     3.50000000         1.69854832         76.8938522   
     3.50999999         1.71413052         77.0638199   
     3.51999998         1.72991812         77.2353363   
     3.52999997         1.74591553         77.4084015   
     3.53999972         1.76212728         77.5830917   
     3.54999971         1.77855635         77.7593765   
     3.55999970         1.79520762         77.9373016   
     3.57000017         1.81208599         78.1169128   
     3.58000016         1.82919455         78.2982407   
     3.59000015         1.84653819         78.4811935   
     3.60000014         1.86412168         78.6659164   
     3.61000013         1.88194966         78.8523865   
     3.62000012         1.90002739         79.0406570   
     3.63000011         1.91835976         79.2306900   
     3.64000010         1.93695080         79.4225922   
     3.65000010         1.95580792         79.6163483   
     3.66000009         1.97493434         79.8119354   
     3.66999984         1.99433708         80.0094604   
     3.67999983         2.01402044         80.2089462   
     3.68999982         2.03399110         80.4103699   
     3.69999981         2.05425525         80.6137848   
     3.70999980         2.07481813         80.8192215   
     3.71999979         2.09568644         81.0267334   
     3.72999978         2.11686683         81.2362671   
     3.73999977         2.13836503         81.4479828   
     3.75000024         2.16019011         81.6618195   
     3.76000023         2.18234730         81.8778229   
     3.77000022         2.20484328         82.0960159   
     3.78000021         2.22768521         82.3164368   
     3.79000020         2.25088215         82.5391922   
     3.79999995         2.27444100         82.7642136   
     3.80999994         2.29837012         82.9915924   
     3.81999993         2.32267809         83.2213593   
     3.82999992         2.34737277         83.4535522   
     3.83999991         2.37246203         83.6881943   
     3.84999990         2.39795637         83.9253540   
     3.85999990         2.42386508         84.1650314   
     3.86999989         2.45019531         84.4073029   
     3.87999988         2.47695827         84.6521683   
     3.88999987         2.50416517         84.8997574   
     3.89999986         2.53182507         85.1500092   
     3.90999985         2.55994916         85.4030457   
     3.91999984         2.58854795         85.6588211   
     3.92999983         2.61763120         85.9174652   
     3.94000006         2.64721584         86.1790314   
     3.95000005         2.67730737         86.4435577   
     3.96000004         2.70792103         86.7110519   
     3.97000003         2.73906922         86.9815445   
     3.98000002         2.77076626         87.2551880   
     3.99000001         2.80302310         87.5319672   
     4.00000000         2.83585620         87.8119583   
     4.01000023         2.86927867         88.0952148   
     4.01999998         2.90330648         88.3817825   
     4.02999973         2.93795419         88.6717529   
     4.03999996         2.97323704         88.9651413   
     4.04999971         3.00917268         89.2620697   
     4.05999994         3.04577708         89.5624847   
     4.06999969         3.08306694         89.8666000   
     4.07999992         3.12106204         90.1744308   
     4.08999968         3.15977979         90.4860077   
     4.09999990         3.19924140         90.8014069   
     4.10999966         3.23946333         91.1207809   
     4.12000036         3.28047132         91.4440842   
     4.13000011         3.32228160         91.7714920   
     4.14000034         3.36491847         92.1030350   
     4.15000010         3.40840364         92.4387970   
     4.15999985         3.45276117         92.7788925   
     4.17000008         3.49801660         93.1233597   
     4.17999983         3.54419518         93.4723129   
     4.19000006         3.59132171         93.8258667   
     4.19999981         3.63942409         94.1840591   
     4.21000004         3.68853188         94.5470428   
     4.21999979         3.73867226         94.9148331   
     4.23000002         3.78987646         95.2876663   
     4.23999977         3.84217668         95.6655502   
     4.25000000         3.89560485         96.0485535   
     4.25999975         3.95019412         96.4368668   
     4.26999998         4.00598049         96.8305893   
     4.27999973         4.06300116         97.2298126   
     4.28999996         4.12129307         97.6346893   
     4.30000019         4.18089962         98.0453262   
     4.30999994         4.24185467         98.4618454   
     4.32000017         4.30420589         98.8843842   
     4.32999992         4.36799669         99.3130035   
     4.34000015         4.43327141         99.7480011   
     4.34999990         4.50008154         100.189430   
     4.36000013         4.56847525         100.637444   
     4.36999989         4.63850403         101.092171   
     4.38000011         4.71022463         101.553833   
     4.38999987         4.78369188         102.022514   
     4.40000010         4.85896587         102.498444   
     4.40999985         4.93610954         102.981773   
     4.42000008         5.01518250         103.472710   
     4.42999983         5.09625816         103.971405   
     4.44000006         5.17940092         104.478073   
     4.44999981         5.26468801         104.992889   
     4.46000004         5.35219717         105.516113   
     4.46999979         5.44200706         106.047913   
     4.47999954         5.53420019         106.588539   
     4.49000025         5.62886620         107.138199   
     4.50000000         5.72609520         107.697113   
     4.51000023         5.82598352         108.265541   
     4.51999998         5.92863369         108.843758   
     4.53000021         6.03414869         109.432022   
     4.53999996         6.14264488         110.030579   
     4.55000019         6.25423479         110.639732   
     4.55999994         6.36904001         111.259796   
     4.57000017         6.48719072         111.891045   
     4.57999992         6.60882235         112.533813   
     4.59000015         6.73407698         113.188423   
     4.59999990         6.86310005         113.855232   
     4.60999966         6.99605370         114.534576   
     4.61999989         7.13310194         115.226845   
     4.62999964         7.27441692         115.932442   
     4.63999987         7.42018604         116.651733   
     4.64999962         7.57059956         117.385139   
     4.65999985         7.72586679         118.133141   
     4.67000008         7.88620567         118.896164   
     4.68000031         8.05183697         119.674652   
     4.69000006         8.22300243         120.469131   
     4.70000029         8.39996529         121.280106   
     4.71000004         8.58299255         122.108124   
     4.72000027         8.77237034         122.953728   
     4.73000002         8.96840191         123.817535   
     4.73999977         9.17141628         124.700157   
     4.75000000         9.38175297         125.602242   
     4.75999975         9.59977341         126.524399   
     4.76999998         9.82586765         127.467369   
     4.77999973         10.0604486         128.431976   
     4.78999996         10.3039560         129.418884   
     4.79999971         10.5568571         130.428940   
     4.80999994         10.8196507         131.462967   
     4.81999969         11.0928755         132.521927   
     4.82999992         11.3770857         133.606705   
     4.83999968         11.6729088         134.718246   
     4.85000038         11.9810019         135.857697   
     4.86000013         12.3020382         137.026062   
     4.86999989         12.6367846         138.224472   
     4.88000011         12.9860430         139.454178   
     4.88999987         13.3506784         140.716431   
     4.90000010         13.7316198         142.012604   
     4.90999985         14.1298723         143.344009   
     4.92000008         14.5465174         144.712265   
     4.92999983         14.9827175         146.118912   
     4.94000006         15.4397354         147.565552   
     4.94999981         15.9189329         149.053986   
     4.96000004         16.4217911         150.586090   
     4.96999979         16.9499035         152.163788   
     4.98000002         17.5050144         153.789230   
     4.98999977         18.0890141         155.464569   
     5.00000000         18.7039528         157.192169   
     5.00999975         19.3520832         158.974472   
     5.01999998         20.0358543         160.814209   
     5.03000021         20.7579708         162.714172   
     5.03999996         21.5213089         164.677216   
     5.05000019         22.3291111         166.706604   
     5.05999994         23.1849213         168.805618   
     5.07000017         24.0926132         170.977890   
     5.07999992         25.0564785         173.227219   
     5.09000015         26.0812454         175.557541   
     5.09999990         27.1721420         177.973236   
     5.11000013         28.3349857         180.478897   
     5.11999989         29.5761929         183.079376   
     5.13000011         30.9029255         185.779678   
     5.13999987         32.3231697         188.585480   
     5.15000010         33.8458405         191.502365   
     5.15999985         35.4808960         194.536469   
     5.17000008         37.2395363         197.694412   
     5.17999983         39.1343155         200.982819   
     5.18999958         41.1794014         204.408905   
     5.19999981         43.3907700         207.980026   
     5.20999956         45.7865334         211.703766   
     5.22000027         48.3872795         215.588348   
     5.23000002         51.2160988         219.641357   
     5.24000025         54.2996674         223.870819   
     5.25000000         57.6682968         228.284607   
     5.26000023         61.3566322         232.889740   
     5.26999998         65.4044571         237.692627   
     5.28000021         69.8573990         242.698120   
     5.28999996         74.7678680         247.909088   
     5.30000019         80.1964035         253.325424   
     5.30999994         86.2125092         258.942413   
     5.31999969         92.8963928         264.749573   
     5.32999992         100.340294         270.727722   
     5.33999968         108.650101         276.846527   
     5.34999990         117.946945         283.059723   
     5.35999966         128.368317         289.299927   
     5.36999989         140.068832         295.471680   
     5.37999964         153.219635         301.441132   
     5.38999987         168.005630         307.025574   
     5.40000010         184.620163         311.977722   
     5.41000032         203.249786         315.967560   
     5.42000008         224.058350         318.564178   
     5.43000031         247.151291         319.216492   
     5.44000006         272.527557         317.240356   
     5.44999981         300.011108         311.819519   
     5.46000004         329.165192         302.038300   
     5.46999979         359.198700         286.958435   
     5.48000002         388.890289         265.762787   
     5.48999977         416.573578         237.964752   
     5.50000000         440.240051         203.657425   
     5.50999975         457.795532         163.723724   
     5.51999998         467.451111         119.901993   
     5.52999973         468.144226         74.6133423   
     5.53999996         459.820557         30.5582333   
     5.54999971         443.449799        -9.79147530   
     5.55999994         420.765564        -44.6150360   
     5.56999969         393.851715        -72.9403915   
     5.58000040         364.740631        -94.6020279   
     5.59000015         335.144440        -110.036263   
     5.59999990         306.331696        -120.037521   
     5.61000013         279.136139        -125.538414   
     5.61999989         254.028351        -127.461197   
     5.63000011         231.208496        -126.633080   
     5.63999987         210.694138        -123.751556   
     5.65000010         192.389877        -119.379791   
     5.65999985         176.138977        -113.959038   
     5.67000008         161.756958        -107.827003   
     5.67999983         149.053497        -101.237289   
     5.69000006         137.845123        -94.3771133   
     5.69999981         127.961960        -87.3827057   
     5.71000004         119.250710        -80.3511353   
     5.71999979         111.575455        -73.3502426   
     5.73000002         104.817314        -66.4257812   
     5.73999977         98.8730011        -59.6071548   
     5.75000000         93.6535034        -52.9118156   
     5.76000023         89.0824738        -46.3480797   
     5.76999998         85.0953827        -39.9185333   
     5.78000021         81.6371155        -33.6202354   
     5.78999996         78.6615906        -27.4473495   
     5.80000019         76.1306000        -21.3915386   
     5.80999994         74.0129395        -15.4429026   
     5.82000017         72.2836990        -9.59046936   
     5.82999992         70.9238663        -3.82276583   
     5.84000015         69.9197540         1.87220907   
     5.84999990         69.2628860         7.50617790   
     5.86000013         68.9497452         13.0907383   
     5.86999989         68.9817505         18.6368389   
     5.88000011         69.3653717         24.1545525   
     5.88999987         70.1122971         29.6528244   
     5.89999962         71.2397690         35.1388016   
     5.90999985         72.7709122         40.6172943   
     5.91999960         74.7352905         46.0900764   
     5.92999983         77.1697006         51.5546150   
     5.93999958         80.1184616         57.0028000   
     5.95000029         83.6346817         62.4190636   
     5.96000004         87.7799911         67.7770615   
     5.97000027         92.6259842         73.0374908   
     5.98000002         98.2535248         78.1428375   
     5.99000025         104.751808         83.0121002   
     6.00000000         112.215874         87.5331879   
     6.01000023         120.741699         91.5547104   
     6.01999998         130.417053         94.8762436   
     6.03000021         141.307327         97.2375259   
     6.03999996         153.432968         98.3107834   
     6.04999971         166.737991         97.6978836   
     6.05999994         181.048248         94.9400253   
     6.06999969         196.022720         89.5481949   
     6.07999992         211.108856         81.0642929   
     6.08999968         225.519623         69.1586227   
     6.09999990         238.261108         53.7549477   
     6.10999966         248.235901         35.1539726   
     6.11999989         254.424957         14.1019049   
     6.13000011         256.110443        -8.25134945   
     6.14000034         253.059036        -30.5187912   
     6.15000010         245.587021        -51.3375969   
     6.16000032         234.472183        -69.6130829   
     6.17000008         220.758667        -84.6705704   
     6.17999983         205.535690        -96.2763748   
     6.19000006         189.766724        -104.556221   
     6.19999981         174.199905        -109.868958   
     6.21000004         159.349518        -112.683990   
     6.21999979         145.524384        -113.489868   
     6.23000002         132.874268        -112.738617   
     6.23999977         121.437714        -110.818832   
     6.25000000         111.182365        -108.048889   
     6.25999975         102.034973        -104.680557   
     6.26999998         93.9021530        -100.908081   
     6.27999973         86.6840668        -96.8782196   
     6.28999996         80.2822876        -92.6999054   
     6.29999971         74.6043930        -88.4528351   
     6.30999994         69.5660706        -84.1939163   
     6.32000017         65.0924759        -79.9638062   
     6.32999992         61.1170998        -75.7897949   
     6.34000015         57.5820503        -71.6899414   
     6.34999990         54.4369698        -67.6753693   
     6.36000013         51.6384010        -63.7520180   
     6.36999989         49.1489296        -59.9220161   
     6.38000011         46.9363747        -56.1849327   
     6.38999987         44.9732590        -52.5382843   
     6.40000010         43.2361145        -48.9782257   
     6.40999985         41.7050171        -45.5000076   
     6.42000008         40.3632088        -42.0981522   
     6.42999983         39.1967010        -38.7668266   
     6.44000006         38.1939354        -35.4999466   
     6.44999981         37.3456268        -32.2912483   
     6.46000004         36.6445656        -29.1344261   
     6.46999979         36.0854034        -26.0232220   
     6.48000002         35.6646767        -22.9514618   
     6.48999977         35.3806419        -19.9131107   
     6.50000000         35.2333298        -16.9021530   
     6.51000023         35.2245522        -13.9132538   
     6.51999998         35.3579407        -10.9410181   
     6.53000021         35.6390839        -7.98058891   
     6.53999996         36.0756607        -5.02765703   
     6.55000019         36.6776314        -2.07874846   
     6.55999994         37.4574547        0.868712366   
     6.57000017         38.4304466         3.81592274   
     6.57999992         39.6149673         6.76225948   
     6.59000015         41.0329590         9.70467091   
     6.59999990         42.7101822         12.6368589   
     6.61000013         44.6766739         15.5481339   
     6.61999989         46.9669609         18.4219303   
     6.62999964         49.6203041         21.2339497   
     6.63999987         52.6803436         23.9494629   
     6.64999962         56.1943550         26.5202885   
     6.65999985         60.2115173         28.8807545   
     6.66999960         64.7794266         30.9430065   
     6.68000031         69.9386597         32.5919991   
     6.69000006         75.7129745         33.6802750   
     6.70000029         82.0970688         34.0254974   
     6.71000004         89.0373154         33.4110565   
     6.72000027         96.4090118         31.5955849   
     6.73000002         103.991920         28.3351421   
     6.74000025         111.451416         23.4227619   
     6.75000000         118.337402         16.7452393   
     6.75999975         124.115486         8.34852600   
     6.76999998         128.238770        -1.50977564   
     6.77999973         130.253296        -12.3494911   
     6.78999996         129.906403        -23.5203667   
     6.79999971         127.214600        -34.3133316   
     6.81000042         122.458298        -44.0941238   
     6.82000017         116.108208        -52.4072418   
     6.83000040         108.713707        -59.0228882   
     6.84000015         100.801201        -63.9179306   
     6.85000038         92.8066101        -67.2206421   
     6.86000013         85.0492554        -69.1456223   
     6.87000036         77.7356491        -69.9387131   
     6.88000011         70.9794769        -69.8397903   
     6.88999987         64.8262329        -69.0623322   
     6.90000010         59.2757454        -67.7852554   
     6.90999985         54.3000603        -66.1526947   
     6.92000008         49.8560982        -64.2770386   
     6.92999983         45.8943481        -62.2443085   
     6.94000006         42.3641777        -60.1190224   
     6.94999981         39.2170219        -57.9488640   
     6.96000004         36.4078407        -55.7684402   
     6.96999979         33.8959961        -53.6025162   
     6.98000002         31.6453362        -51.4685631   
     6.98999977         29.6240692        -49.3783226   
     7.00000000         27.8042984        -47.3396301   
     7.00999975         26.1618004        -45.3572044   
     7.01999998         24.6754456        -43.4336090   
     7.02999973         23.3269482        -41.5698128   
     7.03999996         22.1003914        -39.7657318   
     7.04999971         20.9819450        -38.0203705   
     7.05999994         19.9595871        -36.3322945   
     7.06999969         19.0228386        -34.6996765   
     7.07999945         18.1625519        -33.1204147   
     7.08999968         17.3707237        -31.5923767   
     7.09999943         16.6403389        -30.1133099   
     7.10999966         15.9652414        -28.6809349   
     7.11999941         15.3400097        -27.2930813   
     7.12999964         14.7598429        -25.9475517   
     7.14000034         14.2204771        -24.6422138   
     7.15000010         13.7182331        -23.3752480   
     7.16000032         13.2497387        -22.1446247   
     7.17000008         12.8120203        -20.9485626   
     7.18000031         12.4024258        -19.7852840   
     7.19000006         12.0185804        -18.6532001   
     7.20000029         11.6583672        -17.5507183   
     7.21000004         11.3198719        -16.4764061   
     7.22000027         11.0013714        -15.4288721   
     7.23000002         10.7013226        -14.4068155   
     7.24000025         10.4183207        -13.4089975   
     7.25000000         10.1511011        -12.4342632   
     7.26000023         9.89851284        -11.4815283   
     7.26999998         9.65951157        -10.5497417   
     7.28000021         9.43314838        -9.63793659   
     7.28999996         9.21855259        -8.74517441   
     7.30000019         9.01494694        -7.87061119   
     7.30999994         8.82159138        -7.01341391   
     7.32000017         8.63783455        -6.17280006   
     7.32999992         8.46306515        -5.34802818   
     7.33999968         8.29672718        -4.53839827   
     7.34999990         8.13830280        -3.74327016   
     7.35999966         7.98732853        -2.96200895   
     7.36999989         7.84336519        -2.19399858   
     7.37999964         7.70600557        -1.43870091   
     7.38999987         7.57488060       -0.695556283   
     7.39999962         7.44964981        0.359271243E-1
     7.40999985         7.32999134        0.756252587   
     7.41999960         7.21561146         1.46587598   
     7.42999983         7.10622978         2.16523075   
     7.43999958         7.00159836         2.85474777   
     7.44999981         6.90147352         3.53483415   
     7.45999956         6.80563784         4.20585728   
     7.46999979         6.71388721         4.86819696   
     7.47999954         6.62602329         5.52220964   
     7.48999977         6.54187250         6.16822052   
     7.50000048         6.46125698         6.80660582   
     7.51000023         6.38403225         7.43757296   
     7.52000046         6.31004810         8.06147671   
     7.53000021         6.23916435         8.67859173   
     7.54000044         6.17125034         9.28920269   
     7.55000019         6.10618973         9.89356899   
     7.56000042         6.04386568         10.4919434   
     7.57000017         5.98417377         11.0845747   
     7.58000040         5.92701340         11.6717024   
     7.59000015         5.87228918         12.2535477   
     7.59999990         5.81991386         12.8303251   
     7.61000013         5.76980495         13.4022579   
     7.61999989         5.72188091         13.9695587   
     7.63000011         5.67607355         14.5324020   
     7.63999987         5.63230896         15.0910053   
     7.65000010         5.59052801         15.6455526   
     7.65999985         5.55066204         16.1962147   
     7.67000008         5.51265955         16.7431812   
     7.67999983         5.47646141         17.2866154   
     7.69000006         5.44201612         17.8266830   
     7.69999981         5.40928030         18.3635540   
     7.71000004         5.37820673         18.8973846   
     7.71999979         5.34875250         19.4283295   
     7.73000002         5.32087708         19.9565430   
     7.73999977         5.29454374         20.4821739   
     7.75000000         5.26971626         21.0053520   
     7.75999975         5.24636173         21.5262394   
     7.76999998         5.22444916         22.0449677   
     7.77999973         5.20395231         22.5616608   
     7.78999949         5.18484402         23.0764675   
     7.79999971         5.16709232         23.5895195   
     7.80999947         5.15068102         24.1009369   
     7.81999969         5.13558435         24.6108475   
     7.82999945         5.12178516         25.1193790   
     7.83999968         5.10926342         25.6266537   
     7.84999943         5.09800148         26.1327991   
     7.85999966         5.08798361         26.6379261   
     7.87000036         5.07919598         27.1422081   
     7.88000011         5.07163000         27.6456699   
     7.89000034         5.06526613         28.1484604   
     7.90000010         5.06010056         28.6507244   
     7.91000032         5.05612183         29.1525555   
     7.92000008         5.05332470         29.6540604   
     7.93000031         5.05169964         30.1553860   
     7.94000006         5.05124235         30.6565952   
     7.95000029         5.05194950         31.1578426   
     7.96000004         5.05381870         31.6592312   
     7.97000027         5.05684423         32.1608734   
     7.98000002         5.06103134         32.6628609   
     7.99000025         5.06637621         33.1653252   
     8.00000000         5.07288647         33.6683807   
     8.01000023         5.08055592         34.1721191   
     8.02000046         5.08939934         34.6766815   
     8.02999973         5.09940863         35.1821556   
     8.03999996         5.11060333         35.6886787   
     8.05000019         5.12298489         36.1963615   
     8.05999947         5.13656044         36.7052765   
     8.06999969         5.15134287         37.2156029   
     8.07999992         5.16734314         37.7274208   
     8.09000015         5.18457222         38.2408676   
     8.09999943         5.20304489         38.7560310   
     8.10999966         5.22277355         39.2730598   
     8.11999989         5.24377966         39.7920609   
     8.13000011         5.26607466         40.3131828   
     8.13999939         5.28968191         40.8365211   
     8.14999962         5.31461859         41.3622131   
     8.15999985         5.34090805         41.8903885   
     8.17000008         5.36857462         42.4212036   
     8.17999935         5.39764214         42.9547501   
     8.18999958         5.42813826         43.4911766   
     8.19999981         5.46009207         44.0306244   
     8.21000004         5.49352741         44.5732422   
     8.21999931         5.52848434         45.1191711   
     8.23000050         5.56499434         45.6686020   
     8.24000072         5.60309076         46.2215958   
     8.25000000         5.64281130         46.7783356   
     8.26000023         5.68419647         47.3390007   
     8.27000046         5.72729015         47.9037285   
     8.28000069         5.77213669         48.4727058   
     8.28999996         5.81877899         49.0460968   
     8.30000019         5.86727619         49.6240692   
     8.31000042         5.91767168         50.2068024   
     8.31999969         5.97002697         50.7944679   
     8.32999992         6.02439356         51.3872910   
     8.34000015         6.08083868         51.9854088   
     8.35000038         6.13942719         52.5890732   
     8.35999966         6.20022535         53.1984482   
     8.36999989         6.26330900         53.8137817   
     8.38000011         6.32875252         54.4352608   
     8.39000034         6.39663553         55.0631218   
     8.39999962         6.46704340         55.6975899   
     8.40999985         6.54006720         56.3389435   
     8.42000008         6.61580324         56.9873810   
     8.43000031         6.69434881         57.6431770   
     8.43999958         6.77581167         58.3065987   
     8.44999981         6.86030579         58.9779358   
     8.46000004         6.94794607         59.6574631   
     8.47000027         7.03886032         60.3454666   
     8.47999954         7.13318348         61.0422554   
     8.48999977         7.23105097         61.7481689   
     8.50000000         7.33261919         62.4635086   
     8.50999928         7.43803883         63.1886520   
     8.51999950         7.54748583         63.9239426   
     8.52999973         7.66113138         64.6697311   
     8.53999996         7.77917099         65.4264526   
     8.54999924         7.90180254         66.1944962   
     8.55999947         8.02923870         66.9742661   
     8.56999969         8.16171265         67.7662125   
     8.57999992         8.29946518         68.5708160   
     8.58999920         8.44275188         69.3885498   
     8.60000038         8.59186459         70.2199707   
     8.61000061         8.74707413         71.0654984   
     8.61999989         8.90870571         71.9257050   
     8.63000011         9.07709885         72.8012238   
     8.64000034         9.25261307         73.6926270   
     8.65000057         9.43562794         74.6005554   
     8.65999985         9.62656879         75.5257034   
     8.67000008         9.82587719         76.4687576   
     8.68000031         10.0340252         77.4304428   
     8.69000053         10.2515268         78.4115601   
     8.69999981         10.4789400         79.4128723   
     8.71000004         10.7168617         80.4353180   
     8.72000027         10.9659319         81.4797516   
     8.73000050         11.2268419         82.5471115   
     8.73999977         11.5003452         83.6384201   
     8.75000000         11.7872515         84.7547913   
     8.76000023         12.0884457         85.8972855   
     8.76999950         12.4048843         87.0671234   
     8.77999973         12.7375994         88.2655411   
     8.78999996         13.0877314         89.4939194   
     8.80000019         13.4565048         90.7535934   
     8.80999947         13.8452635         92.0460968   
     8.81999969         14.2554827         93.3730087   
     8.82999992         14.6887674         94.7359772   
     8.84000015         15.1468763         96.1368637   
     8.84999943         15.6317530         97.5774536   
     8.85999966         16.1455231         99.0598450   
     8.86999989         16.6905289         100.586098   
     8.88000011         17.2693634         102.158524   
     8.88999939         17.8848858         103.779480   
     8.89999962         18.5402622         105.451599   
     8.90999985         19.2390118         107.177528   
     8.92000008         19.9850445         108.960114   
     8.92999935         20.7827244         110.802452   
     8.93999958         21.6369076         112.707802   
     8.94999981         22.5530338         114.679482   
     8.95999908         23.5372028         116.721176   
     8.97000027         24.5963612         118.836792   
     8.98000050         25.7380505         121.029922   
     8.99000072         26.9710655         123.304909   
     9.00000000         28.3052540         125.666016   
     9.01000023         29.7517891         128.117584   
     9.02000046         31.3233547         130.664108   
     9.02999973         33.0344086         133.309967   
     9.03999996         34.9014244         136.059509   
     9.05000019         36.9432945         138.916702   
     9.06000042         39.1816101         141.885193   
     9.06999969         41.6412048         144.967743   
     9.07999992         44.3506012         148.166077   
     9.09000015         47.3426514         151.480164   
     9.10000038         50.6551590         154.907806   
     9.10999966         54.3317070         158.443344   
     9.11999989         58.4224472         162.076645   
     9.13000011         62.9848824         165.791428   
     9.14000034         68.0848389         169.562881   
     9.14999962         73.7970505         173.354630   
     9.15999985         80.2055206         177.115128   
     9.17000008         87.4032593         180.772339   
     9.18000031         95.4908676         184.227234   
     9.18999958         104.573074         187.346008   
     9.19999981         114.752289         189.950256   
     9.21000004         126.117584         191.806747   
     9.21999931         138.726974         192.616852   
     9.22999954         152.580887         192.009628   
     9.23999977         167.585236         189.542664   
     9.25000000         183.504913         184.718613   
     9.25999928         199.912781         177.027405   
     9.26999950         216.147858         166.023499   
     9.27999973         231.307388         151.439499   
     9.28999996         244.301102         133.321457   
     9.29999924         253.989761         112.143692   
     9.30999947         259.397583         88.8460083   
     9.31999969         259.940460         64.7414780   
     9.32999992         255.581177         41.2968712   
     9.34000015         246.841446         19.8635406   
     9.35000038         234.659943         1.43547130   
     9.36000061         220.169113        -13.4525042   
     9.36999989         204.476227        -24.7044601   
     9.38000011         188.514084        -32.5547600   
     9.39000034         172.976456        -37.4326401   
     9.40000057         158.319962        -39.8442993   
     9.40999985         144.803085        -40.2911072   
     9.42000008         132.536499        -39.2230682   
     9.43000031         121.531212        -37.0196915   
     9.44000053         111.736588        -33.9875336   
     9.44999981         103.068115        -30.3666191   
     9.46000004         95.4261932        -26.3405132   
     9.47000027         88.7079620        -22.0467834   
     9.47999954         82.8142395        -17.5869560   
     9.48999977         77.6532898        -13.0344992   
     9.50000000         73.1424408        -8.44160938   
     9.51000023         69.2085800        -3.84426951   
     9.51999950         65.7879028        0.733392000   
     9.52999973         62.8251839         5.27638721   
     9.53999996         60.2731056         9.77626705   
     9.55000019         58.0914421         14.2295675   
     9.55999947         56.2462120         18.6364021   
     9.56999969         54.7090302         22.9994717   
     9.57999992         53.4565239         27.3234100   
     9.59000015         52.4697075         31.6142921   
     9.59999943         51.7336731         35.8791008   
     9.60999966         51.2372208         40.1254768   
     9.61999989         50.9724998         44.3615341   
     9.63000011         50.9349518         48.5956497   
     9.63999939         51.1231995         52.8363419   
     9.64999962         51.5388718         57.0919876   
     9.65999985         52.1868095         61.3708496   
     9.66999912         53.0750809         65.6807632   
     9.67999935         54.2151833         70.0291061   
     9.68999958         55.6222839         74.4222717   
     9.70000076         57.3157043         78.8659286   
     9.71000004         59.3187714         83.3630905   
     9.72000027         61.6600723         87.9153671   
     9.73000050         64.3734741         92.5210342   
     9.73999977         67.4988861         97.1739655   
     9.75000000         71.0826950         101.862320   
     9.76000023         75.1784286         106.566597   
     9.77000046         79.8468170         111.256699   
     9.77999973         85.1557770         115.888840   
     9.78999996         91.1793365         120.401161   
     9.80000019         97.9953308         124.708603   
     9.81000042         105.681259         128.696640   
     9.81999969         114.306656         132.214996   
     9.82999992         123.921867         135.071747   
     9.84000015         134.540970         137.029968   
     9.85000038         146.119507         137.811066   
     9.85999966         158.528015         137.107880   
     9.86999989         171.526672         134.614578   
     9.88000011         184.751068         130.074631   
     9.89000034         197.723190         123.343422   
     9.89999962         209.901764         114.449638   
     9.90999985         220.771225         103.626595   
     9.92000008         229.948502         91.2860565   
     9.92999935         237.263321         77.9246521   
     9.93999958         242.767319         63.9918938   
     9.94999981         246.656464         49.7754631   
     9.96000004         249.136566         35.3587685   
     9.96999931         250.290848         20.6724873   
     9.97999954         250.006958         5.61876917   
     9.98999977         247.997620        -9.78286457   
     10.0000000         243.910126        -25.2900925   
     10.0099993         237.482361        -40.4207535   
     10.0199995         228.680542        -54.5370178   
     10.0299997         217.757401        -66.9951553   
     10.0400000         205.211288        -77.2955475   
     10.0499992         191.674393        -85.1735306   
     10.0600004         177.784180        -90.6107559   
     10.0700006         164.090515        -93.7836380   
     10.0799999         151.001343        -94.9898605   
     10.0900002         138.781052        -94.5747452   
     10.1000004         127.570297        -92.8794403   
     10.1100006         117.416397        -90.2102585   
     10.1199999         108.303337        -86.8254776   
     10.1300001         100.176582        -82.9335861   
     10.1400003         92.9611511        -78.6972275   
     10.1500006         86.5740967        -74.2402725   
     10.1599998         80.9320068        -69.6548309   
     10.1700001         75.9558182        -65.0079346   
     10.1800003         71.5729599        -60.3474236   
     10.1899996         67.7184601        -55.7063522   
     10.1999998         64.3349609        -51.1066589   
     10.2100000         61.3725471        -46.5621262   
     10.2200003         58.7881393        -42.0802155   
     10.2299995         56.5449028        -37.6640511   
     10.2399998         54.6115608        -33.3133812   
     10.2500000         52.9618645        -29.0255032   
     10.2600002         51.5740433        -24.7961235   
     10.2699995         50.4303551        -20.6196136   
     10.2799997         49.5167122        -16.4896069   
     10.2900000         48.8224144        -12.3991318   
     10.3000002         48.3397980        -8.34088993   
     10.3099995         48.0642509        -4.30744457   
     10.3199997         47.9939880       -0.291386783   
     10.3299999         48.1301155         3.71451592   
     10.3400002         48.4765930         7.71723080   
     10.3499994         49.0404396         11.7231989   
     10.3599997         49.8317413         15.7380552   
     10.3699999         50.8640671         19.7665081   
     10.3799992         52.1546745         23.8117962   
     10.3899994         53.7248268         27.8752117   
     10.3999996         55.6003838         31.9554443   
     10.4099998         57.8120232         36.0476646   
     10.4199991         60.3959236         40.1421509   
     10.4300003         63.3942528         44.2233315   
     10.4400005         66.8545074         48.2659302   
     10.4499998         70.8307724         52.2344475   
     10.4600000         75.3822632         56.0783653   
     10.4700003         80.5715637         59.7281494   
     10.4800005         86.4618149         63.0903282   
     10.4899998         93.1109238         66.0420380   
     10.5000000         100.563164         68.4257355   
     10.5100002         108.836777         70.0458221   
     10.5200005         117.907150         70.6683044   
     10.5299997         127.686684         70.0274811   
     10.5400000         138.003311         67.8414383   
     10.5500002         148.581833         63.8396454   
     10.5600004         159.034973         57.8015633   
     10.5699997         168.869095         49.6042557   
     10.5799999         177.511459         39.2721443   
     10.5900002         184.362320         27.0197525   
     10.6000004         188.871613         13.2735577   
     10.6099997         190.630768        -1.34364104   
     10.6199999         189.456635        -16.0771217   
     10.6300001         185.436554        -30.1455765   
     10.6399994         178.913773        -42.8576508   
     10.6499996         170.418747        -53.7035255   
     10.6599998         160.571503        -62.3974686   
     10.6700001         149.987320        -68.8708572   
     10.6799994         139.205795        -73.2299957   
     10.6899996         128.652328        -75.6984711   
     10.6999998         118.627449        -76.5598526   
     10.7100000         109.317749        -76.1116867   
     10.7199993         100.817429        -74.6339645   
     10.7299995         93.1528473        -72.3720169   
     10.7399998         86.3050537        -69.5300598   
     10.7500000         80.2279205        -66.2717361   
     10.7599993         74.8612823        -62.7242737   
     10.7699995         70.1397934        -58.9843140   
     10.7799997         65.9986496        -55.1236305   
     10.7900000         62.3764839        -51.1941338   
     10.8000002         59.2181702        -47.2335663   
     10.8100004         56.4737434        -43.2671738   
     10.8200006         54.0996742        -39.3118134   
     10.8299999         52.0582886        -35.3778572   
     10.8400002         50.3173409        -31.4707470   
     10.8500004         48.8494530        -27.5923767   
     10.8600006         47.6317062        -23.7419510   
     10.8699999         46.6452370        -19.9167385   
     10.8800001         45.8746071        -16.1125107   
     10.8900003         45.3077545        -12.3240252   
     10.8999996         44.9355049        -8.54525185   
     10.9099998         44.7514420        -4.76961184   
     10.9200001         44.7517853       -0.990098894   
     10.9300003         44.9351845         2.80049539   
     10.9399996         45.3027496         6.60963917   
     10.9499998         45.8580780         10.4447603   
     10.9600000         46.6072540         14.3133545   
     10.9700003         47.5590286         18.2227135   
     10.9799995         48.7249870         22.1799030   
     10.9899998         50.1198120         26.1915588   
     11.0000000         51.7615852         30.2635727   
     11.0100002         53.6721535         34.4009666   
     11.0199995         55.8776932         38.6073189   
     11.0299997         58.4092178         42.8843040   
     11.0400000         61.3031693         47.2309456   
     11.0500002         64.6023102         51.6424789   
     11.0599995         68.3563538         56.1092110   
     11.0699997         72.6228790         60.6145477   
     11.0799999         77.4680786         65.1326294   
     11.0899992         82.9672470         69.6251068   
     11.0999994         89.2051544         74.0371933   
     11.1099997         96.2752914         78.2919922   
     11.1199999         104.277878         82.2839584   
     11.1299992         113.315796         85.8704758   
     11.1399994         123.487129         88.8624115   
     11.1499996         134.872253         91.0140152   
     11.1600008         147.515869         92.0134964   
     11.1700001         161.393829         91.4785233   
     11.1800003         176.381485         88.9617157   
     11.1900005         192.204376         83.9734039   
     11.1999998         208.393341         76.0307388   
     11.2100000         224.255157         64.7395325   
     11.2200003         238.880508         49.9054108   
     11.2300005         251.215103         31.6516190   
     11.2399998         260.200439         10.5053310   
     11.2500000         264.965912        -12.5955896   
     11.2600002         265.015900        -36.4036674   
     11.2700005         260.345947        -59.5559998   
     11.2799997         251.440903        -80.8042603   
     11.2900000         239.159424        -99.2062759   
     11.3000002         224.549271        -114.225006   
     11.3100004         208.659073        -125.723000   
     11.3199997         192.399078        -133.880341   
     11.3299999         176.468994        -139.079575   
     11.3400002         161.346878        -141.796646   
     11.3499994         147.316422        -142.518875   
     11.3599997         134.510773        -141.694351   
     11.3699999         122.957779        -139.707825   
     11.3800001         112.617668        -136.874298   
     11.3899994         103.412163        -133.442947   
     11.3999996         95.2442932        -129.605972   
     11.4099998         88.0113602        -125.508560   
     11.4200001         81.6129303        -121.258530   
     11.4299994         75.9550476        -116.934464   
     11.4399996         70.9522324        -112.592743   
     11.4499998         66.5283356        -108.272736   
     11.4600000         62.6164169        -104.001366   
     11.4699993         59.1580429        -99.7959595   
     11.4799995         56.1026421        -95.6669235   
     11.4899998         53.4066696        -91.6195908   
     11.5000000         51.0327873        -87.6555405   
     11.5099993         48.9491348        -83.7736130   
     11.5200005         47.1285133        -79.9704361   
     11.5300007         45.5484161        -76.2420425   
     11.5400000         44.1895752        -72.5827103   
     11.5500002         43.0362625        -68.9862823   
     11.5600004         42.0757256        -65.4462204   
     11.5700006         41.2979012        -61.9556236   
     11.5799999         40.6952896        -58.5076141   
     11.5900002         40.2627258        -55.0950623   
     11.6000004         39.9972534        -51.7110443   
     11.6100006         39.8982277        -48.3487091   
     11.6199999         39.9671707        -45.0013351   
     11.6300001         40.2078209        -41.6626053   
     11.6400003         40.6263351        -38.3265419   
     11.6499996         41.2314224        -34.9877281   
     11.6599998         42.0345421        -31.6414719   
     11.6700001         43.0501099        -28.2840900   
     11.6800003         44.2959290        -24.9133472   
     11.6899996         45.7935486        -21.5287514   
     11.6999998         47.5686340        -18.1324100   
     11.7100000         49.6516151        -14.7297773   
     11.7200003         52.0780258        -11.3309393   
     11.7299995         54.8891068        -7.95201778   
     11.7399998         58.1320763        -4.61745739   
     11.7500000         61.8602219        -1.36262906   
     11.7600002         66.1324844         1.76263320   
     11.7699995         71.0121689         4.68958378   
     11.7799997         76.5641098         7.32513523   
     11.7900000         82.8494797         9.54551888   
     11.7999992         89.9178619         11.1894970   
     11.8099995         97.7936020         12.0523872   
     11.8199997         106.456741         11.8829107   
     11.8299999         115.817619         10.3867950   
     11.8399992         125.685104         7.24236584   
     11.8499994         135.735443         2.13504648   
     11.8599997         145.491425        -5.18510008   
     11.8699999         154.329514        -14.8243160   
     11.8799992         161.533417        -26.6602249   
     11.8900003         166.400681        -40.2836037   
     11.9000006         168.386307        -54.9979973   
     11.9099998         167.239746        -69.9162216   
     11.9200001         163.070847        -84.1150284   
     11.9300003         156.320587        -96.8078918   
     11.9400005         147.645706        -107.467064   
     11.9499998         137.771881        -115.860626   
     11.9600000         127.367973        -122.014290   
     11.9700003         116.971092        -126.131630   
     11.9800005         106.963470        -128.510391   
     11.9899998         97.5843430        -129.475388   
     12.0000000         88.9585190        -129.335297   
     12.0100002         81.1291122        -128.360229   
     12.0200005         74.0853195        -126.774269   
     12.0299997         67.7845230        -124.756195   
     12.0400000         62.1676064        -122.445168   
     12.0500002         57.1688194        -119.947128   
     12.0600004         52.7222900        -117.341316   
     12.0699997         48.7653351        -114.686401   
     12.0799999         45.2402878        -112.025047   
     12.0900002         42.0951729        -109.388130   
     12.0999994         39.2836075        -106.797318   
     12.1099997         36.7645760        -104.267799   
     12.1199999         34.5016747        -101.809547   
     12.1300001         32.4627419        -99.4286499   
     12.1399994         30.6191959        -97.1281433   
     12.1499996         28.9458580        -94.9084625   
     12.1599998         27.4207001        -92.7677231   
     12.1700001         26.0249119        -90.7025299   
     12.1799994         24.7428360        -88.7082291   
     12.1899996         23.5617905        -86.7799072   
     12.1999998         22.4716415        -84.9127426   
     12.2100000         21.4642029        -83.1026840   
     12.2199993         20.5325890        -81.3464050   
     12.2299995         19.6708050        -79.6411133   
     12.2399998         18.8733711        -77.9847183   
     12.2499990         18.1352234        -76.3750916   
     12.2600002         17.4515266        -74.8104248   
     12.2700005         16.8179703        -73.2891312   
     12.2800007         16.2303905        -71.8093567   
     12.2900000         15.6850157        -70.3692169   
     12.3000002         15.1784277        -68.9669418   
     12.3100004         14.7075176        -67.6007996   
     12.3200006         14.2695007        -66.2688904   
     12.3299999         13.8618631        -64.9696045   
     12.3400002         13.4823675        -63.7011108   
     12.3500004         13.1290207        -62.4618340   
     12.3599997         12.8000355        -61.2501602   
     12.3699999         12.4938459        -60.0645447   
     12.3800001         12.2090492        -58.9035454   
     12.3900003         11.9444180        -57.7657318   
     12.3999996         11.6988840        -56.6497269   
     12.4099998         11.4715128        -55.5542336   
     12.4200001         11.2615156        -54.4779968   
     12.4300003         11.0682278        -53.4198189   
     12.4399996         10.8910999        -52.3785172   
     12.4499998         10.7297153        -51.3529663   
     12.4600000         10.5837622        -50.3421211   
     12.4700003         10.4530716        -49.3449402   
     12.4799995         10.3375721        -48.3604202   
     12.4899998         10.2373304        -47.3875961   
     12.5000000         10.1525583        -46.4255981   
     12.5100002         10.0836000        -45.4735451   
     12.5199995         10.0309725        -44.5306053   
     12.5299997         9.99536324        -43.5960808   
     12.5400000         9.97765255        -42.6692886   
     12.5499992         9.97894478        -41.7496605   
     12.5599995         10.0005875        -40.8368225   
     12.5699997         10.0442095        -39.9305000   
     12.5799999         10.1117516        -39.0306816   
     12.5899992         10.2054882        -38.1376762   
     12.5999994         10.3280859        -37.2521629   
     12.6099997         10.4826126        -36.3754387   
     12.6199999         10.6725597        -35.5093422   
     12.6300001         10.9017591        -34.6569939   
     12.6400003         11.1743908        -33.8224487   
     12.6500006         11.4947557        -33.0114899   
     12.6599998         11.8669701        -32.2318954   
     12.6700001         12.2944059        -31.4938908   
     12.6800003         12.7788668        -30.8106499   
     12.6900005         13.3193598        -30.1984100   
     12.6999998         13.9103613        -29.6763496   
     12.7100000         14.5397863        -29.2656269   
     12.7200003         15.1868649        -28.9872169   
     12.7300005         15.8206110        -28.8582077   
     12.7399998         16.4001102        -28.8865452   
     12.7500000         16.8777180        -29.0654240   
     12.7600002         17.2059498        -29.3689289   
     12.7700005         17.3469887        -29.7519245   
     12.7799997         17.2819195        -30.1554813   
     12.7900000         17.0158958        -30.5171890   
     12.8000002         16.5766754        -30.7828312   
     12.8099995         16.0073490        -30.9149723   
     12.8199997         15.3565426        -30.8959885   
     12.8299999         14.6697330        -30.7259178   
     12.8400002         13.9839211        -30.4172001   
     12.8499994         13.3257504        -29.9891014   
     12.8599997         12.7121534        -29.4630222   
     12.8699999         12.1522532        -28.8594818   
     12.8800001         11.6494780        -28.1965160   
     12.8899994         11.2035303        -27.4890480   
     12.8999996         10.8118753        -26.7489643   
     12.9099998         10.4707994        -25.9854317   
     12.9200001         10.1761341        -25.2053356   
     12.9299994         9.92369461        -24.4137115   
     12.9399996         9.70950890        -23.6141529   
     12.9499998         9.52997971        -22.8091488   
     12.9600000         9.38192177        -22.0003338   
     12.9699993         9.26258945        -21.1886978   
     12.9799995         9.16963768        -20.3747234   
     12.9900007         9.10111332        -19.5584850   
     13.0000000         9.05544758        -18.7399883   
     13.0100002         9.03136921        -17.9188023   
     13.0200005         9.02791691        -17.0944328   
     13.0300007         9.04442120        -16.2662144   
     13.0400000         9.08045292        -15.4334402   
     13.0500002         9.13583946        -14.5952845   
     13.0600004         9.21064568        -13.7508917   
     13.0699997         9.30515957        -12.8993263   
     13.0799999         9.41990852        -12.0396118   
     13.0900002         9.55565643        -11.1707535   
     13.1000004         9.71341610        -10.2917223   
     13.1099997         9.89447117        -9.40143776   
     13.1199999         10.1003809        -8.49884319   
     13.1300001         10.3330297        -7.58283043   
     13.1400003         10.5946541        -6.65232944   
     13.1499996         10.8878813        -5.70627546   
     13.1599998         11.2157974        -4.74366331   
     13.1700001         11.5819893        -3.76356578   
     13.1800003         11.9906387        -2.76517367   
     13.1899996         12.4465961        -1.74789107   
     13.1999998         12.9554968       -0.711380959   
     13.2100000         13.5238667        0.344280332   
     13.2200003         14.1592455         1.41847754   
     13.2299995         14.8703766         2.50981736   
     13.2399998         15.6672964         3.61586618   
     13.2500000         16.5615311         4.73274565   
     13.2599993         17.5662270         5.85464716   
     13.2699995         18.6962185         6.97316456   
     13.2799997         19.9680080         8.07641602   
     13.2900000         21.3995857         9.14794254   
     13.2999992         23.0099049         10.1653309   
     13.3099995         24.8178635         11.0985174   
     13.3199997         26.8405228         11.9079390   
     13.3299999         29.0902462         12.5425844   
     13.3399992         31.5703011         12.9385118   
     13.3500004         34.2688408         13.0185337   
     13.3600006         37.1499062         12.6943531   
     13.3699999         40.1455536         11.8730192   
     13.3800001         43.1466331         10.4691572   
     13.3900003         45.9995346         8.42419910   
     13.4000006         48.5128212         5.73045683   
     13.4099998         50.4785385         2.45393634   
     13.4200001         51.7081337        -1.25446951   
     13.4300003         52.0747185        -5.16952610   
     13.4400005         51.5460663        -9.02633858   
     13.4499998         50.1937485        -12.5696602   
     13.4600000         48.1736565        -15.5995913   
     13.4700003         45.6874084        -17.9975243   
     13.4800005         42.9411469        -19.7276134   
     13.4899998         40.1145325        -20.8197289   
     13.5000000         37.3453636        -21.3452873   
     13.5100002         34.7276077        -21.3943825   
     13.5199995         32.3170471        -21.0593472   
     13.5299997         30.1406059        -20.4248371   
     13.5400000         28.2050896        -19.5633144   
     13.5500002         26.5047607        -18.5339985   
     13.5599995         25.0268116        -17.3839321   
     13.5699997         23.7551136        -16.1496410   
     13.5799999         22.6726570        -14.8592930   
     13.5900002         21.7629776        -13.5345325   
     13.5999994         21.0108414        -12.1923313   
     13.6099997         20.4024696        -10.8462687   
     13.6200008         19.9254131        -9.50780773   
     13.6300001         19.5682678        -8.18756104   
     13.6400003         19.3197269        -6.89494181   
     13.6499996         19.1680889        -5.63996506   
     13.6600008         19.0999241        -4.43146706   
     13.6700001         19.0993214        -3.27789855   
     13.6800003         19.1472244        -2.18429804   
     13.6899996         19.2216778        -1.15167904   
     13.7000008         19.2995262       -0.173582226   
     13.7099991         19.3593750        0.763982654   
     13.7200003         19.3855114         1.68307376   
     13.7299995         19.3712082         2.60983443   
     13.7400007         19.3200378         3.57109237   
     13.7499990         19.2445087         4.58871794   
     13.7600002         19.1625996         5.67793131   
     13.7699995         19.0939083         6.84551144   
     13.7799997         19.0563622         8.09243488   
     13.7899990         19.0645981         9.41463470   
     13.8000002         19.1295338         10.8068886   
     13.8099995         19.2587795         12.2626629   
     13.8199997         19.4576244         13.7770290   
     13.8299990         19.7296925         15.3453445   
     13.8400002         20.0780315         16.9652100   
     13.8499994         20.5053177         18.6345501   
     13.8599997         21.0148067         20.3534184   
     13.8699989         21.6100845         22.1217194   
     13.8800001         22.2959843         23.9412422   
     13.8899994         23.0780087         25.8131199   
     13.8999996         23.9634151         27.7400818   
     13.9100008         24.9605694         29.7242107   
     13.9200001         26.0793934         31.7675762   
     13.9300003         27.3322659         33.8731232   
     13.9399996         28.7329159         36.0421677   
     13.9500008         30.2984066         38.2767601   
     13.9600000         32.0475883         40.5766258   
     13.9700003         34.0036125         42.9416542   
     13.9799995         36.1920738         45.3682213   
     13.9900007         38.6440506         47.8515587   
     14.0000000         41.3938293         50.3816299   
     14.0100002         44.4825478         52.9449272   
     14.0199995         47.9551277         55.5194092   
     14.0300007         51.8645630         58.0754967   
     14.0400000         56.2672729         60.5696602   
     14.0500002         61.2274017         62.9437370   
     14.0599995         66.8093033         65.1169586   
     14.0700006         73.0802536         66.9830322   
     14.0799999         80.0968018         68.4008942   
     14.0900002         87.9026947         69.1903610   
     14.0999994         96.5040894         69.1255341   
     14.1100006         105.857689         67.9349442   
     14.1199999         115.831558         65.3101273   
     14.1300001         126.185104         60.9268723   
     14.1399994         136.528656         54.4927521   
     14.1500006         146.326157         45.8081284   
     14.1599989         154.907303         34.8572693   
     14.1700001         161.554916         21.8737850   
     14.1799994         165.618195         7.39022684   
     14.1900005         166.664490        -7.81660175   
     14.1999989         164.585129        -22.8268547   
     14.2100000         159.626450        -36.7644119   
     14.2199993         152.326660        -48.9332123   
     14.2299995         143.378799        -58.9242516   
     14.2399988         133.498657        -66.6062927   
     14.2500000         123.306595        -72.0822220   
     14.2599993         113.285789        -75.5958939   
     14.2699995         103.760605        -77.4610672   
     14.2800007         94.9273834        -77.9986649   
     14.2900000         86.8800659        -77.5043945   
     14.3000002         79.6377869        -76.2312012   
     14.3099995         73.1795502        -74.3861694   
     14.3200006         67.4542923        -72.1319275   
     14.3299999         62.4024849        -69.5946426   
     14.3400002         57.9573517        -66.8681717   
     14.3499994         54.0565681        -64.0234528   
     14.3600006         50.6393585        -61.1105309   
     14.3699999         47.6529045        -58.1667023   
     14.3800001         45.0484085        -55.2163391   
     14.3899994         42.7848816        -52.2773857   
     14.4000006         40.8254585        -49.3597641   
     14.4099998         39.1398239        -46.4706078   
     14.4200001         37.7012100        -43.6118622   
     14.4299994         36.4880524        -40.7848206   
     14.4400005         35.4817352        -37.9870949   
     14.4499998         34.6677017        -35.2168655   
     14.4600000         34.0339012        -32.4695129   
     14.4699993         33.5715218        -29.7415619   
     14.4800005         33.2739944        -27.0273762   
     14.4899998         33.1374168        -24.3227787   
     14.5000000         33.1601486        -21.6217308   
     14.5099993         33.3428459        -18.9200172   
     14.5200005         33.6886139        -16.2117710   
     14.5299997         34.2027817        -13.4932070   
     14.5400000         34.8934937        -10.7592869   
     14.5499992         35.7712479        -8.00743675   
     14.5600004         36.8499947        -5.23431873   
     14.5699997         38.1463547        -2.43971848   
     14.5799999         39.6813240        0.376380712   
     14.5899992         41.4790230         3.20967150   
     14.6000004         43.5690842         6.05413532   
     14.6099987         45.9848213         8.89713097   
     14.6199999         48.7662468         11.7216263   
     14.6300011         51.9576759         14.5005236   
     14.6400003         55.6085014         17.1956501   
     14.6500006         59.7744064         19.7551918   
     14.6599998         64.5113144         22.1064548   
     14.6700010         69.8773499         24.1537876   
     14.6799994         75.9206619         25.7697926   
     14.6900005         82.6769791         26.7919712   
     14.6999998         90.1472015         27.0166225   
     14.7100010         98.2864532         26.1998463   
     14.7199993         106.968079         24.0658588   
     14.7300005         115.966324         20.3275681   
     14.7399998         124.920662         14.7308521   
     14.7500000         133.340240         7.11118317   
     14.7599993         140.619095        -2.52424932   
     14.7700005         146.118942        -13.9397249   
     14.7799997         149.274994        -26.6325893   
     14.7900000         149.730698        -39.8904686   
     14.7999992         147.427139        -52.8899231   
     14.8100004         142.618988        -64.8651962   
     14.8199997         135.809311        -75.2254410   
     14.8299999         127.621956        -83.6402588   
     14.8399992         118.686447        -90.0226822   
     14.8500004         109.538216        -94.4847260   
     14.8599997         100.587738        -97.2539597   
     14.8699999         92.1056976        -98.6120453   
     14.8799992         84.2537155        -98.8418655   
     14.8900003         77.1013794        -98.2010117   
     14.8999996         70.6636429        -96.9087982   
     14.9099998         64.9135971        -95.1429520   
     14.9199991         59.8074036        -93.0441589   
     14.9300003         55.2878494        -90.7195892   
     14.9399996         51.2980614        -88.2512817   
     14.9499998         47.7799416        -85.6986847   
     14.9599991         44.6815300        -83.1067810   
     14.9700003         41.9534645        -80.5061569   
     14.9799995         39.5535088        -77.9196777   
     14.9899998         37.4427757        -75.3612747   
     15.0000010         35.5885162        -72.8405991   
     15.0100002         33.9623375        -70.3633270   
     15.0200005         32.5392418        -67.9310532   
     15.0299997         31.2988319        -65.5449982   
     15.0400009         30.2228012        -63.2034454   
     15.0500002         29.2960167        -60.9053688   
     15.0600004         28.5046539        -58.6470642   
     15.0699997         27.8372517        -56.4253311   
     15.0800009         27.2837276        -54.2343597   
     15.0900002         26.8365993        -52.0686684   
     15.1000004         26.4904900        -49.9208107   
     15.1099997         26.2427330        -47.7845001   
     15.1200008         26.0927715        -45.6526451   
     15.1299992         26.0419865        -43.5202293   
     15.1400003         26.0931034        -41.3818207   
     15.1499996         26.2499237        -39.2340240   
     15.1600008         26.5172634        -37.0727196   
     15.1699991         26.9008102        -34.8954468   
     15.1800003         27.4076042        -32.6986618   
     15.1899996         28.0458374        -30.4804382   
     15.1999998         28.8257637        -28.2377777   
     15.2099991         29.7591476        -25.9696388   
     15.2200003         30.8607254        -23.6742744   
     15.2299995         32.1471901        -21.3525982   
     15.2399998         33.6391373        -19.0056133   
     15.2499990         35.3597260        -16.6381607   
     15.2600002         37.3371162        -14.2566681   
     15.2699995         39.6025772        -11.8733864   
     15.2799997         42.1934357        -9.50479317   
     15.2899990         45.1503372        -7.17669582   
     15.3000002         48.5204468        -4.92363262   
     15.3099995         52.3528214        -2.79525113   
     15.3199997         56.7013359       -0.857314706   
     15.3299990         61.6161766        0.800653279   
     15.3400002         67.1443634         2.06256676   
     15.3499994         73.3142624         2.77851057   
     15.3599997         80.1297226         2.76244092   
     15.3700008         87.5450363         1.79145980   
     15.3800001         95.4440842       -0.385271698   
     15.3900003         103.618813        -4.02775764   
     15.3999996         111.739479        -9.36443806   
     15.4100008         119.358971        -16.5409508   
     15.4200001         125.928001        -25.5460396   
     15.4300003         130.870621        -36.1618195   
     15.4399996         133.679520        -47.9301376   
     15.4500008         134.036789        -60.2058220   
     15.4600000         131.892746        -72.2450333   
     15.4700003         127.480309        -83.3573380   
     15.4799995         121.255905        -93.0102081   
     15.4900007         113.784859        -100.906677   
     15.5000000         105.637764        -106.969765   
     15.5100002         97.3001556        -111.303238   
     15.5199995         89.1443253        -114.116035   
     15.5300007         81.4152908        -115.666748   
     15.5400000         74.2584152        -116.215721   
     15.5500002         67.7343674        -116.000809   
     15.5599995         61.8525314        -115.224709   
     15.5700006         56.5828705        -114.051781   
     15.5799990         51.8782463        -112.610992   
     15.5900002         47.6785660        -110.998322   
     15.5999994         43.9247169        -109.283752   
     15.6100006         40.5581970        -107.514221   
     15.6199989         37.5296211        -105.721519   
     15.6300001         34.7955170        -103.924995   
     15.6399994         32.3221092        -102.138504   
     15.6499996         30.0803471        -100.371277   
     15.6599989         28.0471573        -98.6315308   
     15.6700001         26.2011242        -96.9254379   
     15.6799994         24.5241127        -95.2589035   
     15.6899996         22.9984283        -93.6355286   
     15.6999989         21.6089821        -92.0583725   
     15.7100000         20.3413143        -90.5284500   
     15.7199993         19.1833515        -89.0468597   
     15.7299995         18.1237183        -87.6128922   
     15.7400007         17.1528835        -86.2262421   
     15.7500000         16.2622967        -84.8863144   
     15.7600002         15.4439344        -83.5916519   
     15.7699995         14.6910696        -82.3413773   
     15.7800007         13.9972162        -81.1337814   
     15.7900000         13.3569393        -79.9677200   
     15.8000002         12.7650213        -78.8412094   
     15.8099995         12.2171240        -77.7530212   
     15.8200006         11.7090549        -76.7011871   
     15.8299999         11.2373981        -75.6843033   
     15.8400002         10.7988014        -74.7004242   
     15.8499994         10.3905878        -73.7482986   
     15.8600006         10.0100985        -72.8260880   
     15.8699999         9.65523338        -71.9326019   
     15.8800001         9.32388687        -71.0661545   
     15.8899994         9.01442146        -70.2256775   
     15.9000006         8.72519016        -69.4096146   
     15.9099998         8.45492935        -68.6170502   
     15.9200001         8.20235825        -67.8465729   
     15.9299994         7.96653605        -67.0974121   
     15.9400005         7.74650288        -66.3682938   
     15.9499998         7.54158545        -65.6586456   
     15.9600000         7.35110569        -64.9673767   
     15.9699993         7.17464638        -64.2940445   
     15.9800005         7.01177740        -63.6378365   
     15.9899998         6.86230993        -62.9984932   
     16.0000000         6.72604275        -62.3755188   
     16.0099983         6.60295439        -61.7690430   
     16.0200005         6.49299431        -61.1789627   
     16.0299988         6.39620066        -60.6059189   
     16.0400009         6.31246328        -60.0504189   
     16.0499992         6.24156809        -59.5138054   
     16.0599995         6.18290949        -58.9973755   
     16.0699997         6.13537216        -58.5031204   
     16.0799999         6.09705019        -58.0329285   
     16.0899982         6.06504631        -57.5889168   
     16.1000004         6.03532934        -57.1723137   
     16.1100006         6.00287008        -56.7834625   
     16.1199989         5.96205759        -56.4209938   
     16.1300011         5.90746927        -56.0813408   
     16.1399994         5.83491611        -55.7590904   
     16.1500015         5.74225855        -55.4473534   
     16.1599998         5.62996960        -55.1391029   
     16.1700001         5.50085926        -54.8279686   
     16.1800003         5.35949469        -54.5096283   
     16.1900005         5.21105194        -54.1816330   
     16.1999989         5.06057167        -53.8437347   
     16.2100010         4.91212940        -53.4968910   
     16.2199993         4.76873636        -53.1432838   
     16.2299995         4.63216019        -52.7850266   
     16.2399998         4.50329161        -52.4244804   
     16.2500000         4.38223791        -52.0633965   
     16.2600002         4.26875448        -51.7033081   
     16.2700005         4.16232061        -51.3451500   
     16.2799988         4.06245375        -50.9897270   
     16.2900009         3.96865249        -50.6373291   
     16.2999992         3.88054538        -50.2884254   
     16.3099995         3.79774785        -49.9431381   
     16.3199997         3.71994424        -49.6017036   
     16.3299999         3.64676380        -49.2641945   
     16.3400002         3.57788944        -48.9307823   
     16.3500004         3.51298571        -48.6013298   
     16.3599987         3.45180130        -48.2758751   
     16.3700008         3.39410996        -47.9541740   
     16.3799992         3.33977652        -47.6362801   
     16.3899994         3.28867435        -47.3218994   
     16.3999996         3.24074054        -47.0110893   
     16.4099998         3.19589138        -46.7036247   
     16.4200001         3.15408683        -46.3995361   
     16.4300003         3.11526036        -46.0986366   
     16.4399986         3.07938433        -45.8009491   
     16.4500008         3.04641724        -45.5062637   
     16.4600010         3.01636147        -45.2145424   
     16.4699993         2.98923206        -44.9257088   
     16.4800014         2.96506143        -44.6395721   
     16.4899998         2.94393015        -44.3561440   
     16.5000000         2.92593431        -44.0751686   
     16.5100002         2.91122007        -43.7966423   
     16.5200005         2.89996743        -43.5204659   
     16.5300007         2.89240503        -43.2465935   
     16.5400009         2.88881207        -42.9749222   
     16.5499992         2.88952231        -42.7055893   
     16.5600014         2.89493322        -42.4385567   
     16.5699997         2.90550470        -42.1740112   
     16.5799999         2.92177367        -41.9121475   
     16.5900002         2.94433260        -41.6534081   
     16.6000004         2.97385073        -41.3982620   
     16.6099987         3.01102066        -41.1475487   
     16.6200008         3.05656290        -40.9022598   
     16.6299992         3.11110497        -40.6638832   
     16.6399994         3.17514277        -40.4341888   
     16.6499996         3.24879313        -40.2156105   
     16.6599998         3.33165765        -40.0108757   
     16.6700001         3.42241716        -39.8233452   
     16.6800003         3.51859879        -39.6563759   
     16.6899986         3.61616158        -39.5131836   
     16.7000008         3.70947742        -39.3958778   
     16.7099991         3.79147911        -39.3047752   
     16.7199993         3.85457039        -39.2374268   
     16.7299995         3.89186788        -39.1883583   
     16.7399998         3.89882684        -39.1492615   
     16.7500000         3.87440777        -39.1106224   
     16.7600002         3.82135391        -39.0633125   
     16.7699986         3.74545693        -39.0004082   
     16.7800007         3.65399432        -38.9180450   
     16.7899990         3.55423450        -38.8155556   
     16.7999992         3.45213175        -38.6945953   
     16.8099995         3.35185719        -38.5582581   
     16.8199997         3.25561881        -38.4099350   
     16.8299999         3.16412115        -38.2527847   
     16.8400002         3.07704735        -38.0890503   
     16.8500004         2.99363589        -37.9199181   
     16.8600006         2.91327357        -37.7459602   
     16.8700008         2.83571243        -37.5670471   
     16.8799992         2.76121545        -37.3831253   
     16.8900013         2.69032478        -37.1941795   
     16.8999996         2.62373781        -37.0005760   
     16.9099998         2.56202650        -36.8028603   
     16.9200001         2.50560880        -36.6018333   
     16.9300003         2.45464563        -36.3981705   
     16.9400005         2.40913868        -36.1927032   
     16.9500008         2.36892128        -35.9859314   
     16.9599991         2.33376169        -35.7784462   
     16.9700012         2.30336857        -35.5705452   
     16.9799995         2.27746177        -35.3625488   
     16.9899998         2.25575805        -35.1545486   
     17.0000000         2.23802018        -34.9467087   
     17.0100002         2.22402978        -34.7389832   
     17.0199986         2.21362209        -34.5314102   
     17.0300007         2.20666385        -34.3238754   
     17.0399990         2.20306611        -34.1163750   
     17.0500011         2.20277834        -33.9087105   
     17.0599995         2.20578957        -33.7008324   
     17.0699997         2.21212697        -33.4925499   
     17.0799999         2.22185588        -33.2837524   
     17.0900002         2.23508286        -33.0742264   
     17.0999985         2.25195074        -32.8638725   
     17.1100006         2.27265453        -32.6524467   
     17.1199989         2.29742265        -32.4398460   
     17.1299992         2.32655001        -32.2258263   
     17.1399994         2.36036777        -32.0102844   
     17.1499996         2.39929104        -31.7929688   
     17.1599998         2.44378138        -31.5738029   
     17.1700001         2.49440217        -31.3525658   
     17.1799984         2.55178356        -31.1291981   
     17.1900005         2.61668134        -30.9035683   
     17.2000008         2.68994498        -30.6756649   
     17.2099991         2.77254415        -30.4455643   
     17.2200012         2.86563134        -30.2133389   
     17.2299995         2.97045684        -29.9793606   
     17.2399998         3.08849978        -29.7440186   
     17.2500000         3.22133160        -29.5080833   
     17.2600002         3.37076211        -29.2725563   
     17.2700005         3.53862929        -29.0389557   
     17.2800007         3.72692919        -28.8091908   
     17.2899990         3.93749452        -28.5859947   
     17.3000011         4.17206001        -28.3726349   
     17.3099995         4.43174314        -28.1733990   
     17.3199997         4.71699476        -27.9932518   
     17.3299999         5.02684927        -27.8379402   
     17.3400002         5.35883236        -27.7134495   
     17.3500004         5.70824099        -27.6253796   
     17.3600006         6.06855297        -27.5779362   
     17.3699989         6.43164492        -27.5728092   
     17.3800011         6.78963470        -27.6083717   
     17.3899994         7.13636589        -27.6798992   
     17.3999996         7.46967745        -27.7809944   
     17.4099998         7.79162550        -27.9060326   
     17.4200001         8.10796928        -28.0531445   
     17.4300003         8.42520809        -28.2258301   
     17.4400005         8.74772358        -28.4334469   
     17.4499989         9.07423019        -28.6896019   
     17.4600010         9.39588165        -29.0095406   
     17.4699993         9.69489861        -29.4059963   
     17.4799995         9.94573307        -29.8852043   
     17.4899998         10.1178551        -30.4420128   
     17.5000000         10.1816912        -31.0579720   
     17.5099983         10.1153917        -31.7013206   
     17.5200005         9.91108418        -32.3324966   
     17.5299988         9.57750130        -32.9110756   
     17.5399990         9.13765526        -33.4044800   
     17.5499992         8.62343502        -33.7922134   
     17.5599995         8.06826878        -34.0676155   
     17.5700016         7.50218821        -34.2350082   
     17.5799999         6.94860125        -34.3062668   
     17.5900002         6.42332172        -34.2967644   
     17.6000004         5.93596983        -34.2224655   
     17.6100006         5.49079275        -34.0981407   
     17.6199989         5.08878326        -33.9365349   
     17.6300011         4.72839928        -33.7480202   
     17.6399994         4.40706301        -33.5408974   
     17.6499996         4.12136173        -33.3214226   
     17.6599998         3.86790299        -33.0944633   
     17.6700001         3.64320564        -32.8634911   
     17.6800003         3.44416928        -32.6311417   
     17.6900005         3.26786304        -32.3991852   
     17.6999989         3.11179113        -32.1689987   
     17.7100010         2.97367692        -31.9413757   
     17.7199993         2.85163236        -31.7169666   
     17.7299995         2.74396515        -31.4960537   
     17.7399998         2.64930892        -31.2789116   
     17.7500000         2.56644917        -31.0655823   
     17.7600002         2.49442697        -30.8561630   
     17.7700005         2.43241167        -30.6506023   
     17.7799988         2.37976718        -30.4489517   
     17.7900009         2.33594823        -30.2511730   
     17.7999992         2.30055237        -30.0574188   
     17.8099995         2.27323890        -29.8677597   
     17.8199997         2.25374293        -29.6824570   
     17.8299999         2.24181223        -29.5017834   
     17.8400002         2.23719096        -29.3262348   
     17.8500004         2.23955894        -29.1563320   
     17.8599987         2.24846220        -28.9928093   
     17.8700008         2.26322985        -28.8364449   
     17.8799992         2.28284836        -28.6881638   
     17.8899994         2.30587745        -28.5486679   
     17.8999996         2.33037567        -28.4184361   
     17.9099998         2.35402131        -28.2972412   
     17.9199982         2.37436271        -28.1839657   
     17.9300003         2.38931513        -28.0764446   
     17.9400005         2.39766598        -27.9716644   
     17.9500008         2.39947796        -27.8662739   
     17.9600010         2.39615703        -27.7570648   
     17.9699993         2.39016891        -27.6417313   
     17.9800014         2.38454580        -27.5189877   
     17.9899998         2.38237596        -27.3887539   
     18.0000000         2.38644075        -27.2517414   
     18.0100002         2.39903903        -27.1093483   
     18.0200005         2.42195988        -26.9632931   
     18.0299988         2.45653009        -26.8155708   
     18.0400009         2.50370407        -26.6682129   
     18.0499992         2.56406331        -26.5234070   
     18.0599995         2.63791513        -26.3833370   
     18.0699997         2.72521091        -26.2502728   
     18.0799999         2.82568789        -26.1264000   
     18.0900002         2.93881249        -26.0139847   
     18.1000004         3.06402326        -25.9151592   
     18.1099987         3.20063901        -25.8324375   
     18.1200008         3.34792686        -25.7686901   
     18.1299992         3.50453305        -25.7277126   
     18.1399994         3.66798520        -25.7140865   
     18.1499996         3.83363891        -25.7328892   
     18.1599998         3.99416327        -25.7887058   
     18.1700001         4.13919783        -25.8838902   
     18.1800003         4.25632954        -26.0170746   
     18.1899986         4.33283663        -26.1815014   
     18.2000008         4.35854816        -26.3651848   
     18.2099991         4.32841158        -26.5520954   
     18.2199993         4.24401426        -26.7252407   
     18.2299995         4.11325979        -26.8698368   
     18.2399998         3.94825363        -26.9757748   
     18.2500000         3.76272178        -27.0384274   
     18.2600002         3.56939411        -27.0581074   
     18.2699986         3.37875843        -27.0385456   
     18.2800007         3.19829917        -26.9853573   
     18.2900009         3.03291941        -26.9047966   
     18.2999992         2.88535452        -26.8028564   
     18.3100014         2.75672960        -26.6848240   
     18.3199997         2.64726305        -26.5552616   
     18.3299999         2.55651045        -26.4178448   
     18.3400002         2.48380303        -26.2756958   
     18.3500004         2.42830396        -26.1313477   
     18.3600006         2.38919520        -25.9871254   
     18.3700008         2.36561799        -25.8450108   
     18.3799992         2.35667872        -25.7070599   
     18.3900013         2.36132240        -25.5752640   
     18.3999996         2.37819815        -25.4516392   
     18.4099998         2.40551162        -25.3381805   
     18.4200001         2.44086766        -25.2365837   
     18.4300003         2.48129535        -25.1479588   
     18.4399986         2.52337027        -25.0725040   
     18.4500008         2.56371212        -25.0090847   
     18.4599991         2.59958959        -24.9553967   
     18.4700012         2.62963438        -24.9081211   
     18.4799995         2.65420103        -24.8638668   
     18.4899998         2.67530012        -24.8200569   
     18.5000000         2.69597602        -24.7756538   
     18.5100002         2.71941638        -24.7315292   
     18.5199986         2.74799514        -24.6903820   
     18.5300007         2.78255153        -24.6561127   
     18.5399990         2.82184672        -24.6331730   
     18.5499992         2.86242270        -24.6255589   
     18.5599995         2.89875722        -24.6358089   
     18.5699997         2.92399383        -24.6640129   
     18.5799999         2.93113256        -24.7071686   
     18.5900002         2.91459346        -24.7592335   
     18.5999985         2.87164426        -24.8120461   
     18.6100006         2.80310488        -24.8569393   
     18.6199989         2.71311593        -24.8865013   
     18.6299992         2.60794282        -24.8957787   
     18.6399994         2.49462128        -24.8826885   
     18.6499996         2.37959623        -24.8476391   
     18.6599998         2.26810288        -24.7928200   
     18.6700001         2.16388559        -24.7213078   
     18.6800003         2.06926775        -24.6364231   
     18.6900005         1.98554718        -24.5413895   
     18.7000008         1.91319776        -24.4390430   
     18.7099991         1.85224354        -24.3318825   
     18.7200012         1.80236840        -24.2219505   
     18.7299995         1.76312423        -24.1110973   
     18.7399998         1.73393047        -24.0008869   
     18.7500000         1.71413267        -23.8928547   
     18.7600002         1.70292318        -23.7884007   
     18.7700005         1.69929028        -23.6889687   
     18.7800007         1.70189726        -23.5958519   
     18.7899990         1.70899844        -23.5102215   
     18.8000011         1.71839547        -23.4328156   
     18.8099995         1.72751844        -23.3637447   
     18.8199997         1.73368192        -23.3021355   
     18.8299999         1.73451114        -23.2461891   
     18.8400002         1.72843361        -23.1931362   
     18.8500004         1.71505868        -23.1398296   
     18.8600006         1.69525659        -23.0832024   
     18.8699989         1.67093050        -23.0208931   
     18.8800011         1.64453828        -22.9515114   
     18.8899994         1.61863267        -22.8746185   
     18.8999996         1.59548593        -22.7905788   
     18.9099998         1.57694924        -22.7002583   
     18.9200001         1.56440830        -22.6047211   
     18.9299984         1.55888963        -22.5051765   
     18.9400005         1.56115270        -22.4027157   
     18.9499989         1.57181144        -22.2984619   
     18.9599991         1.59142518        -22.1934185   
     18.9699993         1.62054741        -22.0887051   
     18.9799995         1.65978801        -21.9853897   
     18.9899998         1.70977855        -21.8848705   
     19.0000000         1.77119994        -21.7886848   
     19.0099983         1.84464467        -21.6988506   
     19.0200005         1.93057370        -21.6178074   
     19.0300007         2.02904296        -21.5486107   
     19.0399990         2.13944292        -21.4949512   
     19.0500011         2.26018620        -21.4610329   
     19.0599995         2.38813257        -21.4513741   
     19.0699997         2.51832056        -21.4702721   
     19.0799999         2.64356470        -21.5208721   
     19.0900002         2.75482869        -21.6041756   
     19.1000004         2.84194994        -21.7176743   
     19.1100006         2.89539385        -21.8549080   
     19.1199989         2.90818977        -22.0055084   
     19.1300011         2.87774420        -22.1568813   
     19.1399994         2.80652142        -22.2963314   
     19.1499996         2.70132613        -22.4135418   
     19.1599998         2.57163119        -22.5019436   
     19.1700001         2.42741513        -22.5590744   
     19.1800003         2.27769947        -22.5858440   
     19.1900005         2.12946844        -22.5854092   
     19.1999989         1.98764956        -22.5620308   
     19.2100010         1.85516179        -22.5202179   
     19.2199993         1.73351097        -22.4641457   
     19.2299995         1.62306702        -22.3974457   
     19.2399998         1.52359629        -22.3230991   
     19.2500000         1.43440115        -22.2434444   
     19.2600002         1.35464847        -22.1603336   
     19.2700005         1.28338385        -22.0751266   
     19.2799988         1.21970844        -21.9888630   
     19.2900009         1.16273379        -21.9022827   
     19.2999992         1.11168528        -21.8159580   
     19.3099995         1.06583500        -21.7302303   
     19.3199997         1.02456748        -21.6453972   
     19.3299999        0.987316430        -21.5616169   
     19.3399982        0.953611374        -21.4790173   
     19.3500004        0.923020482        -21.3976212   
     19.3599987        0.895188749        -21.3175049   
     19.3700008        0.869789183        -21.2386398   
     19.3799992        0.846554577        -21.1610355   
     19.3899994        0.825237274        -21.0846577   
     19.4000015        0.805632114        -21.0094528   
     19.4099998        0.787559748        -20.9354172   
     19.4200001        0.770854175        -20.8624744   
     19.4300003        0.755382419        -20.7906132   
     19.4400005        0.741015613        -20.7197571   
     19.4499989        0.727651298        -20.6498985   
     19.4600010        0.715190351        -20.5809498   
     19.4699993        0.703552067        -20.5129147   
     19.4799995        0.692658663        -20.4457188   
     19.4899998        0.682447493        -20.3793411   
     19.5000000        0.672856212        -20.3137341   
     19.5100002        0.663835764        -20.2488823   
     19.5200005        0.655336499        -20.1847267   
     19.5299988        0.647318900        -20.1212463   
     19.5400009        0.639743149        -20.0584106   
     19.5499992        0.632577062        -19.9962082   
     19.5599995        0.625788629        -19.9345818   
     19.5699997        0.619352341        -19.8735180   
     19.5799999        0.613241136        -19.8129978   
     19.5900002        0.607434452        -19.7529984   
     19.6000004        0.601910055        -19.6934948   
     19.6099987        0.596651375        -19.6344700   
     19.6200008        0.591639817        -19.5758801   
     19.6299992        0.586861193        -19.5177460   
     19.6399994        0.582300425        -19.4600182   
     19.6499996        0.577946365        -19.4027138   
     19.6599998        0.573785484        -19.3457794   
     19.6700001        0.569808543        -19.2892246   
     19.6800003        0.566004753        -19.2330055   
     19.6899986        0.562366307        -19.1771469   
     19.7000008        0.558883667        -19.1216087   
     19.7099991        0.555550516        -19.0663929   
     19.7199993        0.552359045        -19.0114708   
     19.7299995        0.549304068        -18.9568462   
     19.7399998        0.546378255        -18.9024944   
     19.7500000        0.543577731        -18.8484135   
     19.7600002        0.540897250        -18.7945995   
     19.7700005        0.538332283        -18.7410221   
     19.7800007        0.535878897        -18.6876793   
     19.7900009        0.533533275        -18.6345806   
     19.7999992        0.531292379        -18.5816936   
     19.8100014        0.529153109        -18.5290108   
     19.8199997        0.527113438        -18.4765377   
     19.8299999        0.525169671        -18.4242439   
     19.8400002        0.523321271        -18.3721409   
     19.8500004        0.521565259        -18.3202095   
     19.8599987        0.519901037        -18.2684517   
     19.8700008        0.518326879        -18.2168388   
     19.8799992        0.516842425        -18.1653881   
     19.8900013        0.515446246        -18.1140747   
     19.8999996        0.514138520        -18.0629025   
     19.9099998        0.512919068        -18.0118484   
     19.9200001        0.511788011        -17.9609222   
     19.9300003        0.510745645        -17.9101009   
     19.9399986        0.509793520        -17.8593845   
     19.9500008        0.508931935        -17.8087578   
     19.9599991        0.508162975        -17.7582378   
     19.9699993        0.507488370        -17.7077827   
     19.9799995        0.506910443        -17.6574059   
     19.9899998        0.506432474        -17.6070881   
     20.0000000        0.506057680        -17.5568371   
# 
# 03/05/2021 at 17:13 yambo @ VivoBook [start]
# 03/05/2021 at 17:13                  [end]
#
# .-Input file  yambo.in
# | rim_cut                          # [R] Coulomb potential
# | optics                           # [R] Linear Response optical properties
# | dipoles                          # [R] Oscillator strenghts (or dipoles)
# | bse                              # [R][BSE] Bethe Salpeter Equation.
# | ElecTemp= 0.025861         eV    # Electronic Temperature
# | BoseTemp= 0.025861         eV    # Bosonic Temperature
# | DIP_Threads= 1                   # [OPENMP/X] Number of threads for dipoles
# | BS_nCPU_LinAlg_INV= 1            # [PARALLEL] CPUs for Linear Algebra (if -1 it is automatically set)
# | BS_nCPU_LinAlg_DIAGO= 1          # [PARALLEL] CPUs for Linear Algebra (if -1 it is automatically set)
# | X_Threads= 1                     # [OPENMP/X] Number of threads for response functions
# | K_Threads= 1                     # [OPENMP/BSK] Number of threads for response functions
# | RandQpts=0                       # [RIM] Number of random q-points in the BZ
# | RandGvec= 1                RL    # [RIM] Coulomb interaction RS components
# | CUTGeo= "ws xyz"                 # [CUT] Coulomb Cutoff geometry: box/cylinder/sphere/ws X/Y/Z/XY..
# | % CUTBox
# |  0.000000 | 0.000000 | 0.000000 |        # [CUT] [au] Box sides
# | %
# | CUTRadius= 0.000000              # [CUT] [au] Sphere/Cylinder radius
# | CUTCylLen= 0.000000              # [CUT] [au] Cylinder length
# | CUTwsGvec= 0.700000              # [CUT] WS cutoff: number of G to be modified
# | BSEmod= "retarded"               # [BSE] resonant/retarded/coupling
# | BSKmod= "IP"                     # [BSE] IP/Hartree/HF/ALDA/SEX/BSfxc
# | DipBandsALL                    # [DIP] Compute all bands range, not only valence and conduction
# | DipComputed= "R V P"             # [DIP] [default R P V; extra P2 Spin Orb]
# | BSENGexx= 20395            RL    # [BSK] Exchange components
# | BSEprop= "abs trace dichr"       # [BSS] abs/kerr/magn/dichr trace
# | % BSEQptR
# |  1 | 1 |                             # [BSK] Transferred momenta range
# | %
# | % BSEBands
# |   1 | 20 |                           # [BSK] Bands range
# | %
# | % BEnRange
# |   0.00000 | 20.00000 |         eV    # [BSS] Energy range
# | %
# | % BDmRange
# |  0.100000 | 0.100000 |         eV    # [BSS] Damping range
# | %
# | BEnSteps= 2001                   # [BSS] Energy steps
# | % BLongDir
# |  0.100000E-4 |  0.00000    |  0.00000    # [BSS] [cc] Electric Field
# | %
