#                                                                     
#   __   __     _        __  __       ____      U  ___  u             
#   \ \ / / U  /"\  U u |" \/ "| u U | __") u    \/"_ \/              
#    \ V /   \/ _ \/   \| |\/| |/   \|  _ \/     | | | |              
#   U_|"|_u  / ___ \    | |  | |     | |_) | .-,_| |_| |              
#     |_|   /_/   \_\   |_|  |_|     |____/   \_)-\___/               
# .-,//|(_   \\    >>  <<,-,,-.     _|| \\_        \\                 
#  \_) (__) (__)  (__)  (./  \.)   (__) (__)      (__)                
#                                                                     
#                                                                     
#       Version 5.0.0 Revision 19547 Hash 53446ff7e                   
#                   Branch is bug-fixes                               
#         MPI+OpenMP+SLK+SLEPC+HDF5_MPI_IO Build                      
#                http://www.yambo-code.org                            
#
# Polarizability ( -<<X>> ) [volume @ Q(1):  0.999999975E-5   0.00000000      0.00000000    [q->0 direction]
#
# [GEN] GF Energies                               : Perdew, Burke & Ernzerhof(X)+Perdew, Burke & Ernzerhof(C)
# [GEN] Wavefunctions                             : Perdew, Burke & Ernzerhof(X)+Perdew, Burke & Ernzerhof(C)
# [GEN] Green`s Function                          : Retarded
# [GEN] Gauge                                     : Length
# [GEN] [r,Vnl] included                          : yes
#
# DIP band range                                  :   1  20
# DIP band range limits                           :  20   1
# DIP e/h energy range                            :  -1.00000000     -1.00000000    [eV]
# RL vectors in the sum                           :  2637
# [r,Vnl] included                                : yes
# Bands ordered                                   : no
# Direct v evaluation                             : no
# Approach used                                   : G-space v
# Dipoles computed                                : R V P
# Wavefunctions                                   : Perdew, Burke & Ernzerhof(X)+Perdew, Burke & Ernzerhof(C)
#
#
#    Alpha is in a.u. of volume
#
#    E/ev[1]            ALPHA-Im[2]        ALPHA-Re[3]
#
     0.00000000         0.00000000         55.5741920   
    0.999999978E-2     0.191356440E-2      55.5742836   
    0.199999996E-1     0.382714788E-2      55.5745850   
    0.299999993E-1     0.574087445E-2      55.5750656   
    0.399999991E-1     0.765473256E-2      55.5757256   
    0.500000007E-1     0.956882071E-2      55.5765839   
    0.599999987E-1     0.114831543E-1      55.5776405   
    0.699999928E-1     0.133978175E-1      55.5788918   
    0.799999982E-1     0.153128738E-1      55.5803261   
    0.900000036E-1     0.172283258E-1      55.5819511   
    0.100000001        0.191442985E-1      55.5837593   
    0.109999999        0.210607760E-1      55.5857620   
    0.119999997        0.229778066E-1      55.5879707   
    0.129999995        0.248955041E-1      55.5903587   
    0.139999986        0.268138722E-1      55.5929298   
    0.149999991        0.287330225E-1      55.5957146   
    0.159999996        0.306529049E-1      55.5986938   
    0.170000002        0.325736590E-1      55.6018524   
    0.180000007        0.344953202E-1      55.6051941   
    0.189999998        0.364179984E-1      55.6087379   
    0.200000003        0.383416377E-1      55.6124802   
    0.210000008        0.402663238E-1      55.6163979   
    0.219999999        0.421921238E-1      55.6205177   
    0.229999989        0.441191234E-1      55.6248322   
    0.239999995        0.460473374E-1      55.6293297   
    0.250000000        0.479768291E-1      55.6340179   
    0.259999990        0.499076284E-1      55.6389046   
    0.270000011        0.518399402E-1      55.6440010   
    0.279999971        0.537735783E-1      55.6492767   
    0.289999992        0.557087623E-1      55.6547546   
    0.299999982        0.576454401E-1      55.6604156   
    0.310000002        0.595837571E-1      55.6662750   
    0.319999993        0.615237392E-1      55.6723137   
    0.330000013        0.634654239E-1      55.6785545   
    0.340000004        0.654088929E-1      55.6850014   
    0.349999994        0.673542023E-1      55.6916275   
    0.360000014        0.693013370E-1      55.6984596   
    0.369999975        0.712504461E-1      55.7054749   
    0.379999995        0.732015818E-1      55.7126961   
    0.389999986        0.751547441E-1      55.7201080   
    0.400000006        0.771100223E-1      55.7276917   
    0.409999996        0.790674314E-1      55.7355042   
    0.420000017        0.810271055E-1      55.7435074   
    0.430000007        0.829889625E-1      55.7517014   
    0.439999998        0.849532560E-1      55.7600975   
    0.450000018        0.869198889E-1      55.7686844   
    0.459999979        0.888889581E-1      55.7774620   
    0.470000029        0.908606052E-1      55.7864494   
    0.479999989        0.928348005E-1      55.7956238   
    0.489999980        0.948115364E-1      55.8049850   
    0.500000000        0.967909470E-1      55.8145485   
    0.509999990        0.987731591E-1      55.8243446   
    0.519999981        0.100758135         55.8343048   
    0.529999971        0.102745980         55.8444595   
    0.540000021        0.104736790         55.8548203   
    0.550000012        0.106730424         55.8653831   
    0.559999943        0.108727157         55.8761559   
    0.569999993        0.110726997         55.8871231   
    0.579999983        0.112729974         55.8982735   
    0.590000033        0.114736192         55.9096260   
    0.599999964        0.116745666         55.9212036   
    0.610000014        0.118758440         55.9329643   
    0.620000005        0.120774589         55.9449234   
    0.629999995        0.122794278         55.9570961   
    0.639999986        0.124817453         55.9694595   
    0.649999976        0.126844153         55.9820328   
    0.660000026        0.128874540         55.9948006   
    0.669999957        0.130908519         56.0077744   
    0.680000007        0.132946372         56.0209579   
    0.689999998        0.134988010         56.0343475   
    0.699999988        0.137033612         56.0479317   
    0.709999979        0.139083028         56.0617332   
    0.720000029        0.141136602         56.0757256   
    0.730000019        0.143194214         56.0899200   
    0.739999950        0.145255864         56.1043434   
    0.750000000        0.147321835         56.1189613   
    0.759999990        0.149392143         56.1337776   
    0.770000041        0.151466623         56.1488075   
    0.779999971        0.153545558         56.1640282   
    0.790000021        0.155629009         56.1794739   
    0.800000012        0.157717019         56.1951332   
    0.810000002        0.159809664         56.2109985   
    0.819999993        0.161906913         56.2270622   
    0.829999983        0.164008990         56.2433472   
    0.840000033        0.166115791         56.2598267   
    0.849999964        0.168227583         56.2765503   
    0.860000014        0.170344308         56.2934456   
    0.870000005        0.172465920         56.3105736   
    0.879999995        0.174592704         56.3279076   
    0.889999926        0.176724613         56.3454628   
    0.900000036        0.178861871         56.3632317   
    0.910000026        0.181004345         56.3812027   
    0.919999957        0.183152169         56.3993835   
    0.929999948        0.185305536         56.4177933   
    0.940000057        0.187464371         56.4364090   
    0.949999988        0.189628810         56.4552460   
    0.959999979        0.191798821         56.4743118   
    0.969999969        0.193974718         56.4935722   
    0.979999959        0.196156412         56.5130539   
    0.990000010        0.198343962         56.5327530   
     1.00000000        0.200537592         56.5526848   
     1.00999999        0.202737078         56.5728340   
     1.01999998        0.204942808         56.5931816   
     1.03000009        0.207154781         56.6137772   
     1.03999996        0.209372893         56.6345711   
     1.04999995        0.211597443         56.6556053   
     1.05999994        0.213828340         56.6768532   
     1.06999993        0.216065854         56.6983337   
     1.08000004        0.218309999         56.7200241   
     1.09000003        0.220560744         56.7419548   
     1.10000002        0.222818300         56.7640839   
     1.11000001        0.225082636         56.7864723   
     1.11999989        0.227353930         56.8090591   
     1.13000000        0.229632199         56.8318672   
     1.13999999        0.231917650         56.8549461   
     1.14999998        0.234210208         56.8782082   
     1.15999997        0.236510068         56.9017258   
     1.17000008        0.238817304         56.9254608   
     1.18000007        0.241131917         56.9494362   
     1.18999994        0.243454129         56.9736481   
     1.19999993        0.245783895         56.9980850   
     1.20999992        0.248121306         57.0227585   
     1.22000003        0.250466645         57.0476646   
     1.23000002        0.252819806         57.0727959   
     1.24000001        0.255180955         57.0981712   
     1.25000000        0.257550120         57.1237831   
     1.25999999        0.259927541         57.1496315   
     1.26999998        0.262313098         57.1757011   
     1.27999997        0.264707059         57.2020531   
     1.28999996        0.267109424         57.2285995   
     1.29999995        0.269520402         57.2554092   
     1.31000006        0.271939903         57.2824516   
     1.32000005        0.274368227         57.3097267   
     1.32999992        0.276805341         57.3372650   
     1.33999991        0.279251337         57.3650322   
     1.35000002        0.281706512         57.3930550   
     1.36000001        0.284170836         57.4213219   
     1.37000000        0.286644220         57.4498215   
     1.38000000        0.289127022         57.4785919   
     1.38999999        0.291619331         57.5075989   
     1.39999998        0.294121146         57.5368500   
     1.40999997        0.296632499         57.5663452   
     1.41999996        0.299153715         57.5960999   
     1.42999995        0.301684886         57.6261215   
     1.44000006        0.304225862         57.6563835   
     1.45000005        0.306777000         57.6868782   
     1.46000004        0.309338212         57.7176590   
     1.47000003        0.311909884         57.7486801   
     1.47999990        0.314491898         57.7799683   
     1.49000001        0.317084491         57.8114967   
     1.50000000        0.319687694         57.8433151   
     1.50999999        0.322301626         57.8753738   
     1.51999998        0.324926615         57.9077034   
     1.52999997        0.327562481         57.9402885   
     1.54000008        0.330209464         57.9731560   
     1.54999995        0.332867742         58.0062714   
     1.55999994        0.335537404         58.0396500   
     1.56999993        0.338218451         58.0733109   
     1.58000004        0.340911180         58.1072197   
     1.59000003        0.343615621         58.1413956   
     1.60000002        0.346331924         58.1758766   
     1.61000001        0.349060208         58.2105865   
     1.62000000        0.351800710         58.2455940   
     1.63000000        0.354553431         58.2808876   
     1.63999999        0.357318521         58.3164101   
     1.64999998        0.360096067         58.3522491   
     1.65999997        0.362886339         58.3883438   
     1.67000008        0.365689367         58.4247475   
     1.68000007        0.368505299         58.4614067   
     1.68999994        0.371334225         58.4983482   
     1.69999993        0.374176472         58.5355721   
     1.71000004        0.377032042         58.5730820   
     1.72000003        0.379901230         58.6109047   
     1.73000002        0.382783890         58.6489830   
     1.74000001        0.385680348         58.6873665   
     1.75000000        0.388590842         58.7260475   
     1.75999999        0.391515374         58.7649841   
     1.76999986        0.394454002         58.8042297   
     1.77999985        0.397407234         58.8437843   
     1.79000008        0.400374979         58.8836250   
     1.80000007        0.403357446         58.9237633   
     1.81000006        0.406354785         58.9642029   
     1.82000005        0.409366965         59.0049324   
     1.83000004        0.412394404         59.0459747   
     1.83999991        0.415437222         59.0873299   
     1.84999990        0.418495566         59.1289558   
     1.85999990        0.421569556         59.1709061   
     1.86999989        0.424659312         59.2131805   
     1.88000011        0.427765280         59.2557449   
     1.89000010        0.430887133         59.2986107   
     1.89999998        0.434025735         59.3418045   
     1.90999997        0.437180579         59.3852921   
     1.91999996        0.440352261         59.4291344   
     1.92999995        0.443540841         59.4732780   
     1.93999994        0.446746528         59.5177231   
     1.94999993        0.449969381         59.5625114   
     1.95999992        0.453209788         59.6076050   
     1.97000003        0.456468016         59.6530151   
     1.98000002        0.459743947         59.6987572   
     1.99000001        0.463037789         59.7448463   
     2.00000000        0.466350019         59.7912521   
     2.00999999        0.469680578         59.8379974   
     2.01999998        0.473029822         59.8850670   
     2.02999997        0.476397723         59.9324760   
     2.03999996        0.479784966         59.9802284   
     2.04999995        0.483191460         60.0283127   
     2.06000018        0.486617267         60.0767250   
     2.07000017        0.490062773         60.1255035   
     2.07999992        0.493528068         60.1746063   
     2.08999991        0.497013777         60.2240524   
     2.09999990        0.500519454         60.2738800   
     2.10999990        0.504045784         60.3240280   
     2.11999989        0.507593274         60.3745651   
     2.12999988        0.511161387         60.4254227   
     2.13999987        0.514750719         60.4766502   
     2.15000010        0.518361688         60.5282326   
     2.16000009        0.521994531         60.5801811   
     2.17000008        0.525649071         60.6324615   
     2.18000007        0.529325783         60.6851578   
     2.19000006        0.533025205         60.7382088   
     2.20000005        0.536747217         60.7916183   
     2.21000004        0.540492475         60.8454056   
     2.22000003        0.544260442         60.8995476   
     2.23000002        0.548052311         60.9540863   
     2.23999977        0.551867485         61.0090103   
     2.25000000        0.555707037         61.0643005   
     2.25999999        0.559570730         61.1199913   
     2.26999998        0.563459098         61.1760712   
     2.27999997        0.567372024         61.2325325   
     2.28999996        0.571310639         61.2893753   
     2.29999995        0.575274229         61.3466034   
     2.30999994        0.579263508         61.4042473   
     2.31999993        0.583278954         61.4622726   
     2.32999992        0.587320626         61.5207176   
     2.34000015        0.591389000         61.5795746   
     2.35000014        0.595484257         61.6388206   
     2.36000013        0.599606514         61.6984749   
     2.36999989        0.603756607         61.7585640   
     2.37999988        0.607934237         61.8190575   
     2.38999987        0.612140596         61.8799591   
     2.39999986        0.616374671         61.9413033   
     2.40999985        0.620637774         62.0030441   
     2.41999984        0.624930501         62.0652313   
     2.43000007        0.629252315         62.1278534   
     2.44000006        0.633604169         62.1908760   
     2.45000005        0.637985945         62.2543640   
     2.46000004        0.642398477         62.3182831   
     2.47000003        0.646842003         62.3826523   
     2.48000002        0.651316702         62.4474564   
     2.49000001        0.655823171         62.5126915   
     2.50000000        0.660361469         62.5783920   
     2.50999999        0.664932489         62.6445541   
     2.51999998        0.669536054         62.7111511   
     2.52999997        0.674172878         62.7782402   
     2.53999996        0.678843141         62.8457718   
     2.54999995        0.683547616         62.9137802   
     2.55999994        0.688286483         62.9822655   
     2.56999993        0.693059981         63.0511971   
     2.57999992        0.697869003         63.1206360   
     2.58999991        0.702713490         63.1905403   
     2.59999990        0.707594037         63.2609329   
     2.61000013        0.712511241         63.3318176   
     2.62000012        0.717465341         63.4031944   
     2.63000011        0.722457230         63.4750481   
     2.64000010        0.727486491         63.5474167   
     2.65000010        0.732554317         63.6203041   
     2.65999985        0.737661064         63.6936684   
     2.66999984        0.742807329         63.7675858   
     2.67999983        0.747993350         63.8419762   
     2.68999982        0.753219366         63.9168930   
     2.70000005        0.758486629         63.9923515   
     2.71000004        0.763795137         64.0683289   
     2.72000003        0.769145370         64.1448364   
     2.73000002        0.774537921         64.2218704   
     2.74000001        0.779973567         64.2994461   
     2.75000000        0.785452485         64.3775787   
     2.75999999        0.790975928         64.4562531   
     2.76999998        0.796543479         64.5354919   
     2.77999997        0.802156210         64.6152573   
     2.79000020        0.807815135         64.6956024   
     2.79999995        0.813520014         64.7765274   
     2.80999994        0.819271743         64.8580170   
     2.81999993        0.825071096         64.9400558   
     2.82999992        0.830918729         65.0226898   
     2.83999991        0.836815119         65.1059189   
     2.84999990        0.842761099         65.1897354   
     2.85999990        0.848756909         65.2741394   
     2.86999989        0.854803443         65.3591461   
     2.88000011        0.860901415         65.4447479   
     2.89000010        0.867051601         65.5309830   
     2.90000010        0.873254478         65.6177979   
     2.91000009        0.879510820         65.7052689   
     2.92000008        0.885821283         65.7933578   
     2.93000007        0.892186761         65.8820801   
     2.94000006        0.898607910         65.9714203   
     2.94999981        0.905085564         66.0614319   
     2.95999980        0.911620140         66.1520615   
     2.96999979        0.918212652         66.2433777   
     2.98000002        0.924864531         66.3353195   
     2.99000001        0.931575358         66.4279251   
     3.00000000        0.938347042         66.5212250   
     3.00999999        0.945179939         66.6151962   
     3.01999998        0.952074587         66.7098465   
     3.02999997        0.959032297         66.8051834   
     3.03999996        0.966053605         66.9012451   
     3.04999995        0.973139942         66.9979706   
     3.05999994        0.980291724         67.0954208   
     3.07000017        0.987510264         67.1935959   
     3.08000016        0.994795978         67.2924881   
     3.08999991         1.00215042         67.3921127   
     3.09999990         1.00957406         67.4924545   
     3.10999990         1.01706839         67.5935669   
     3.11999989         1.02463365         67.6954041   
     3.12999988         1.03227210         67.7979965   
     3.13999987         1.03998303         67.9013596   
     3.14999986         1.04776943         68.0054932   
     3.16000009         1.05563140         68.1103973   
     3.17000008         1.06356966         68.2161026   
     3.18000007         1.07158625         68.3226166   
     3.19000006         1.07968175         68.4299088   
     3.20000005         1.08785748         68.5379944   
     3.21000004         1.09611475         68.6469269   
     3.22000003         1.10445464         68.7566757   
     3.23000002         1.11287785         68.8672562   
     3.24000001         1.12138641         68.9786835   
     3.25000000         1.12998188         69.0909500   
     3.25999999         1.13866496         69.2041245   
     3.26999998         1.14743686         69.3181152   
     3.27999997         1.15629911         69.4329681   
     3.28999996         1.16525292         69.5487366   
     3.29999995         1.17430067         69.6654129   
     3.30999994         1.18344283         69.7829819   
     3.31999993         1.19268095         69.9014511   
     3.32999992         1.20201635         70.0208664   
     3.34000015         1.21145177         70.1412201   
     3.35000014         1.22098768         70.2624817   
     3.36000013         1.23062563         70.3847275   
     3.37000012         1.24036765         70.5079117   
     3.37999988         1.25021517         70.6321030   
     3.38999987         1.26017010         70.7572556   
     3.39999986         1.27023399         70.8834000   
     3.41000009         1.28040898         71.0105515   
     3.42000008         1.29069626         71.1387558   
     3.43000007         1.30109835         71.2679443   
     3.44000006         1.31161642         71.3981781   
     3.45000005         1.32225299         71.5294800   
     3.46000004         1.33300900         71.6618347   
     3.47000003         1.34388769         71.7952728   
     3.48000002         1.35489094         71.9297867   
     3.49000001         1.36601985         72.0654144   
     3.50000000         1.37727761         72.2021408   
     3.50999999         1.38866568         72.3400040   
     3.51999998         1.40018678         72.4789886   
     3.52999997         1.41184223         72.6191406   
     3.53999972         1.42363548         72.7604599   
     3.54999971         1.43556845         72.9029312   
     3.55999970         1.44764411         73.0466232   
     3.57000017         1.45986438         73.1915131   
     3.58000016         1.47223163         73.3376083   
     3.59000015         1.48474824         73.4849472   
     3.60000014         1.49741733         73.6335449   
     3.61000013         1.51024199         73.7834167   
     3.62000012         1.52322400         73.9345551   
     3.63000011         1.53636646         74.0869675   
     3.64000010         1.54967296         74.2407379   
     3.65000010         1.56314623         74.3958054   
     3.66000009         1.57678831         74.5522232   
     3.66999984         1.59060419         74.7099915   
     3.67999983         1.60459530         74.8691711   
     3.68999982         1.61876523         75.0297470   
     3.69999981         1.63311768         75.1917114   
     3.70999980         1.64765668         75.3551102   
     3.71999979         1.66238403         75.5199738   
     3.72999978         1.67730522         75.6862946   
     3.73999977         1.69242215         75.8541412   
     3.75000024         1.70774031         76.0234756   
     3.76000023         1.72326159         76.1943512   
     3.77000022         1.73899174         76.3667603   
     3.78000021         1.75493371         76.5407257   
     3.79000020         1.77109170         76.7162781   
     3.79999995         1.78746998         76.8934555   
     3.80999994         1.80407286         77.0722656   
     3.81999993         1.82090604         77.2527390   
     3.82999992         1.83797276         77.4349060   
     3.83999991         1.85527778         77.6187668   
     3.84999990         1.87282741         77.8043442   
     3.85999990         1.89062333         77.9916611   
     3.86999989         1.90867376         78.1807632   
     3.87999988         1.92698205         78.3716812   
     3.88999987         1.94555497         78.5643997   
     3.89999986         1.96439707         78.7589951   
     3.90999985         1.98351371         78.9554672   
     3.91999984         2.00291133         79.1538315   
     3.92999983         2.02259564         79.3541260   
     3.94000006         2.04257321         79.5563965   
     3.95000005         2.06284976         79.7606659   
     3.96000004         2.08343148         79.9669266   
     3.97000003         2.10432601         80.1752853   
     3.98000002         2.12553906         80.3856659   
     3.99000001         2.14707756         80.5982056   
     4.00000000         2.16894937         80.8128891   
     4.01000023         2.19116187         81.0297394   
     4.01999998         2.21372247         81.2487793   
     4.02999973         2.23663998         81.4700851   
     4.03999996         2.25992060         81.6936798   
     4.04999971         2.28357410         81.9195862   
     4.05999994         2.30760765         82.1478577   
     4.06999969         2.33203220         82.3785095   
     4.07999992         2.35685468         82.6116028   
     4.08999968         2.38208556         82.8471680   
     4.09999990         2.40773463         83.0852280   
     4.10999966         2.43381071         83.3258667   
     4.12000036         2.46032643         83.5691299   
     4.13000011         2.48728919         83.8149567   
     4.14000034         2.51471257         84.0634995   
     4.15000010         2.54260492         84.3147583   
     4.15999985         2.57098103         84.5687943   
     4.17000008         2.59985042         84.8256531   
     4.17999983         2.62922597         85.0853806   
     4.19000006         2.65912175         85.3480530   
     4.19999981         2.68955040         85.6136856   
     4.21000004         2.72052503         85.8822937   
     4.21999979         2.75205898         86.1540222   
     4.23000002         2.78416824         86.4289017   
     4.23999977         2.81686687         86.7069168   
     4.25000000         2.85017061         86.9882050   
     4.25999975         2.88409591         87.2728043   
     4.26999998         2.91866016         87.5607452   
     4.27999973         2.95387864         87.8521957   
     4.28999996         2.98977089         88.1470490   
     4.30000019         3.02635574         88.4454956   
     4.30999994         3.06364918         88.7475891   
     4.32000017         3.10167384         89.0533295   
     4.32999992         3.14044976         89.3628922   
     4.34000015         3.17999768         89.6762924   
     4.34999990         3.22033954         89.9935913   
     4.36000013         3.26150036         90.3148956   
     4.36999989         3.30350089         90.6402817   
     4.38000011         3.34636784         90.9697876   
     4.38999987         3.39012671         91.3035812   
     4.40000010         3.43480301         91.6417160   
     4.40999985         3.48042512         91.9842529   
     4.42000008         3.52702260         92.3312759   
     4.42999983         3.57462502         92.6828995   
     4.44000006         3.62326145         93.0392838   
     4.44999981         3.67296767         93.4004059   
     4.46000004         3.72377491         93.7664566   
     4.46999979         3.77571964         94.1375427   
     4.47999954         3.82883906         94.5137558   
     4.49000025         3.88317180         94.8952026   
     4.50000000         3.93875456         95.2820206   
     4.51000023         3.99563003         95.6743011   
     4.51999998         4.05384445         96.0721588   
     4.53000021         4.11343956         96.4757614   
     4.53999996         4.17446423         96.8852768   
     4.55000019         4.23696804         97.3007507   
     4.55999994         4.30100250         97.7223816   
     4.57000017         4.36662149         98.1503372   
     4.57999992         4.43388176         98.5847321   
     4.59000015         4.50284386         99.0256958   
     4.59999990         4.57356977         99.4734497   
     4.60999966         4.64612103         99.9281006   
     4.61999989         4.72057199         100.389946   
     4.62999964         4.79698753         100.859016   
     4.63999987         4.87545061         101.335587   
     4.64999962         4.95603609         101.819839   
     4.65999985         5.03882456         102.311974   
     4.67000008         5.12391090         102.812187   
     4.68000031         5.21138000         103.320679   
     4.69000006         5.30132866         103.837761   
     4.70000029         5.39386654         104.363556   
     4.71000004         5.48909521         104.898392   
     4.72000027         5.58712912         105.442459   
     4.73000002         5.68808937         105.996078   
     4.73999977         5.79210472         106.559494   
     4.75000000         5.89930534         107.133003   
     4.75999975         6.00983381         107.716873   
     4.76999998         6.12384462         108.311409   
     4.77999973         6.24149275         108.917000   
     4.78999996         6.36295033         109.533958   
     4.79999971         6.48839331         110.162613   
     4.80999994         6.61801767         110.803322   
     4.81999969         6.75202179         111.456512   
     4.82999992         6.89062214         112.122551   
     4.83999968         7.03404999         112.801895   
     4.85000038         7.18255329         113.494949   
     4.86000013         7.33638859         114.202171   
     4.86999989         7.49583244         114.924042   
     4.88000011         7.66119099         115.661072   
     4.88999987         7.83277798         116.413826   
     4.90000010         8.01094151         117.182777   
     4.90999985         8.19604588         117.968605   
     4.92000008         8.38849068         118.771866   
     4.92999983         8.58869267         119.593178   
     4.94000006         8.79711628         120.433289   
     4.94999981         9.01425171         121.292847   
     4.96000004         9.24063015         122.172638   
     4.96999979         9.47682762         123.073479   
     4.98000002         9.72346401         123.996109   
     4.98999977         9.98121262         124.941505   
     5.00000000         10.2508049         125.910522   
     5.00999975         10.5330353         126.904182   
     5.01999998         10.8287659         127.923553   
     5.03000021         11.1389589         128.969666   
     5.03999996         11.4646044         130.043701   
     5.05000019         11.8068438         131.146866   
     5.05999994         12.1669073         132.280487   
     5.07000017         12.5461454         133.445877   
     5.07999992         12.9460344         134.644531   
     5.09000015         13.3682194         135.877975   
     5.09999990         13.8144913         137.147919   
     5.11000013         14.2868395         138.455994   
     5.11999989         14.7874708         139.804062   
     5.13000011         15.3188257         141.194031   
     5.13999987         15.8836212         142.628021   
     5.15000010         16.4848785         144.108124   
     5.15999985         17.1259842         145.636688   
     5.17000008         17.8107166         147.216110   
     5.17999983         18.5433102         148.848846   
     5.18999958         19.3285313         150.537628   
     5.19999981         20.1717567         152.285141   
     5.20999956         21.0790329         154.094345   
     5.22000027         22.0572739         155.968170   
     5.23000002         23.1141777         157.909470   
     5.24000025         24.2586441         159.921295   
     5.25000000         25.5007572         162.006592   
     5.26000023         26.8520470         164.168106   
     5.26999998         28.3257046         166.408401   
     5.28000021         29.9368496         168.729568   
     5.28999996         31.7028561         171.132965   
     5.30000019         33.6437263         173.619095   
     5.30999994         35.7824287         176.186905   
     5.31999969         38.1454391         178.833542   
     5.32999992         40.7631569         181.553406   
     5.33999968         43.6704750         184.337250   
     5.34999990         46.9073029         187.170486   
     5.35999966         50.5188446         190.031830   
     5.36999989         54.5559883         192.890900   
     5.37999964         59.0750389         195.704666   
     5.38999987         64.1367722         198.414322   
     5.40000010         69.8047333         200.940002   
     5.41000032         76.1404190         203.174744   
     5.42000008         83.1977310         204.978943   
     5.43000031         91.0117645         206.173676   
     5.44000006         99.5826874         206.536469   
     5.44999981         108.853836         205.802261   
     5.46000004         118.683380         203.673004   
     5.46999979         128.813889         199.843796   
     5.48000002         138.847519         194.049194   
     5.48999977         148.241394         186.131683   
     5.50000000         156.340912         176.122910   
     5.50999975         162.463577         164.312515   
     5.51999998         166.026871         151.269241   
     5.52999973         166.685013         137.785126   
     5.53999996         164.421616         124.743027   
     5.54999971         159.554611         112.951492   
     5.55999994         152.651337         103.006691   
     5.56999969         144.393585         95.2278595   
     5.58000040         135.446396         89.6712723   
     5.59000015         126.370499         86.1965485   
     5.59999990         117.582031         84.5469818   
     5.61000013         109.355553         84.4206619   
     5.61999989         101.847099         85.5193253   
     5.63000011         95.1247864         87.5759506   
     5.63999987         89.1973572         90.3657990   
     5.65000010         84.0370865         93.7084351   
     5.65999985         79.5964508         97.4632568   
     5.67000008         75.8192749         101.523727   
     5.67999983         72.6478500         105.810966   
     5.69000006         70.0272598         110.268028   
     5.69999981         67.9074783         114.855042   
     5.71000004         66.2444763         119.544823   
     5.71999979         65.0005722         124.320328   
     5.73000002         64.1443710         129.171860   
     5.73999977         63.6504288         134.095596   
     5.75000000         63.4989433         139.091812   
     5.76000023         63.6754150         144.164261   
     5.76999998         64.1701736         149.318695   
     5.78000021         64.9783173         154.563034   
     5.78999996         66.0994949         159.906677   
     5.80000019         67.5376740         165.360077   
     5.80999994         69.3014145         170.934570   
     5.82000017         71.4037628         176.642090   
     5.82999992         73.8625565         182.494659   
     5.84000015         76.7007294         188.504715   
     5.84999990         79.9467468         194.684372   
     5.86000013         83.6352081         201.045029   
     5.86999989         87.8075027         207.597565   
     5.88000011         92.5127411         214.350922   
     5.88999987         97.8087769         221.311646   
     5.89999962         103.763435         228.483047   
     5.90999985         110.455849         235.863327   
     5.91999960         117.978203         243.443863   
     5.92999983         126.437515         251.206665   
     5.93999958         135.957565         259.120575   
     5.95000029         146.681122         267.137207   
     5.96000004         158.770187         275.183136   
     5.97000027         172.409271         283.153778   
     5.98000002         187.804214         290.901520   
     5.99000025         205.179779         298.222443   
     6.00000000         224.774048         304.838226   
     6.01000023         246.826248         310.375946   
     6.01999998         271.555359         314.345032   
     6.03000021         299.125336         316.111359   
     6.03999996         329.591553         314.877960   
     6.04999971         362.824249         309.678467   
     6.05999994         398.408173         299.400970   
     6.06999969         435.525665         282.860504   
     6.07999992         472.847748         258.946960   
     6.08999968         508.480164         226.860565   
     6.09999990         540.029541         186.412674   
     6.10999966         564.852051         138.323853   
     6.11999989         580.493225         84.3892822   
     6.13000011         585.224060         27.3777332   
     6.14000034         578.484070        -29.3697186   
     6.15000010         561.037903        -82.5704727   
     6.16000032         534.763123        -129.588348   
     6.17000008         502.178986        -168.800003   
     6.17999983         465.913574        -199.645325   
     6.19000006         428.291840        -222.430969   
     6.19999981         391.118286        -238.025452   
     6.21000004         355.634369        -247.564301   
     6.21999979         322.585266        -252.228882   
     6.23000002         292.332642        -253.112015   
     6.23999977         264.969666        -251.154175   
     6.25000000         240.418411        -247.126282   
     6.25999975         218.502090        -241.638428   
     6.26999998         198.995361        -235.162231   
     6.27999973         181.656937        -228.054504   
     6.28999996         166.248840        -220.581299   
     6.29999971         152.547302        -212.937424   
     6.30999994         140.348099        -205.263870   
     6.32000017         129.469452        -197.661377   
     6.32999992         119.749481        -190.199173   
     6.34000015         111.046638        -182.924133   
     6.34999990         103.237572        -175.866531   
     6.36000013         96.2150421        -169.043945   
     6.36999989         89.8859711        -162.465408   
     6.38000011         84.1696777        -156.133408   
     6.38999987         78.9962845        -150.045731   
     6.40000010         74.3050995        -144.197189   
     6.40999985         70.0434494        -138.580475   
     6.42000008         66.1656113        -133.186584   
     6.42999983         62.6317749        -128.005981   
     6.44000006         59.4073029        -123.028358   
     6.44999981         56.4620667        -118.243378   
     6.46000004         53.7697678        -113.640724   
     6.46999979         51.3075409        -109.210258   
     6.48000002         49.0554848        -104.942200   
     6.48999977         46.9963303        -100.826958   
     6.50000000         45.1150894        -96.8552017   
     6.51000023         43.3990936        -93.0186844   
     6.51999998         41.8373222        -89.3088837   
     6.53000021         40.4206657        -85.7181473   
     6.53999996         39.1415405        -82.2390976   
     6.55000019         37.9939804        -78.8650894   
     6.55999994         36.9734764        -75.5900040   
     6.57000017         36.0769653        -72.4083176   
     6.57999992         35.3028412        -69.3154297   
     6.59000015         34.6509743        -66.3074036   
     6.59999990         34.1226540        -63.3815422   
     6.61000013         33.7207680        -60.5363960   
     6.61999989         33.4496918        -57.7723007   
     6.62999964         33.3153381        -55.0916328   
     6.63999987         33.3250580        -52.4995995   
     6.64999962         33.4873848        -50.0049362   
     6.65999985         33.8115997        -47.6208496   
     6.66999960         34.3068237        -45.3661842   
     6.68000031         34.9806519        -43.2666550   
     6.69000006         35.8367958        -41.3561745   
     6.70000029         36.8719101        -39.6773567   
     6.71000004         38.0709381        -38.2813873   
     6.72000027         39.4014206        -37.2256584   
     6.73000002         40.8074875        -36.5683365   
     6.74000025         42.2051849        -36.3586235   
     6.75000000         43.4822311        -36.6226540   
     6.75999975         44.5055847        -37.3474274   
     6.76999998         45.1393051        -38.4678421   
     6.77999973         45.2703819        -39.8640099   
     6.78999996         44.8355713        -41.3742714   
     6.79999971         43.8379669        -42.8223877   
     6.81000042         42.3458748        -44.0507240   
     6.82000017         40.4745674        -44.9458313   
     6.83000040         38.3587151        -45.4498863   
     6.84000015         36.1274109        -45.5560570   
     6.85000038         33.8875084        -45.2949562   
     6.86000013         31.7171021        -44.7184906   
     6.87000036         29.6665382        -43.8863564   
     6.88000011         27.7633324        -42.8567810   
     6.88999987         26.0181923        -41.6815224   
     6.90000010         24.4306297        -40.4038696   
     6.90999985         22.9932804        -39.0586395   
     6.92000008         21.6951485        -37.6727333   
     6.92999983         20.5236320        -36.2666855   
     6.94000006         19.4658794        -34.8557281   
     6.94999981         18.5095692        -33.4509659   
     6.96000004         17.6432838        -32.0602951   
     6.96999979         16.8567142        -30.6892395   
     6.98000002         16.1406555        -29.3415375   
     6.98999977         15.4869814        -28.0195408   
     7.00000000         14.8885946        -26.7246609   
     7.00999975         14.3392553        -25.4575500   
     7.01999998         13.8335409        -24.2184029   
     7.02999973         13.3667192        -23.0069160   
     7.03999996         12.9346790        -21.8227139   
     7.04999971         12.5337982        -20.6650848   
     7.05999994         12.1609449        -19.5332603   
     7.06999969         11.8133650        -18.4263916   
     7.07999945         11.4886246        -17.3436317   
     7.08999968         11.1846094        -16.2840385   
     7.09999943         10.8994322        -15.2467022   
     7.10999966         10.6314411        -14.2307816   
     7.11999941         10.3791714        -13.2353659   
     7.12999964         10.1413069        -12.2596102   
     7.14000034         9.91666794        -11.3026304   
     7.15000010         9.70425510        -10.3638010   
     7.16000032         9.50311852        -9.44228935   
     7.17000008         9.31241894        -8.53735542   
     7.18000031         9.13140392        -7.64833927   
     7.19000006         8.95940113        -6.77456427   
     7.20000029         8.79578781        -5.91541862   
     7.21000004         8.64001846        -5.07027340   
     7.22000027         8.49158001        -4.23856735   
     7.23000002         8.35001469        -3.41977620   
     7.24000025         8.21490860        -2.61335540   
     7.25000000         8.08587551        -1.81881571   
     7.26000023         7.96256733        -1.03570378   
     7.26999998         7.84466267       -0.263528317   
     7.28000021         7.73186016        0.498121172   
     7.28999996         7.62389517         1.24966753   
     7.30000019         7.52051306         1.99149442   
     7.30999994         7.42148495         2.72399735   
     7.32000017         7.32659388         3.44753003   
     7.32999992         7.23564672         4.16244745   
     7.33999968         7.14845562         4.86907673   
     7.34999990         7.06485319         5.56773949   
     7.35999966         6.98467636         6.25874424   
     7.36999989         6.90778399         6.94239426   
     7.37999964         6.83403111         7.61898613   
     7.38999987         6.76329660         8.28878403   
     7.39999962         6.69545507         8.95205402   
     7.40999985         6.63039541         9.60905647   
     7.41999960         6.56801844         10.2600403   
     7.42999983         6.50822067         10.9052391   
     7.43999958         6.45091295         11.5448885   
     7.44999981         6.39600420         12.1792221   
     7.45999956         6.34342003         12.8084412   
     7.46999979         6.29308224         13.4327774   
     7.47999954         6.24491882         14.0524225   
     7.48999977         6.19886446         14.6675739   
     7.50000048         6.15485144         15.2784977   
     7.51000023         6.11282969         15.8852463   
     7.52000046         6.07273865         16.4880848   
     7.53000021         6.03452921         17.0871735   
     7.54000044         5.99815083         17.6827011   
     7.55000019         5.96355343         18.2748375   
     7.56000042         5.93069887         18.8637371   
     7.57000017         5.89954376         19.4495773   
     7.58000040         5.87005234         20.0325127   
     7.59000015         5.84218740         20.6126881   
     7.59999990         5.81591702         21.1902752   
     7.61000013         5.79120684         21.7654133   
     7.61999989         5.76802969         22.3382587   
     7.63000011         5.74635887         22.9089451   
     7.63999987         5.72616768         23.4776173   
     7.65000010         5.70743227         24.0444317   
     7.65999985         5.69013453         24.6095219   
     7.67000008         5.67424679         25.1730137   
     7.67999983         5.65975666         25.7350426   
     7.69000006         5.64664125         26.2957516   
     7.69999981         5.63489008         26.8552647   
     7.71000004         5.62448597         27.4137230   
     7.71999979         5.61541510         27.9712448   
     7.73000002         5.60766792         28.5279694   
     7.73999977         5.60123396         29.0840034   
     7.75000000         5.59610176         29.6394997   
     7.75999975         5.59226513         30.1945858   
     7.76999998         5.58972073         30.7493458   
     7.77999973         5.58845758         31.3039532   
     7.78999949         5.58847523         31.8584976   
     7.79999971         5.58976650         32.4131241   
     7.80999947         5.59233379         32.9679527   
     7.81999969         5.59617662         33.5230942   
     7.82999945         5.60129023         34.0786819   
     7.83999968         5.60768080         34.6348267   
     7.84999943         5.61534834         35.1916847   
     7.85999966         5.62429810         35.7493477   
     7.87000036         5.63453436         36.3079948   
     7.88000011         5.64606428         36.8676682   
     7.89000034         5.65889311         37.4285278   
     7.90000010         5.67303228         37.9907150   
     7.91000032         5.68848753         38.5543442   
     7.92000008         5.70527315         39.1195259   
     7.93000031         5.72339773         39.6864433   
     7.94000006         5.74287367         40.2551765   
     7.95000029         5.76371908         40.8258896   
     7.96000004         5.78594923         41.3986855   
     7.97000027         5.80957651         41.9737396   
     7.98000002         5.83462143         42.5511208   
     7.99000025         5.86110497         43.1310463   
     8.00000000         5.88904667         43.7136116   
     8.01000023         5.91846943         44.2989693   
     8.02000046         5.94939566         44.8872604   
     8.02999973         5.98185158         45.4786453   
     8.03999996         6.01586246         46.0732422   
     8.05000019         6.05145741         46.6712151   
     8.05999947         6.08866739         47.2727432   
     8.06999969         6.12752533         47.8779526   
     8.07999992         6.16805840         48.4870224   
     8.09000015         6.21030903         49.1000938   
     8.09999943         6.25431156         49.7173805   
     8.10999966         6.30010271         50.3389931   
     8.11999989         6.34772730         50.9651337   
     8.13000011         6.39722681         51.5959892   
     8.13999939         6.44864798         52.2317200   
     8.14999962         6.50203657         52.8725357   
     8.15999985         6.55744505         53.5186195   
     8.17000008         6.61492586         54.1701622   
     8.17999935         6.67453337         54.8273582   
     8.18999958         6.73632669         55.4904327   
     8.19999981         6.80036926         56.1595688   
     8.21000004         6.86672211         56.8349991   
     8.21999931         6.93545341         57.5169792   
     8.23000050         7.00664234         58.2057419   
     8.24000072         7.08034658         58.9014282   
     8.25000000         7.15665579         59.6043549   
     8.26000023         7.23565006         60.3147583   
     8.27000046         7.31741619         61.0329094   
     8.28000069         7.40204239         61.7590446   
     8.28999996         7.48962593         62.4934502   
     8.30000019         7.58026695         63.2364273   
     8.31000042         7.67407084         63.9882851   
     8.31999969         7.77114773         64.7492676   
     8.32999992         7.87161589         65.5197525   
     8.34000015         7.97559547         66.3000107   
     8.35000038         8.08321571         67.0903778   
     8.35999966         8.19461346         67.8912430   
     8.36999989         8.30993271         68.7029343   
     8.38000011         8.42932129         69.5258331   
     8.39000034         8.55294037         70.3603210   
     8.39999962         8.68095684         71.2068176   
     8.40999985         8.81354713         72.0657043   
     8.42000008         8.95090103         72.9374542   
     8.43000031         9.09320927         73.8224945   
     8.43999958         9.24068546         74.7212448   
     8.44999981         9.39354515         75.6342621   
     8.46000004         9.55202579         76.5620499   
     8.47000027         9.71637249         77.5050888   
     8.47999954         9.88684464         78.4639511   
     8.48999977         10.0637188         79.4392090   
     8.50000000         10.2472906         80.4314041   
     8.50999928         10.4378624         81.4412460   
     8.51999950         10.6357718         82.4693527   
     8.52999973         10.8413677         83.5164108   
     8.53999996         11.0550241         84.5830536   
     8.54999924         11.2771330         85.6700668   
     8.55999947         11.5081120         86.7782898   
     8.56999969         11.7484159         87.9084320   
     8.57999992         11.9985228         89.0614090   
     8.58999920         12.2589417         90.2380600   
     8.60000038         12.5302343         91.4394531   
     8.61000061         12.8129520         92.6663971   
     8.61999989         13.1077204         93.9199371   
     8.63000011         13.4152155         95.2011871   
     8.64000034         13.7361479         96.5113144   
     8.65000057         14.0712862         97.8514786   
     8.65999985         14.4214439         99.2229080   
     8.67000008         14.7875080         100.626999   
     8.68000031         15.1704226         102.065056   
     8.69000053         15.5712013         103.538612   
     8.69999981         15.9909525         105.049149   
     8.71000004         16.4308586         106.598373   
     8.72000027         16.8921947         108.187981   
     8.73000050         17.3763485         109.819763   
     8.73999977         17.8848133         111.495651   
     8.75000000         18.4192104         113.217690   
     8.76000023         18.9812946         114.988083   
     8.76999950         19.5729866         116.809036   
     8.77999973         20.1963615         118.683006   
     8.78999996         20.8536739         120.612556   
     8.80000019         21.5474033         122.600365   
     8.80999947         22.2802372         124.649399   
     8.81999969         23.0551243         126.762657   
     8.82999992         23.8752995         128.943451   
     8.84000015         24.7442989         131.195175   
     8.84999943         25.6660137         133.521576   
     8.85999966         26.6447353         135.926575   
     8.86999989         27.6851711         138.414230   
     8.88000011         28.7925510         140.989059   
     8.88999939         29.9726334         143.655685   
     8.89999962         31.2318192         146.419220   
     8.90999985         32.5772057         149.284882   
     8.92000008         34.0166893         152.258362   
     8.92999935         35.5590668         155.345627   
     8.93999958         37.2141876         158.553085   
     8.94999981         38.9930573         161.887451   
     8.95999908         40.9080162         165.355698   
     8.97000027         42.9731140         168.965652   
     8.98000050         45.2036591         172.724518   
     8.99000072         47.6174583         176.640793   
     9.00000000         50.2344933         180.722778   
     9.01000023         53.0774002         184.979187   
     9.02000046         56.1719627         189.418793   
     9.02999973         59.5474930         194.050278   
     9.03999996         63.2374840         198.882050   
     9.05000019         67.2802963         203.922089   
     9.06000042         71.7197876         209.177307   
     9.06999969         76.6064377         214.652939   
     9.07999992         81.9982452         220.352158   
     9.09000015         87.9620438         226.274658   
     9.10000038         94.5747299         232.415329   
     9.10999966         101.924942         238.762299   
     9.11999989         110.114708         245.294540   
     9.13000011         119.261147         251.978348   
     9.14000034         129.498123         258.762543   
     9.14999962         140.977875         265.572754   
     9.15999985         153.871338         272.303009   
     9.17000008         168.367920         278.805969   
     9.18000031         184.672455         284.879272   
     9.18999958         202.998154         290.249390   
     9.19999981         223.553528         294.552032   
     9.21000004         246.519760         297.310913   
     9.21999931         272.014862         297.916565   
     9.22999954         300.039276         295.611877   
     9.23999977         330.400818         289.494080   
     9.25000000         362.619476         278.548248   
     9.25999928         395.823883         261.733490   
     9.26999950         428.665924         238.140732   
     9.27999973         459.304321         207.223709   
     9.28999996         485.515350         169.075226   
     9.29999924         504.975800         124.661758   
     9.30999947         515.694946         75.8982391   
     9.31999969         516.481506         25.4610405   
     9.32999992         507.258698        -23.6607323   
     9.34000015         489.089264        -68.7125092   
     9.35000038         463.886322        -107.669067   
     9.36000061         433.957825        -139.441223   
     9.36999989         401.560425        -163.834869   
     9.38000011         368.594971        -181.329407   
     9.39000034         336.474548        -192.801529   
     9.40000057         306.129059        -199.285263   
     9.40999985         278.083740        -201.804398   
     9.42000008         252.562988        -201.278488   
     9.43000031         229.587341        -198.483459   
     9.44000053         209.051498        -194.046371   
     9.44999981         190.781113        -188.459015   
     9.46000004         174.570862        -182.097824   
     9.47000027         160.208405        -175.246017   
     9.47999954         147.488800        -168.113327   
     9.48999977         136.221954        -160.852295   
     9.50000000         126.235939        -153.572418   
     9.51000023         117.377945        -146.350403   
     9.51999950         109.513733        -139.238770   
     9.52999973         102.526215        -132.271698   
     9.53999996         96.3138504        -125.470352   
     9.55000019         90.7889557        -118.845787   
     9.55999947         85.8760223        -112.402176   
     9.56999969         81.5102081        -106.138527   
     9.57999992         77.6359329        -100.050148   
     9.59000015         74.2058411        -94.1297836   
     9.59999943         71.1795807        -88.3685913   
     9.60999966         68.5231171        -82.7564011   
     9.61999989         66.2080078        -77.2823410   
     9.63000011         64.2106857        -71.9353180   
     9.63999939         62.5121078        -66.7039642   
     9.64999962         61.0973892        -61.5770531   
     9.65999985         59.9554062        -56.5435791   
     9.66999912         59.0787621        -51.5930023   
     9.67999935         58.4635773        -46.7152100   
     9.68999958         58.1094894        -41.9009514   
     9.70000076         58.0197449        -37.1414795   
     9.71000004         58.2011986        -32.4304771   
     9.72000027         58.6645889        -27.7620049   
     9.73000050         59.4247246        -23.1326637   
     9.73999977         60.5008316        -18.5419121   
     9.75000000         61.9166641        -13.9927588   
     9.76000023         63.7010002        -9.49317074   
     9.77000046         65.8875504        -5.05749702   
     9.77999973         68.5149384       -0.708593488   
     9.78999996         71.6261444         3.51974988   
     9.80000019         75.2671738         7.57955074   
     9.81000042         79.4844589         11.4050636   
     9.81999969         84.3206863         14.9087324   
     9.82999992         89.8078537         17.9777718   
     9.84000015         95.9575577         20.4718971   
     9.85000038         102.747643         22.2249928   
     9.85999966         110.106766         23.0525646   
     9.86999989         117.899025         22.7689133   
     9.88000011         125.915588         21.2147617   
     9.89000034         133.880844         18.2937660   
     9.89999962         141.480957         14.0077486   
     9.90999985         148.415619         8.47447491   
     9.92000008         154.458939         1.91157258   
     9.92999935         159.504517        -5.41878319   
     9.93999958         163.567169        -13.2869644   
     9.94999981         166.733612        -21.5609570   
     9.96000004         169.079575        -30.2263412   
     9.96999931         170.589813        -39.3480377   
     9.97999954         171.118210        -48.9869728   
     9.98999977         170.408340        -59.1046371   
     10.0000000         168.172455        -69.4959869   
     10.0099993         164.201889        -79.7834702   
     10.0199995         158.461411        -89.4809494   
     10.0299997         151.127884        -98.1025238   
     10.0400000         142.558411        -105.269699   
     10.0499992         133.208176        -110.776398   
     10.0600004         123.537682        -114.596291   
     10.0700006         113.945343        -116.845284   
     10.0799999         104.727982        -117.728424   
     10.0900002         96.0797272        -117.486938   
     10.1000004         88.1057663        -116.360420   
     10.1100006         80.8439560        -114.565033   
     10.1199999         74.2864304        -112.283478   
     10.1300001         68.3970947        -109.663673   
     10.1400003         63.1247520        -106.821350   
     10.1500006         58.4119377        -103.844955   
     10.1599998         54.2004433        -100.800560   
     10.1700001         50.4346008        -97.7367935   
     10.1800003         47.0630646        -94.6885529   
     10.1899996         44.0393715        -91.6804962   
     10.1999998         41.3222733        -88.7294769   
     10.2100000         38.8753242        -85.8466034   
     10.2200003         36.6666336        -83.0387192   
     10.2299995         34.6683769        -80.3095474   
     10.2399998         32.8562851        -77.6605682   
     10.2500000         31.2092648        -75.0916443   
     10.2600002         29.7089481        -72.6014862   
     10.2699995         28.3393517        -70.1880722   
     10.2799997         27.0865383        -67.8488312   
     10.2900000         25.9383259        -65.5809021   
     10.3000002         24.8840904        -63.3811455   
     10.3099995         23.9145126        -61.2464104   
     10.3199997         23.0214138        -59.1735573   
     10.3299999         22.1976166        -57.1593857   
     10.3400002         21.4368153        -55.2008324   
     10.3499994         20.7334347        -53.2949524   
     10.3599997         20.0825577        -51.4388351   
     10.3699999         19.4798679        -49.6297493   
     10.3799992         18.9215336        -47.8651047   
     10.3899994         18.4041939        -46.1423988   
     10.3999996         17.9248714        -44.4593048   
     10.4099998         17.4809551        -42.8136253   
     10.4199991         17.0701656        -41.2032890   
     10.4300003         16.6904774        -39.6262512   
     10.4400005         16.3402138        -38.0810509   
     10.4499998         16.0178509        -36.5659447   
     10.4600000         15.7221117        -35.0795441   
     10.4700003         15.4518728        -33.6206856   
     10.4800005         15.2061682        -32.1883850   
     10.4899998         14.9840965        -30.7819939   
     10.5000000         14.7847757        -29.4010754   
     10.5100002         14.6072254        -28.0455418   
     10.5200005         14.4502554        -26.7155647   
     10.5299997         14.3123245        -25.4115143   
     10.5400000         14.1913967        -24.1338787   
     10.5500002         14.0848436        -22.8829956   
     10.5600004         13.9894247        -21.6588020   
     10.5699997         13.9013815        -20.4605389   
     10.5799999         13.8166752        -19.2863998   
     10.5900002         13.7313738        -18.1334038   
     10.6000004         13.6421804        -16.9973354   
     10.6099997         13.5469704        -15.8728714   
     10.6199999         13.4452686        -14.7542782   
     10.6300001         13.3383617        -13.6359425   
     10.6399994         13.2290602        -12.5132666   
     10.6499996         13.1210661        -11.3831034   
     10.6599998         13.0182714        -10.2437897   
     10.6700001         12.9241848        -9.09490967   
     10.6799994         12.8415918        -7.93699121   
     10.6899996         12.7724743        -6.77087593   
     10.6999998         12.7180834        -5.59761143   
     10.7100000         12.6791306        -4.41800880   
     10.7199993         12.6559200        -3.23266864   
     10.7299995         12.6485386        -2.04196572   
     10.7399998         12.6569614       -0.845905781   
     10.7500000         12.6811295        0.355617255   
     10.7599993         12.7210035         1.56304288   
     10.7699995         12.7766247         2.77693248   
     10.7799997         12.8481102         3.99794292   
     10.7900000         12.9356947         5.22698641   
     10.8000002         13.0397043         6.46480370   
     10.8100004         13.1606073         7.71245384   
     10.8200006         13.2989912         8.97104836   
     10.8299999         13.4555702         10.2417583   
     10.8400002         13.6312246         11.5257311   
     10.8500004         13.8269758         12.8243103   
     10.8600006         14.0440130         14.1387815   
     10.8699999         14.2837105         15.4705372   
     10.8800001         14.5476437         16.8210850   
     10.8900003         14.8376169         18.1919479   
     10.8999996         15.1556959         19.5846920   
     10.9099998         15.5042095         21.0009975   
     10.9200001         15.8858318         22.4425564   
     10.9300003         16.3035889         23.9111271   
     10.9399996         16.7609444         25.4085445   
     10.9499998         17.2618256         26.9365959   
     10.9600000         17.8107319         28.4972134   
     10.9700003         18.4127884         30.0921803   
     10.9799995         19.0738716         31.7232971   
     10.9899998         19.8007183         33.3922234   
     11.0000000         20.6010590         35.1004257   
     11.0100002         21.4837780         36.8490982   
     11.0199995         22.4590816         38.6390076   
     11.0299997         23.5387497         40.4701500   
     11.0400000         24.7363434         42.3417931   
     11.0500002         26.0674648         44.2518539   
     11.0599995         27.5500183         46.1965141   
     11.0699997         29.2045765         48.1696625   
     11.0799999         31.0545273         50.1618195   
     11.0899992         33.1263351         52.1591644   
     11.0999994         35.4495468         54.1422882   
     11.1099997         38.0564957         56.0837784   
     11.1199999         40.9816170         57.9463654   
     11.1299992         44.2598381         59.6798515   
     11.1399994         47.9237938         61.2177467   
     11.1499996         51.9992752         62.4740791   
     11.1600008         56.4984627         63.3401527   
     11.1700001         61.4082794         63.6836319   
     11.1800003         66.6792374         63.3511314   
     11.1900005         72.2081757         62.1771660   
     11.1999998         77.8236008         60.0030403   
     11.2100000         83.2773285         56.7066002   
     11.2200003         88.2505188         52.2414742   
     11.2300005         92.3828583         46.6770058   
     11.2399998         95.3256149         40.2233238   
     11.2500000         96.8094177         33.2263145   
     11.2600002         96.7052612         26.1239109   
     11.2700005         95.0551300         19.3740273   
     11.2799997         92.0604019         13.3762379   
     11.2900000         88.0331192         8.41412830   
     11.3000002         83.3313217         4.63200092   
     11.3100004         78.2982407         2.04544902   
     11.3199997         73.2219467        0.573864698   
     11.3299999         68.3175812        0.794071630E-1
     11.3400002         63.7277565        0.401429415   
     11.3499994         59.5339508         1.38099778   
     11.3599997         55.7715988         2.87509489   
     11.3699999         52.4446068         4.76294565   
     11.3800001         49.5373039         6.94703436   
     11.3899994         47.0232697         9.35109806   
     11.3999996         44.8712692         11.9172535   
     11.4099998         43.0491295         14.6024714   
     11.4200001         41.5260124         17.3756447   
     11.4299994         40.2737503         20.2148399   
     11.4399996         39.2673111         23.1052284   
     11.4499998         38.4850006         26.0373344   
     11.4600000         37.9084778         29.0058231   
     11.4699993         37.5225105         32.0083847   
     11.4799995         37.3147659         35.0450745   
     11.4899998         37.2756233         38.1177940   
     11.5000000         37.3979378         41.2296486   
     11.5099993         37.6768990         44.3848801   
     11.5200005         38.1098137         47.5889053   
     11.5300007         38.6960640         50.8468666   
     11.5400000         39.4370422         54.1652908   
     11.5500002         40.3361702         57.5509186   
     11.5600004         41.3988113         61.0108185   
     11.5700006         42.6325073         64.5523224   
     11.5799999         44.0469284         68.1831818   
     11.5900002         45.6541328         71.9110870   
     11.6000004         47.4687386         75.7439728   
     11.6100006         49.5082359         79.6897278   
     11.6199999         51.7933159         83.7561340   
     11.6300001         54.3482895         87.9506531   
     11.6400003         57.2015305         92.2800827   
     11.6499996         60.3861847         96.7503204   
     11.6599998         63.9407539         101.365868   
     11.6700001         67.9099731         106.129051   
     11.6800003         72.3457260         111.039253   
     11.6899996         77.3081894         116.091812   
     11.6999998         82.8668060         121.276199   
     11.7100000         89.1018677         126.573868   
     11.7200003         96.1056824         131.955521   
     11.7299995         103.983673         137.377243   
     11.7399998         112.855423         142.775299   
     11.7500000         122.854996         148.059494   
     11.7600002         134.129730         153.104675   
     11.7699995         146.837204         157.739914   
     11.7799997         161.138290         161.735016   
     11.7900000         177.185455         164.785553   
     11.7999992         195.101517         166.496124   
     11.8099995         214.948318         166.365097   
     11.8199997         236.679825         163.778381   
     11.8299999         260.079498         158.016739   
     11.8399992         284.683868         148.294678   
     11.8499994         309.706635         133.843796   
     11.8599997         333.987030         114.053642   
     11.8699999         356.009125         88.6633224   
     11.8799992         374.029205         57.9689751   
     11.8900003         386.339111         22.9650669   
     11.9000006         391.612976        -14.6541843   
     11.9099998         389.241211        -52.7305031   
     11.9200001         379.492950        -89.0172577   
     11.9300003         363.442474        -121.601295   
     11.9400005         342.689819        -149.198700   
     11.9499998         319.002563        -171.246338   
     11.9600000         294.009735        -187.807709   
     11.9700003         269.020294        -199.379974   
     11.9800005         244.965500        -206.689270   
     11.9899998         222.427963        -210.527542   
     12.0000000         201.712509        -211.647354   
     12.0100002         182.924301        -210.707306   
     12.0200005         166.037659        -208.253601   
     12.0299997         150.949219        -204.722839   
     12.0400000         137.515182        -200.454391   
     12.0500002         125.575966        -195.706619   
     12.0600004         114.971413        -190.673477   
     12.0699997         105.549202        -185.498001   
     12.0799999         97.1693039        -180.284470   
     12.0900002         89.7055511        -175.108337   
     12.0999994         83.0455551        -170.022629   
     12.1099997         77.0900726        -165.064056   
     12.1199999         71.7514954        -160.257355   
     12.1300001         66.9525681        -155.617447   
     12.1399994         62.6252594        -151.152344   
     12.1499996         58.7096291        -146.863770   
     12.1599998         55.1535110        -142.748718   
     12.1700001         51.9121056        -138.800537   
     12.1799994         48.9478073        -135.010193   
     12.1899996         46.2296028        -131.367691   
     12.1999998         43.7320862        -127.863083   
     12.2100000         41.4342499        -124.487579   
     12.2199993         39.3183327        -121.233727   
     12.2299995         37.3687668        -118.095360   
     12.2399998         35.5715561        -115.066864   
     12.2499990         33.9138603        -112.143463   
     12.2600002         32.3837471        -109.320160   
     12.2700005         30.9706707        -106.593102   
     12.2800007         29.6645794        -103.957497   
     12.2900000         28.4565163        -101.409004   
     12.3000002         27.3382988        -98.9431915   
     12.3100004         26.3026543        -96.5558167   
     12.3200006         25.3429966        -94.2426147   
     12.3299999         24.4534855        -91.9996643   
     12.3400002         23.6288662        -89.8228226   
     12.3500004         22.8645325        -87.7084122   
     12.3599997         22.1563282        -85.6527100   
     12.3699999         21.5006237        -83.6522522   
     12.3800001         20.8942070        -81.7036209   
     12.3900003         20.3342972        -79.8036118   
     12.3999996         19.8184700        -77.9491501   
     12.4099998         19.3446198        -76.1372833   
     12.4200001         18.9110222        -74.3651581   
     12.4300003         18.5162296        -72.6300354   
     12.4399996         18.1591129        -70.9292526   
     12.4499998         17.8388538        -69.2603912   
     12.4600000         17.5549278        -67.6209717   
     12.4700003         17.3071060        -66.0086823   
     12.4799995         17.0954971        -64.4212494   
     12.4899998         16.9205399        -62.8566284   
     12.5000000         16.7830315        -61.3127251   
     12.5100002         16.6841583        -59.7876549   
     12.5199995         16.6255417        -58.2796898   
     12.5299997         16.6092834        -56.7872086   
     12.5400000         16.6380100        -55.3088531   
     12.5499992         16.7149467        -53.8435135   
     12.5599995         16.8440113        -52.3905449   
     12.5699997         17.0298824        -50.9496117   
     12.5799999         17.2780857        -49.5212250   
     12.5899992         17.5951138        -48.1065712   
     12.5999994         17.9885254        -46.7080994   
     12.6099997         18.4669800        -45.3297615   
     12.6199999         19.0403347        -43.9773827   
     12.6300001         19.7193871        -42.6598167   
     12.6400003         20.5159187        -41.3890839   
     12.6500006         21.4420109        -40.1817856   
     12.6599998         22.5092087        -39.0601692   
     12.6700001         23.7270012        -38.0535316   
     12.6800003         25.1004486        -37.1991234   
     12.6900005         26.6266956        -36.5430183   
     12.6999998         28.2901993        -36.1395950   
     12.7100000         30.0569649        -36.0486832   
     12.7200003         31.8685493        -36.3296242   
     12.7300005         33.6378479        -37.0308342   
     12.7399998         35.2498055        -38.1751328   
     12.7500000         36.5704918        -39.7438202   
     12.7600002         37.4663734        -41.6645966   
     12.7700005         37.8310623        -43.8110924   
     12.7799997         37.6112785        -46.0181961   
     12.7900000         36.8213463        -48.1111031   
     12.8000002         35.5390358        -49.9380264   
     12.8099995         33.8852386        -51.3942680   
     12.8199997         31.9963360        -52.4309082   
     12.8299999         29.9998665        -53.0484848   
     12.8400002         27.9994564        -53.2826042   
     12.8499994         26.0696983        -53.1879768   
     12.8599997         24.2578583        -52.8253174   
     12.8699999         22.5891819        -52.2529106   
     12.8800001         21.0729389        -51.5220642   
     12.8899994         19.7078514        -50.6754341   
     12.8999996         18.4863319        -49.7471237   
     12.9099998         17.3974628        -48.7635727   
     12.9200001         16.4289646        -47.7449875   
     12.9299994         15.5684519        -46.7063026   
     12.9399996         14.8041172        -45.6584778   
     12.9499998         14.1251059        -44.6093788   
     12.9600000         13.5216541        -43.5645828   
     12.9699993         12.9851484        -42.5278244   
     12.9799995         12.5080261        -41.5015755   
     12.9900007         12.0836773        -40.4872627   
     13.0000000         11.7065153        -39.4857903   
     13.0100002         11.3716230        -38.4973145   
     13.0200005         11.0748091        -37.5217133   
     13.0300007         10.8125248        -36.5585403   
     13.0400000         10.5817308        -35.6072388   
     13.0500002         10.3798819        -34.6669807   
     13.0600004         10.2048454        -33.7369843   
     13.0699997         10.0548677        -32.8162880   
     13.0799999         9.92852211        -31.9039516   
     13.0900002         9.82468891        -30.9990139   
     13.1000004         9.74253654        -30.1004524   
     13.1099997         9.68149567        -29.2072697   
     13.1199999         9.64125061        -28.3184662   
     13.1300001         9.62173748        -27.4330940   
     13.1400003         9.62314510        -26.5501728   
     13.1499996         9.64591312        -25.6687527   
     13.1599998         9.69076157        -24.7879734   
     13.1700001         9.75867462        -23.9069500   
     13.1800003         9.85097027        -23.0249367   
     13.1899996         9.96929264        -22.1412811   
     13.1999998         10.1156645        -21.2554016   
     13.2100000         10.2925434        -20.3669853   
     13.2200003         10.5028458        -19.4759159   
     13.2299995         10.7500229        -18.5824242   
     13.2399998         11.0381393        -17.6872025   
     13.2500000         11.3718987        -16.7915783   
     13.2599993         11.7567177        -15.8976841   
     13.2699995         12.1987762        -15.0087805   
     13.2799997         12.7049742        -14.1296005   
     13.2900000         13.2828665        -13.2668571   
     13.2999992         13.9404364        -12.4297390   
     13.3099995         14.6856833        -11.6307478   
     13.3199997         15.5258465        -10.8863916   
     13.3299999         16.4661808        -10.2180433   
     13.3399992         17.5081158        -9.65258884   
     13.3500004         18.6466923        -9.22247505   
     13.3600006         19.8667469        -8.96498299   
     13.3699999         21.1395226        -8.91928673   
     13.3800001         22.4188766        -9.12133980   
     13.3900003         23.6397591        -9.59574509   
     13.4000006         24.7211285        -10.3454943   
     13.4099998         25.5749722        -11.3422861   
     13.4200001         26.1215878        -12.5218067   
     13.4300003         26.3074627        -13.7881174   
     13.4400005         26.1193943        -15.0285177   
     13.4499998         25.5882988        -16.1343784   
     13.4600000         24.7809811        -17.0206013   
     13.4700003         23.7837982        -17.6366310   
     13.4800005         22.6850967        -17.9670334   
     13.4899998         21.5621319        -18.0244389   
     13.5000000         20.4745827        -17.8390579   
     13.5100002         19.4636116        -17.4492111   
     13.5199995         18.5544853        -16.8943062   
     13.5299997         17.7603588        -16.2106285   
     13.5400000         17.0861683        -15.4295559   
     13.5500002         16.5317726        -14.5772266   
     13.5599995         16.0943527        -13.6749535   
     13.5699997         15.7700062        -12.7403126   
     13.5799999         15.5546904        -11.7880640   
     13.5900002         15.4448252        -10.8312340   
     13.5999994         15.4373713        -9.88220978   
     13.6099997         15.5296545        -8.95364857   
     13.6200008         15.7188292        -8.05925369   
     13.6300001         16.0009136        -7.21486568   
     13.6400003         16.3695908        -6.43803692   
     13.6499996         16.8141327        -5.74895000   
     13.6600008         17.3177166        -5.16826963   
     13.6700001         17.8549061        -4.71576166   
     13.6800003         18.3910999        -4.40558338   
     13.6899996         18.8827972        -4.24168491   
     13.7000008         19.2822781        -4.21220779   
     13.7099991         19.5444126        -4.28650427   
     13.7200003         19.6365013        -4.41640615   
     13.7299995         19.5459747        -4.54297352   
     13.7400007         19.2837219        -4.60723114   
     13.7499990         18.8809433        -4.56076765   
     13.7600002         18.3808479        -4.37260294   
     13.7699995         17.8297367        -4.03049374   
     13.7799997         17.2688847        -3.53766203   
     13.7899990         16.7311611        -2.90781164   
     13.8000002         16.2393456        -2.15935564   
     13.8099995         15.8078661        -1.31215906   
     13.8199997         15.4441528       -0.384183139   
     13.8299990         15.1512203        0.608747721   
     13.8400002         14.9289341         1.65435445   
     13.8499994         14.7757263         2.74262810   
     13.8599997         14.6892424         3.86672330   
     13.8699989         14.6671724         5.02113914   
     13.8800001         14.7074881         6.20275068   
     13.8899994         14.8087578         7.40896654   
     13.8999996         14.9703131         8.63891315   
     13.9100008         15.1922779         9.89181900   
     13.9200001         15.4756174         11.1674147   
     13.9300003         15.8223858         12.4663420   
     13.9399996         16.2354355         13.7885141   
     13.9500008         16.7189579         15.1346960   
     13.9600000         17.2780094         16.5045700   
     13.9700003         17.9192638         17.8982887   
     13.9799995         18.6504040         19.3144932   
     13.9900007         19.4810944         20.7517700   
     14.0000000         20.4221725         22.2064743   
     14.0100002         21.4868832         23.6740818   
     14.0199995         22.6897411         25.1465893   
     14.0300007         24.0479450         26.6136284   
     14.0400000         25.5796566         28.0594635   
     14.0500002         27.3053703         29.4634285   
     14.0599995         29.2450542         30.7964306   
     14.0700006         31.4188232         32.0207558   
     14.0799999         33.8417969         33.0862961   
     14.0900002         36.5228386         33.9301224   
     14.0999994         39.4555054         34.4743385   
     14.1100006         42.6134148         34.6280212   
     14.1199999         45.9367905         34.2916222   
     14.1300001         49.3267708         33.3675957   
     14.1399994         52.6345978         31.7789097   
     14.1500006         55.6681519         29.4923534   
     14.1599989         58.2041893         26.5469646   
     14.1700001         60.0254021         23.0696907   
     14.1799994         60.9620552         19.2780361   
     14.1900005         60.9361572         15.4478693   
     14.1999989         59.9818115         11.8689871   
     14.2100000         58.2360306         8.78684711   
     14.2199993         55.9043312         6.36890888   
     14.2299995         53.2129860         4.68894482   
     14.2399988         50.3726997         3.74179578   
     14.2500000         47.5517960         3.46580815   
     14.2599993         44.8722801         3.77018929   
     14.2699995         42.4099541         4.55559540   
     14.2800007         40.2063904         5.72762299   
     14.2900000         38.2774582         7.20359087   
     14.3000002         36.6215439         8.91609383   
     14.3099995         35.2282600         10.8108683   
     14.3200006         34.0813370         12.8474474   
     14.3299999         33.1634636         14.9946318   
     14.3400002         32.4568939         17.2310295   
     14.3499994         31.9457150         19.5405788   
     14.3600006         31.6155949         21.9138412   
     14.3699999         31.4546623         24.3438530   
     14.3800001         31.4531975         26.8282547   
     14.3899994         31.6037903         29.3654404   
     14.4000006         31.9012814         31.9571800   
     14.4099998         32.3424759         34.6050491   
     14.4200001         32.9264221         37.3132896   
     14.4299994         33.6538391         40.0853348   
     14.4400005         34.5278625         42.9270439   
     14.4499998         35.5530510         45.8429832   
     14.4600000         36.7366295         48.8400040   
     14.4699993         38.0872726         51.9233704   
     14.4800005         39.6167374         55.1005211   
     14.4899998         41.3383904         58.3769531   
     14.5000000         43.2693710         61.7604523   
     14.5099993         45.4287376         65.2561798   
     14.5200005         47.8403473         68.8713379   
     14.5299997         50.5305367         72.6100388   
     14.5400000         53.5317917         76.4778442   
     14.5499992         56.8799782         80.4762192   
     14.5600004         60.6189499         84.6069336   
     14.5699997         64.7971497         88.8658142   
     14.5799999         69.4734344         93.2471924   
     14.5899992         74.7127075         97.7362595   
     14.6000004         80.5931931         102.312584   
     14.6099987         87.2006531         106.941635   
     14.6199999         94.6371384         111.576096   
     14.6300011         103.013969         116.145813   
     14.6400003         112.454216         120.553108   
     14.6500006         123.095718         124.666214   
     14.6599998         135.075607         128.303619   
     14.6700010         148.535294         131.226242   
     14.6799994         163.590012         133.118958   
     14.6900005         180.322662         133.580215   
     14.6999998         198.728607         132.110214   
     14.7100010         218.687408         128.112091   
     14.7199993         239.876648         120.916679   
     14.7300005         261.728729         109.833351   
     14.7399998         283.347748         94.2634201   
     14.7500000         303.525391         73.8383408   
     14.7599993         320.786652         48.6218567   
     14.7700005         333.600128         19.2393913   
     14.7799997         340.643005        -13.0393429   
     14.7900000         341.123230        -46.4595184   
     14.7999992         334.982880        -79.0329971   
     14.8100004         322.913574        -108.951660   
     14.8199997         306.178284        -134.858414   
     14.8299999         286.295349        -156.034302   
     14.8399992         264.764313        -172.337494   
     14.8500004         242.838165        -184.085587   
     14.8599997         221.462250        -191.852051   
     14.8699999         201.248337        -196.322433   
     14.8799992         182.553253        -198.173126   
     14.8900003         165.521652        -198.014328   
     14.8999996         150.173691        -196.360855   
     14.9099998         136.435638        -193.628998   
     14.9199991         124.196739        -190.146271   
     14.9300003         113.317101        -186.162552   
     14.9399996         103.659409        -181.867844   
     14.9499998         95.0844116        -177.401031   
     14.9599991         87.4684906        -172.866180   
     14.9700003         80.6945038        -168.335556   
     14.9799995         74.6625900        -163.863129   
     14.9899998         69.2807388        -159.483810   
     15.0000010         64.4711151        -155.222641   
     15.0100002         60.1655159        -151.096191   
     15.0200005         56.3025131        -147.112488   
     15.0299997         52.8308868        -143.277893   
     15.0400009         49.7032127        -139.592697   
     15.0500002         46.8794823        -136.057007   
     15.0600004         44.3222160        -132.666260   
     15.0699997         41.9997826        -129.415619   
     15.0800009         39.8829575        -126.296120   
     15.0900002         37.9484177        -123.298828   
     15.1000004         36.1759491        -120.411896   
     15.1099997         34.5510368        -117.625389   
     15.1200008         33.0618210        -114.928642   
     15.1299992         31.7003384        -112.314056   
     15.1400003         30.4595528        -109.774132   
     15.1499996         29.3344097        -107.304581   
     15.1600008         28.3197651        -104.900391   
     15.1699991         27.4116497        -102.558708   
     15.1800003         26.6060276        -100.275696   
     15.1899996         25.8999920        -98.0489807   
     15.1999998         25.2909203        -95.8748856   
     15.2099991         24.7775040        -93.7515106   
     15.2200003         24.3590469        -91.6756058   
     15.2299995         24.0362644        -89.6456680   
     15.2399998         23.8108044        -87.6593781   
     15.2499990         23.6857548        -85.7164764   
     15.2600002         23.6654682        -83.8163910   
     15.2699995         23.7557640        -81.9612122   
     15.2799997         23.9639740        -80.1534042   
     15.2899990         24.2987404        -78.3991776   
     15.3000002         24.7702732        -76.7065048   
     15.3099995         25.3895073        -75.0885696   
     15.3199997         26.1681671        -73.5624695   
     15.3299990         27.1168098        -72.1527634   
     15.3400002         28.2441044        -70.8908615   
     15.3499994         29.5528145        -69.8178024   
     15.3599997         31.0372105        -68.9834213   
     15.3700008         32.6764641        -68.4465408   
     15.3800001         34.4286575        -68.2707367   
     15.3900003         36.2256889        -68.5172119   
     15.3999996         37.9675369        -69.2325897   
     15.4100008         39.5268211        -70.4331131   
     15.4200001         40.7585487        -72.0870056   
     15.4300003         41.5247231        -74.1051331   
     15.4399996         41.7219086        -76.3417664   
     15.4500008         41.3082809        -78.6168976   
     15.4600000         40.3150101        -80.7464600   
     15.4700003         38.8372917        -82.5790176   
     15.4799995         37.0112114        -84.0159225   
     15.4900007         34.9825058        -85.0192261   
     15.5000000         32.8843231        -85.6009827   
     15.5100002         30.8209343        -85.8084641   
     15.5199995         28.8661804        -85.7066956   
     15.5300007         27.0634327        -85.3661118   
     15.5400000         25.4334183        -84.8542633   
     15.5500002         23.9775543        -84.2309723   
     15.5599995         22.6849937        -83.5466156   
     15.5700006         21.5345078        -82.8405685   
     15.5799990         20.4995594        -82.1410446   
     15.5900002         19.5501480        -81.4637222   
     15.5999994         18.6580200        -80.8131332   
     15.6100006         17.7993450        -80.1831741   
     15.6199989         16.9590435        -79.5614548   
     15.6300001         16.1307335        -78.9331055   
     15.6399994         15.3166904        -78.2857132   
     15.6499996         14.5238085        -77.6112518   
     15.6599989         13.7612944        -76.9077759   
     15.6700001         13.0369720        -76.1775894   
     15.6799994         12.3567829        -75.4262009   
     15.6899996         11.7234850        -74.6601868   
     15.6999989         11.1378412        -73.8865662   
     15.7100000         10.5984278        -73.1111450   
     15.7199993         10.1030102        -72.3392181   
     15.7299995         9.64838982        -71.5745087   
     15.7400007         9.23133469        -70.8201675   
     15.7500000         8.84856606        -70.0783997   
     15.7600002         8.49674702        -69.3504715   
     15.7699995         8.17299175        -68.6375732   
     15.7800007         7.87445784        -67.9399261   
     15.7900000         7.59876060        -67.2580185   
     15.8000002         7.34359598        -66.5915375   
     15.8099995         7.10708141        -65.9405365   
     15.8200006         6.88740778        -65.3044128   
     15.8299999         6.68312120        -64.6830444   
     15.8400002         6.49281502        -64.0756836   
     15.8499994         6.31538010        -63.4820862   
     15.8600006         6.14973831        -62.9014969   
     15.8699999         5.99506187        -62.3336372   
     15.8800001         5.85052681        -61.7777710   
     15.8899994         5.71552706        -61.2336044   
     15.9000006         5.58946180        -60.7004395   
     15.9099998         5.47190094        -60.1780167   
     15.9200001         5.36242867        -59.6656914   
     15.9299994         5.26077604        -59.1632309   
     15.9400005         5.16669226        -58.6700974   
     15.9499998         5.08006334        -58.1860962   
     15.9600000         5.00079155        -57.7107658   
     15.9699993         4.92891645        -57.2440262   
     15.9800005         4.86450148        -56.7855568   
     15.9899998         4.80773211        -56.3354187   
     16.0000000         4.75883389        -55.8935013   
     16.0099983         4.71813583        -55.4600525   
     16.0200005         4.68598986        -55.0353241   
     16.0299988         4.66280508        -54.6200256   
     16.0400009         4.64895201        -54.2148781   
     16.0499992         4.64472342        -53.8211403   
     16.0599995         4.65019703        -53.4402924   
     16.0699997         4.66507626        -53.0744820   
     16.0799999         4.68847036        -52.7258911   
     16.0899982         4.71861267        -52.3972702   
     16.1000004         4.75261879        -52.0910454   
     16.1100006         4.78628874        -51.8092346   
     16.1199989         4.81417370        -51.5527191   
     16.1300011         4.83004808        -51.3202629   
     16.1399994         4.82776165        -51.1082916   
     16.1500015         4.80247068        -50.9108009   
     16.1599998         4.75179577        -50.7200394   
     16.1700001         4.67642069        -50.5278778   
     16.1800003         4.57996655        -50.3273239   
     16.1900005         4.46794176        -50.1134987   
     16.1999989         4.34662008        -49.8841362   
     16.2100010         4.22176027        -49.6392555   
     16.2199993         4.09806967        -49.3804855   
     16.2299995         3.97878647        -49.1102676   
     16.2399998         3.86593437        -48.8313675   
     16.2500000         3.76043606        -48.5462685   
     16.2600002         3.66257405        -48.2571793   
     16.2700005         3.57214665        -47.9656601   
     16.2799988         3.48881435        -47.6730537   
     16.2900009         3.41212249        -47.3801994   
     16.2999992         3.34166694        -47.0879059   
     16.3099995         3.27701163        -46.7965736   
     16.3199997         3.21777654        -46.5067101   
     16.3299999         3.16355252        -46.2185326   
     16.3400002         3.11399007        -45.9322929   
     16.3500004         3.06874061        -45.6479950   
     16.3599987         3.02754664        -45.3657494   
     16.3700008         2.99018574        -45.0854301   
     16.3799992         2.95652366        -44.8070526   
     16.3899994         2.92645931        -44.5304489   
     16.3999996         2.89995265        -44.2556267   
     16.4099998         2.87697363        -43.9824409   
     16.4200001         2.85753775        -43.7108727   
     16.4300003         2.84167480        -43.4407501   
     16.4399986         2.82945228        -43.1720581   
     16.4500008         2.82096672        -42.9045944   
     16.4600010         2.81635499        -42.6383209   
     16.4699993         2.81580377        -42.3731499   
     16.4800014         2.81954527        -42.1088905   
     16.4899998         2.82787395        -41.8455200   
     16.5000000         2.84114861        -41.5828514   
     16.5100002         2.85980058        -41.3208923   
     16.5200005         2.88435030        -41.0595512   
     16.5300007         2.91540194        -40.7989120   
     16.5400009         2.95368433        -40.5389252   
     16.5499992         3.00002408        -40.2798882   
     16.5600014         3.05540586        -40.0220032   
     16.5699997         3.12092829        -39.7658310   
     16.5799999         3.19788027        -39.5119209   
     16.5900002         3.28765225        -39.2613678   
     16.6000004         3.39182448        -39.0154648   
     16.6099987         3.51200080        -38.7761803   
     16.6200008         3.64986277        -38.5459747   
     16.6299992         3.80686164        -38.3283310   
     16.6399994         3.98414087        -38.1274605   
     16.6499996         4.18197441        -37.9489594   
     16.6599998         4.39944792        -37.7993279   
     16.6700001         4.63352299        -37.6861992   
     16.6800003         4.87852859        -37.6174850   
     16.6899986         5.12515688        -37.6005402   
     16.7000008         5.36049938        -37.6403580   
     16.7099991         5.56831789        -37.7376900   
     16.7199993         5.73116255        -37.8870087   
     16.7299995         5.83320665        -38.0756073   
     16.7399998         5.86400032        -38.2847023   
     16.7500000         5.82111025        -38.4922295   
     16.7600002         5.71080732        -38.6773109   
     16.7699986         5.54637766        -38.8238983   
     16.7800007         5.34458017        -38.9231071   
     16.7899990         5.12223387        -38.9730721   
     16.7999992         4.89326906        -38.9775124   
     16.8099995         4.66766024        -38.9433403   
     16.8199997         4.45101833        -38.8784752   
     16.8299999         4.24555635        -38.7902527   
     16.8400002         4.05113602        -38.6843452   
     16.8500004         3.86641812        -38.5643654   
     16.8600006         3.69015265        -38.4323311   
     16.8700008         3.52158546        -38.2890282   
     16.8799992         3.36085439        -38.1349983   
     16.8900013         3.20855999        -37.9708176   
     16.8999996         3.06560969        -37.7976112   
     16.9099998         2.93267918        -37.6166954   
     16.9200001         2.81020308        -37.4297676   
     16.9300003         2.69815969        -37.2384262   
     16.9400005         2.59627414        -37.0441856   
     16.9500008         2.50396800        -36.8483124   
     16.9599991         2.42058587        -36.6519089   
     16.9700012         2.34535265        -36.4557114   
     16.9799995         2.27754188        -36.2604027   
     16.9899998         2.21641517        -36.0663414   
     17.0000000         2.16132808        -35.8738747   
     17.0100002         2.11166382        -35.6831360   
     17.0199986         2.06690645        -35.4942856   
     17.0300007         2.02657628        -35.3072968   
     17.0399990         1.99028182        -35.1222153   
     17.0500011         1.95766437        -34.9389763   
     17.0599995         1.92843938        -34.7575188   
     17.0699997         1.90234911        -34.5777664   
     17.0799999         1.87919688        -34.3996468   
     17.0900002         1.85880971        -34.2230225   
     17.0999985         1.84106159        -34.0478249   
     17.1100006         1.82585084        -33.8739166   
     17.1199989         1.81311464        -33.7012291   
     17.1299992         1.80281568        -33.5296021   
     17.1399994         1.79494810        -33.3589973   
     17.1499996         1.78953660        -33.1892586   
     17.1599998         1.78663528        -33.0203323   
     17.1700001         1.78632939        -32.8521042   
     17.1799984         1.78873885        -32.6845360   
     17.1900005         1.79401743        -32.5175362   
     17.2000008         1.80235696        -32.3510780   
     17.2099991         1.81398523        -32.1851959   
     17.2200012         1.82917726        -32.0198822   
     17.2299995         1.84823871        -31.8552437   
     17.2399998         1.87152314        -31.6913872   
     17.2500000         1.89940286        -31.5285950   
     17.2600002         1.93228662        -31.3671341   
     17.2700005         1.97056150        -31.2074852   
     17.2800007         2.01461339        -31.0501823   
     17.2899990         2.06474066        -30.8959656   
     17.3000011         2.12117434        -30.7456150   
     17.3099995         2.18397427        -30.6001396   
     17.3199997         2.25306320        -30.4605579   
     17.3299999         2.32809663        -30.3280296   
     17.3400002         2.40850830        -30.2036934   
     17.3500004         2.49334621        -30.0886574   
     17.3600006         2.58136797        -29.9837933   
     17.3699989         2.67101407        -29.8895779   
     17.3800011         2.76076102        -29.8058434   
     17.3899994         2.84937453        -29.7319870   
     17.3999996         2.93635798        -29.6670284   
     17.4099998         3.02196193        -29.6102924   
     17.4200001         3.10704994        -29.5618515   
     17.4300003         3.19243288        -29.5229435   
     17.4400005         3.27829051        -29.4958229   
     17.4499989         3.36344624        -29.4835434   
     17.4600010         3.44505739        -29.4892197   
     17.4699993         3.51834416        -29.5152264   
     17.4799995         3.57690144        -29.5622673   
     17.4899998         3.61331248        -29.6283684   
     17.5000000         3.62053061        -29.7083626   
     17.5099983         3.59351945        -29.7938919   
     17.5200005         3.53075552        -29.8747787   
     17.5299988         3.43489337        -29.9407673   
     17.5399990         3.31214547        -29.9836407   
     17.5499992         3.17092204        -29.9983597   
     17.5599995         3.01994824        -29.9833431   
     17.5700016         2.86701512        -29.9399414   
     17.5799999         2.71816921        -29.8713398   
     17.5900002         2.57746744        -29.7816105   
     17.6000004         2.44736314        -29.6749878   
     17.6100006         2.32891607        -29.5552959   
     17.6199989         2.22234201        -29.4259033   
     17.6300011         2.12720966        -29.2894592   
     17.6399994         2.04282236        -29.1481590   
     17.6499996         1.96827638        -29.0035706   
     17.6599998         1.90267467        -28.8569736   
     17.6700001         1.84510553        -28.7092056   
     17.6800003         1.79476213        -28.5609493   
     17.6900005         1.75088489        -28.4126186   
     17.6999989         1.71283138        -28.2645435   
     17.7100010         1.68002200        -28.1168728   
     17.7199993         1.65198433        -27.9697647   
     17.7299995         1.62829697        -27.8231888   
     17.7399998         1.60862899        -27.6772346   
     17.7500000         1.59269714        -27.5318127   
     17.7600002         1.58028662        -27.3869171   
     17.7700005         1.57122469        -27.2424583   
     17.7799988         1.56539381        -27.0983868   
     17.7900009         1.56271350        -26.9546127   
     17.7999992         1.56314564        -26.8111305   
     17.8099995         1.56668746        -26.6678200   
     17.8199997         1.57336318        -26.5247192   
     17.8299999         1.58322299        -26.3817768   
     17.8400002         1.59632719        -26.2390614   
     17.8500004         1.61274052        -26.0965939   
     17.8599987         1.63249874        -25.9545231   
     17.8700008         1.65560722        -25.8129330   
     17.8799992         1.68198669        -25.6720066   
     17.8899994         1.71148276        -25.5318127   
     17.8999996         1.74382925        -25.3924160   
     17.9099998         1.77871513        -25.2536030   
     17.9199982         1.81582046        -25.1150646   
     17.9300003         1.85497689        -24.9761124   
     17.9400005         1.89627063        -24.8359585   
     17.9500008         1.94014955        -24.6936989   
     17.9600010         1.98747981        -24.5484200   
     17.9699993         2.03943348        -24.3995819   
     17.9800014         2.09744787        -24.2467575   
     17.9899998         2.16304517        -24.0899944   
     18.0000000         2.23784947        -23.9294872   
     18.0100002         2.32346845        -23.7657566   
     18.0200005         2.42162108        -23.5994759   
     18.0299988         2.53405237        -23.4316063   
     18.0400009         2.66272235        -23.2632885   
     18.0499992         2.80966568        -23.0961361   
     18.0599995         2.97719359        -22.9321384   
     18.0699997         3.16764832        -22.7740479   
     18.0799999         3.38355184        -22.6253967   
     18.0900002         3.62717938        -22.4908962   
     18.1000004         3.90053201        -22.3765659   
     18.1099987         4.20455742        -22.2900810   
     18.1200008         4.53879309        -22.2408199   
     18.1299992         4.90002298        -22.2398376   
     18.1399994         5.28153849        -22.2992687   
     18.1499996         5.67147017        -22.4311066   
     18.1599998         6.05243683        -22.6451893   
     18.1700001         6.40120745        -22.9460449   
     18.1800003         6.69099665        -23.3300190   
     18.1899986         6.89495468        -23.7823925   
     18.2000008         6.99189138        -24.2779026   
     18.2099991         6.97125006        -24.7831974   
     18.2199993         6.83610964        -25.2633133   
     18.2299995         6.60235882        -25.6877060   
     18.2399998         6.29441786        -26.0355663   
     18.2500000         5.93996191        -26.2970943   
     18.2600002         5.56467533        -26.4726028   
     18.2699986         5.18966389        -26.5693283   
     18.2800007         4.82997370        -26.5983887   
     18.2900009         4.49537992        -26.5721245   
     18.2999992         4.19124079        -26.5023918   
     18.3100014         3.91960168        -26.3996525   
     18.3199997         3.68061352        -26.2727413   
     18.3299999         3.47302222        -26.1287804   
     18.3400002         3.29508233        -25.9735394   
     18.3500004         3.14464808        -25.8115177   
     18.3600006         3.01964498        -25.6464863   
     18.3700008         2.91796160        -25.4814243   
     18.3799992         2.83760977        -25.3190575   
     18.3900013         2.77653742        -25.1616974   
     18.3999996         2.73261189        -25.0115948   
     18.4099998         2.70340157        -24.8706894   
     18.4200001         2.68611073        -24.7406673   
     18.4300003         2.67751646        -24.6225624   
     18.4399986         2.67413545        -24.5165901   
     18.4500008         2.67256260        -24.4218121   
     18.4599991         2.67002368        -24.3362007   
     18.4700012         2.66492367        -24.2568989   
     18.4799995         2.65719485        -24.1809292   
     18.4899998         2.64819670        -24.1058941   
     18.5000000         2.64022350        -24.0307560   
     18.5100002         2.63574743        -23.9559860   
     18.5199986         2.63665128        -23.8835392   
     18.5300007         2.64361238        -23.8164062   
     18.5399990         2.65569735        -23.7580185   
     18.5499992         2.67022967        -23.7114620   
     18.5599995         2.68293667        -23.6787663   
     18.5699997         2.68849349        -23.6600227   
     18.5799999         2.68146181        -23.6529846   
     18.5900002         2.65747046        -23.6530552   
     18.5999985         2.61432385        -23.6540031   
     18.6100006         2.55252123        -23.6492214   
     18.6199989         2.47510719        -23.6330242   
     18.6299992         2.38673615        -23.6015568   
     18.6399994         2.29265714        -23.5532265   
     18.6499996         2.19765949        -23.4882450   
     18.6599998         2.10561824        -23.4081898   
     18.6700001         2.01926351        -23.3153076   
     18.6800003         1.94023597        -23.2119923   
     18.6900005         1.86939776        -23.1005402   
     18.7000008         1.80697155        -22.9828873   
     18.7099991         1.75284922        -22.8607006   
     18.7200012         1.70666504        -22.7352161   
     18.7299995         1.66798711        -22.6074390   
     18.7399998         1.63632774        -22.4780483   
     18.7500000         1.61123919        -22.3476219   
     18.7600002         1.59229267        -22.2164726   
     18.7700005         1.57912314        -22.0849133   
     18.7800007         1.57140231        -21.9530678   
     18.7899990         1.56885386        -21.8210487   
     18.8000011         1.57124293        -21.6888523   
     18.8099995         1.57838106        -21.5564384   
     18.8199997         1.59014630        -21.4236317   
     18.8299999         1.60650182        -21.2902660   
     18.8400002         1.62753725        -21.1560020   
     18.8500004         1.65347850        -21.0205879   
     18.8600006         1.68472147        -20.8836918   
     18.8699989         1.72179341        -20.7450924   
     18.8800011         1.76537573        -20.6045856   
     18.8899994         1.81623745        -20.4621506   
     18.8999996         1.87528443        -20.3177376   
     18.9099998         1.94350445        -20.1715202   
     18.9200001         2.02205467        -20.0236740   
     18.9299984         2.11219621        -19.8745861   
     18.9400005         2.21542907        -19.7247791   
     18.9499989         2.33339000        -19.5750408   
     18.9599991         2.46801209        -19.4264488   
     18.9699993         2.62137032        -19.2805500   
     18.9799995         2.79583788        -19.1394215   
     18.9899998         2.99383116        -19.0059681   
     19.0000000         3.21791101        -18.8839836   
     19.0099983         3.47032094        -18.7785702   
     19.0200005         3.75291467        -18.6962509   
     19.0300007         4.06633759        -18.6452847   
     19.0399990         4.40934277        -18.6357212   
     19.0500011         4.77793741        -18.6791840   
     19.0599995         5.16375637        -18.7881222   
     19.0699997         5.55337238        -18.9744396   
     19.0799999         5.92714787        -19.2468758   
     19.0900002         6.26029968        -19.6081772   
     19.1000004         6.52487850        -20.0515060   
     19.1100006         6.69467306        -20.5590019   
     19.1199989         6.75053453        -21.1019878   
     19.1300011         6.68541527        -21.6456947   
     19.1399994         6.50626040        -22.1549339   
     19.1499996         6.23200655        -22.6013222   
     19.1599998         5.88897657        -22.9665813   
     19.1700001         5.50488520        -23.2440453   
     19.1800003         5.10477257        -23.4362202   
     19.1900005         4.70804214        -23.5519505   
     19.1999989         4.32839537        -23.6030121   
     19.2100010         3.97396684        -23.6019650   
     19.2199993         3.64896941        -23.5604057   
     19.2299995         3.35447407        -23.4883881   
     19.2399998         3.08986688        -23.3942471   
     19.2500000         2.85325360        -23.2844830   
     19.2600002         2.64235830        -23.1642513   
     19.2700005         2.45456624        -23.0373344   
     19.2799988         2.28741264        -22.9066658   
     19.2900009         2.13846564        -22.7743015   
     19.2999992         2.00559735        -22.6418266   
     19.3099995         1.88681376        -22.5102615   
     19.3199997         1.78042817        -22.3804398   
     19.3299999         1.68489170        -22.2527924   
     19.3399982         1.59891272        -22.1277027   
     19.3500004         1.52131295        -22.0053272   
     19.3599987         1.45111990        -21.8858128   
     19.3700008         1.38744247        -21.7691441   
     19.3799992         1.32954919        -21.6553268   
     19.3899994         1.27676547        -21.5442829   
     19.4000015         1.22853303        -21.4359665   
     19.4099998         1.18436265        -21.3302727   
     19.4200001         1.14380538        -21.2270832   
     19.4300003         1.10649633        -21.1263294   
     19.4400005         1.07209039        -21.0278625   
     19.4499989         1.04030669        -20.9315987   
     19.4600010         1.01087809        -20.8374329   
     19.4699993        0.983586490        -20.7452507   
     19.4799995        0.958222747        -20.6549549   
     19.4899998        0.934616685        -20.5664673   
     19.5000000        0.912602425        -20.4796562   
     19.5100002        0.892046213        -20.3944855   
     19.5200005        0.872815907        -20.3108521   
     19.5299988        0.854804933        -20.2286739   
     19.5400009        0.837906599        -20.1478767   
     19.5499992        0.822036207        -20.0684013   
     19.5599995        0.807107329        -19.9901752   
     19.5699997        0.793051481        -19.9131527   
     19.5799999        0.779797554        -19.8372459   
     19.5900002        0.767290771        -19.7624416   
     19.6000004        0.755472064        -19.6886482   
     19.6099987        0.744296789        -19.6158409   
     19.6200008        0.733716667        -19.5439587   
     19.6299992        0.723693609        -19.4729786   
     19.6399994        0.714188337        -19.4028282   
     19.6499996        0.705170035        -19.3335171   
     19.6599998        0.696604729        -19.2649555   
     19.6700001        0.688467264        -19.1971436   
     19.6800003        0.680729151        -19.1300297   
     19.6899986        0.673368990        -19.0635948   
     19.7000008        0.666363597        -18.9978104   
     19.7099991        0.659694731        -18.9326439   
     19.7199993        0.653342545        -18.8680534   
     19.7299995        0.647291839        -18.8040409   
     19.7399998        0.641526103        -18.7405472   
     19.7500000        0.636032104        -18.6775818   
     19.7600002        0.630797148        -18.6151123   
     19.7700005        0.625808775        -18.5531063   
     19.7800007        0.621057212        -18.4915638   
     19.7900009        0.616531312        -18.4304466   
     19.7999992        0.612223983        -18.3697453   
     19.8100014        0.608124971        -18.3094254   
     19.8199997        0.604228616        -18.2494965   
     19.8299999        0.600527465        -18.1899166   
     19.8400002        0.597016752        -18.1306801   
     19.8500004        0.593689620        -18.0717697   
     19.8599987        0.590543151        -18.0131741   
     19.8700008        0.587572396        -17.9548607   
     19.8799992        0.584774971        -17.8968372   
     19.8900013        0.582147658        -17.8390636   
     19.8999996        0.579689145        -17.7815571   
     19.9099998        0.577397585        -17.7242756   
     19.9200001        0.575272977        -17.6672192   
     19.9300003        0.573314846        -17.6103611   
     19.9399986        0.571524858        -17.5537128   
     19.9500008        0.569903791        -17.4972286   
     19.9599991        0.568454921        -17.4409161   
     19.9699993        0.567180991        -17.3847580   
     19.9799995        0.566086590        -17.3287373   
     19.9899998        0.565177262        -17.2728310   
     20.0000000        0.564459622        -17.2170486   
# 
# 03/05/2021 at 17:13 yambo @ VivoBook [start]
# 03/05/2021 at 17:13                  [end]
#
# .-Input file  yambo.in
# | rim_cut                          # [R] Coulomb potential
# | optics                           # [R] Linear Response optical properties
# | dipoles                          # [R] Oscillator strenghts (or dipoles)
# | bse                              # [R][BSE] Bethe Salpeter Equation.
# | ElecTemp= 0.025861         eV    # Electronic Temperature
# | BoseTemp= 0.025861         eV    # Bosonic Temperature
# | DIP_Threads= 1                   # [OPENMP/X] Number of threads for dipoles
# | BS_nCPU_LinAlg_INV= 1            # [PARALLEL] CPUs for Linear Algebra (if -1 it is automatically set)
# | BS_nCPU_LinAlg_DIAGO= 1          # [PARALLEL] CPUs for Linear Algebra (if -1 it is automatically set)
# | X_Threads= 1                     # [OPENMP/X] Number of threads for response functions
# | K_Threads= 1                     # [OPENMP/BSK] Number of threads for response functions
# | RandQpts=0                       # [RIM] Number of random q-points in the BZ
# | RandGvec= 1                RL    # [RIM] Coulomb interaction RS components
# | CUTGeo= "ws xyz"                 # [CUT] Coulomb Cutoff geometry: box/cylinder/sphere/ws X/Y/Z/XY..
# | % CUTBox
# |  0.000000 | 0.000000 | 0.000000 |        # [CUT] [au] Box sides
# | %
# | CUTRadius= 0.000000              # [CUT] [au] Sphere/Cylinder radius
# | CUTCylLen= 0.000000              # [CUT] [au] Cylinder length
# | CUTwsGvec= 0.700000              # [CUT] WS cutoff: number of G to be modified
# | BSEmod= "retarded"               # [BSE] resonant/retarded/coupling
# | BSKmod= "IP"                     # [BSE] IP/Hartree/HF/ALDA/SEX/BSfxc
# | DipBandsALL                    # [DIP] Compute all bands range, not only valence and conduction
# | DipComputed= "R V P"             # [DIP] [default R P V; extra P2 Spin Orb]
# | BSENGexx= 20395            RL    # [BSK] Exchange components
# | BSEprop= "abs dichr"             # [BSS] abs/kerr/magn/dichr trace
# | % BSEQptR
# |  1 | 1 |                             # [BSK] Transferred momenta range
# | %
# | % BSEBands
# |   1 | 20 |                           # [BSK] Bands range
# | %
# | % BEnRange
# |   0.00000 | 20.00000 |         eV    # [BSS] Energy range
# | %
# | % BDmRange
# |  0.100000 | 0.100000 |         eV    # [BSS] Damping range
# | %
# | BEnSteps= 2001                   # [BSS] Energy steps
# | % BLongDir
# |  0.100000E-4 |  0.00000    |  0.00000    # [BSS] [cc] Electric Field
# | %
