#                                                                     
#  ____  ____     _       ____    ____  ______      ___               
# |_  _||_  _|   / \     |_   \  /   _||_   _ \   ."   `.             
#   \ \  / /    / _ \      |   \/   |    | |_) | /  .-.  \            
#    \ \/ /    / ___ \     | |\  /| |    |  __". | |   | |            
#    _|  |_  _/ /   \ \_  _| |_\/_| |_  _| |__) |\  `-"  /            
#   |______||____| |____||_____||_____||_______/  `.___."             
#                                                                     
#                                                                     
#                                                                     
# Version 5.1.0 Revision 22208 Hash (prev commit) a391fb0cb           
#                 Branch is phys/dichroism                            
#          MPI+OpenMP+SLK+SLEPC+HDF5_MPI_IO Build                     
#                http://www.yambo-code.org                            
#
# Dichroism @ Q(1):  0.999999975E-5   0.00000000      0.00000000    [q->0 direction]
#
# [GEN] GF Energies                               : Perdew, Burke & Ernzerhof(X)+Perdew, Burke & Ernzerhof(C)
# [GEN] Green`s Function                          : Retarded
#
# [GEN] Gauge                                     : Length
# [GEN] [r,Vnl] included                          : yes
#
# DIP band range                                  :   1  20
# DIP band range limits                           :  20   1
# DIP e/h energy range                            :  -1.00000000     -1.00000000    [eV]
# RL vectors in the sum                           :  2637
# [r,Vnl] included                                : yes
# Bands ordered                                   : no
# Direct v evaluation                             : no
# Approach used                                   : G-space v
# Dipoles computed                                : R V P
# Wavefunctions                                   : Perdew, Burke & Ernzerhof(X)+Perdew, Burke & Ernzerhof(C)
#
#
#    E[1] [eV]          Im(CD)             Re(CD)
#
        0.000000           0.530247E-7       -0.853365E-5
        0.010000           0.524010E-7       -0.853368E-5
        0.020000           0.517772E-7       -0.853377E-5
        0.030000           0.511531E-7       -0.853393E-5
        0.040000           0.505289E-7       -0.853415E-5
        0.050000           0.499045E-7       -0.853443E-5
        0.060000           0.492799E-7       -0.853477E-5
        0.070000           0.486551E-7       -0.853517E-5
        0.080000           0.480299E-7       -0.853564E-5
        0.090000           0.474043E-7       -0.853616E-5
        0.100000           0.467785E-7       -0.853675E-5
        0.110000           0.461523E-7       -0.853741E-5
        0.120000           0.455258E-7       -0.853813E-5
        0.130000           0.448988E-7       -0.853891E-5
        0.140000           0.442713E-7       -0.853975E-5
        0.150000           0.436433E-7       -0.854065E-5
        0.160000           0.430149E-7       -0.854162E-5
        0.170000           0.423859E-7       -0.854264E-5
        0.180000           0.417564E-7       -0.854374E-5
        0.190000           0.411263E-7       -0.854489E-5
        0.200000           0.404955E-7       -0.854611E-5
        0.210000           0.398641E-7       -0.854738E-5
        0.220000           0.392320E-7       -0.854873E-5
        0.230000           0.385993E-7       -0.855013E-5
        0.240000           0.379658E-7       -0.855160E-5
        0.250000           0.373316E-7       -0.855313E-5
        0.260000           0.366965E-7       -0.855473E-5
        0.270000           0.360607E-7       -0.855638E-5
        0.280000           0.354240E-7       -0.855811E-5
        0.290000           0.347864E-7       -0.855989E-5
        0.300000           0.341480E-7       -0.856174E-5
        0.310000           0.335085E-7       -0.856365E-5
        0.320000           0.328683E-7       -0.856562E-5
        0.330000           0.322269E-7       -0.856767E-5
        0.340000           0.315846E-7       -0.856977E-5
        0.350000           0.309413E-7       -0.857193E-5
        0.360000           0.302968E-7       -0.857416E-5
        0.370000           0.296513E-7       -0.857646E-5
        0.380000           0.290046E-7       -0.857882E-5
        0.390000           0.283568E-7       -0.858124E-5
        0.400000           0.277077E-7       -0.858373E-5
        0.410000           0.270575E-7       -0.858628E-5
        0.420000           0.264061E-7       -0.858889E-5
        0.430000           0.257533E-7       -0.859158E-5
        0.440000           0.250992E-7       -0.859432E-5
        0.450000           0.244438E-7       -0.859713E-5
        0.460000           0.237870E-7       -0.860000E-5
        0.470000           0.231289E-7       -0.860295E-5
        0.480000           0.224693E-7       -0.860595E-5
        0.490000           0.218082E-7       -0.860903E-5
        0.500000           0.211457E-7       -0.861216E-5
        0.510000           0.204817E-7       -0.861537E-5
        0.520000           0.198160E-7       -0.861863E-5
        0.530000           0.191488E-7       -0.862197E-5
        0.540000           0.184800E-7       -0.862537E-5
        0.550000           0.178096E-7       -0.862884E-5
        0.560000           0.171375E-7       -0.863237E-5
        0.570000           0.164636E-7       -0.863597E-5
        0.580000           0.157880E-7       -0.863964E-5
        0.590000           0.151107E-7       -0.864338E-5
        0.600000           0.144315E-7       -0.864718E-5
        0.610000           0.137505E-7       -0.865105E-5
        0.620000           0.130676E-7       -0.865498E-5
        0.630000           0.123829E-7       -0.865899E-5
        0.640000           0.116961E-7       -0.866306E-5
        0.650000           0.110074E-7       -0.866720E-5
        0.660000           0.103167E-7       -0.867141E-5
        0.670000           0.962393E-8       -0.867569E-5
        0.680000           0.892914E-8       -0.868003E-5
        0.690000           0.823222E-8       -0.868444E-5
        0.700000           0.753318E-8       -0.868893E-5
        0.710000           0.683195E-8       -0.869348E-5
        0.720000           0.612846E-8       -0.869810E-5
        0.730000           0.542280E-8       -0.870280E-5
        0.740000           0.471484E-8       -0.870756E-5
        0.750000           0.400451E-8       -0.871239E-5
        0.760000           0.329185E-8       -0.871728E-5
        0.770000           0.257680E-8       -0.872226E-5
        0.780000           0.185939E-8       -0.872730E-5
        0.790000           0.113941E-8       -0.873242E-5
        0.800000           0.41694E-09       -0.873760E-5
        0.810000          -0.30802E-09       -0.874286E-5
        0.820000          -0.103564E-8       -0.874819E-5
        0.830000          -0.176579E-8       -0.875359E-5
        0.840000          -0.249865E-8       -0.875906E-5
        0.850000          -0.323412E-8       -0.876460E-5
        0.860000          -0.397238E-8       -0.877022E-5
        0.870000          -0.471337E-8       -0.877591E-5
        0.880000          -0.545721E-8       -0.878168E-5
        0.890000          -0.620391E-8       -0.878752E-5
        0.900000          -0.695347E-8       -0.879343E-5
        0.910000          -0.770593E-8       -0.879941E-5
        0.920000          -0.846142E-8       -0.880547E-5
        0.930000          -0.921986E-8       -0.881161E-5
        0.940000          -0.998147E-8       -0.881782E-5
        0.950000          -0.107461E-7       -0.882410E-5
        0.960000          -0.115138E-7       -0.883046E-5
        0.970000          -0.122847E-7       -0.883690E-5
        0.980000          -0.130589E-7       -0.884340E-5
        0.990000          -0.138363E-7       -0.885000E-5
        1.000000          -0.146170E-7       -0.885666E-5
        1.010000          -0.154012E-7       -0.886341E-5
        1.020000          -0.161886E-7       -0.887022E-5
        1.030000          -0.169796E-7       -0.887712E-5
        1.040000          -0.177740E-7       -0.888410E-5
        1.050000          -0.185720E-7       -0.889116E-5
        1.060000          -0.193735E-7       -0.889829E-5
        1.070000          -0.201786E-7       -0.890550E-5
        1.080000          -0.209875E-7       -0.891280E-5
        1.090000          -0.218000E-7       -0.892016E-5
        1.100000          -0.226163E-7       -0.892762E-5
        1.110000          -0.234364E-7       -0.893515E-5
        1.120000          -0.242605E-7       -0.894276E-5
        1.130000          -0.250883E-7       -0.895046E-5
        1.140000          -0.259203E-7       -0.895824E-5
        1.150000          -0.267561E-7       -0.896609E-5
        1.160000          -0.275960E-7       -0.897404E-5
        1.170000          -0.284401E-7       -0.898206E-5
        1.180000          -0.292884E-7       -0.899017E-5
        1.190000          -0.301408E-7       -0.899836E-5
        1.200000          -0.309976E-7       -0.900663E-5
        1.210000          -0.318587E-7       -0.901499E-5
        1.220000          -0.327241E-7       -0.902344E-5
        1.230000          -0.335939E-7       -0.903197E-5
        1.240000          -0.344683E-7       -0.904058E-5
        1.250000          -0.353471E-7       -0.904928E-5
        1.260000          -0.362306E-7       -0.905807E-5
        1.270000          -0.371188E-7       -0.906695E-5
        1.280000          -0.380116E-7       -0.907592E-5
        1.290000          -0.389093E-7       -0.908496E-5
        1.300000          -0.398117E-7       -0.909410E-5
        1.310000          -0.407191E-7       -0.910333E-5
        1.320000          -0.416314E-7       -0.911265E-5
        1.330000          -0.425488E-7       -0.912206E-5
        1.340000          -0.434711E-7       -0.913156E-5
        1.350000          -0.443986E-7       -0.914115E-5
        1.360000          -0.453313E-7       -0.915083E-5
        1.370000          -0.462693E-7       -0.916060E-5
        1.380000          -0.472126E-7       -0.917047E-5
        1.390000          -0.481613E-7       -0.918043E-5
        1.400000          -0.491154E-7       -0.919048E-5
        1.410000          -0.500751E-7       -0.920063E-5
        1.420000          -0.510404E-7       -0.921087E-5
        1.430000          -0.520112E-7       -0.922121E-5
        1.440000          -0.529877E-7       -0.923164E-5
        1.450000          -0.539702E-7       -0.924217E-5
        1.460000          -0.549584E-7       -0.925280E-5
        1.470000          -0.559525E-7       -0.926352E-5
        1.480000          -0.569527E-7       -0.927434E-5
        1.490000          -0.579590E-7       -0.928526E-5
        1.500000          -0.589713E-7       -0.929628E-5
        1.510000          -0.599899E-7       -0.930739E-5
        1.520000          -0.610148E-7       -0.931861E-5
        1.530000          -0.620461E-7       -0.932993E-5
        1.540000          -0.630838E-7       -0.934136E-5
        1.550000          -0.641281E-7       -0.935288E-5
        1.560000          -0.651789E-7       -0.936451E-5
        1.570000          -0.662364E-7       -0.937624E-5
        1.580000          -0.673007E-7       -0.938807E-5
        1.590000          -0.683718E-7       -0.940001E-5
        1.600000          -0.694498E-7       -0.941206E-5
        1.610000          -0.705349E-7       -0.942421E-5
        1.620000          -0.716271E-7       -0.943647E-5
        1.630000          -0.727263E-7       -0.944883E-5
        1.640000          -0.738330E-7       -0.946131E-5
        1.650000          -0.749468E-7       -0.947389E-5
        1.660000          -0.760682E-7       -0.948659E-5
        1.670000          -0.771971E-7       -0.949939E-5
        1.680000          -0.783337E-7       -0.951231E-5
        1.690000          -0.794779E-7       -0.952533E-5
        1.700000          -0.806300E-7       -0.953847E-5
        1.710000          -0.817898E-7       -0.955172E-5
        1.720000          -0.829578E-7       -0.956509E-5
        1.730000          -0.841338E-7       -0.957858E-5
        1.740000          -0.853180E-7       -0.959218E-5
        1.750000          -0.865106E-7       -0.960589E-5
        1.760000          -0.877115E-7       -0.961973E-5
        1.770000          -0.889208E-7       -0.963368E-5
        1.780000          -0.901388E-7       -0.964775E-5
        1.790000          -0.913655E-7       -0.966194E-5
        1.800000          -0.926010E-7       -0.967626E-5
        1.810000          -0.938454E-7       -0.969069E-5
        1.820000          -0.950988E-7       -0.970524E-5
        1.830000          -0.963614E-7       -0.971993E-5
        1.840000          -0.976332E-7       -0.973474E-5
        1.850000          -0.989144E-7       -0.974967E-5
        1.860000          -0.100205E-6       -0.976472E-5
        1.870000          -0.101505E-6       -0.977990E-5
        1.880000          -0.102815E-6       -0.979522E-5
        1.890000          -0.104135E-6       -0.981066E-5
        1.900000          -0.105465E-6       -0.982623E-5
        1.910000          -0.106804E-6       -0.984193E-5
        1.920000          -0.108154E-6       -0.985777E-5
        1.930000          -0.109515E-6       -0.987374E-5
        1.940000          -0.110885E-6       -0.988984E-5
        1.950000          -0.112267E-6       -0.990608E-5
        1.960000          -0.113659E-6       -0.992246E-5
        1.970000          -0.115061E-6       -0.993897E-5
        1.980000          -0.116475E-6       -0.995562E-5
        1.990000          -0.117900E-6       -0.997240E-5
        2.000000          -0.119336E-6       -0.998934E-5
        2.010000          -0.120784E-6       -0.100064E-4
        2.020000          -0.122243E-6       -0.100236E-4
        2.030000          -0.123714E-6       -0.100410E-4
        2.040000          -0.125197E-6       -0.100585E-4
        2.050000          -0.126691E-6       -0.100761E-4
        2.060000          -0.128198E-6       -0.100939E-4
        2.070000          -0.129717E-6       -0.101119E-4
        2.080000          -0.131249E-6       -0.101300E-4
        2.090000          -0.132793E-6       -0.101482E-4
        2.100000          -0.134349E-6       -0.101666E-4
        2.110000          -0.135919E-6       -0.101852E-4
        2.120000          -0.137502E-6       -0.102039E-4
        2.130000          -0.139098E-6       -0.102227E-4
        2.140000          -0.140708E-6       -0.102418E-4
        2.150000          -0.142331E-6       -0.102610E-4
        2.160000          -0.143968E-6       -0.102803E-4
        2.170000          -0.145619E-6       -0.102998E-4
        2.180000          -0.147284E-6       -0.103195E-4
        2.190000          -0.148963E-6       -0.103393E-4
        2.200000          -0.150657E-6       -0.103593E-4
        2.210000          -0.152365E-6       -0.103795E-4
        2.220000          -0.154089E-6       -0.103998E-4
        2.230000          -0.155827E-6       -0.104203E-4
        2.240000          -0.157581E-6       -0.104410E-4
        2.250000          -0.159350E-6       -0.104618E-4
        2.260000          -0.161135E-6       -0.104828E-4
        2.270000          -0.162936E-6       -0.105040E-4
        2.280000          -0.164753E-6       -0.105254E-4
        2.290000          -0.166586E-6       -0.105470E-4
        2.300000          -0.168436E-6       -0.105687E-4
        2.310000          -0.170302E-6       -0.105906E-4
        2.320000          -0.172186E-6       -0.106127E-4
        2.330000          -0.174086E-6       -0.106350E-4
        2.340000          -0.176004E-6       -0.106575E-4
        2.350000          -0.177940E-6       -0.106802E-4
        2.360000          -0.179894E-6       -0.107030E-4
        2.370000          -0.181866E-6       -0.107261E-4
        2.380000          -0.183856E-6       -0.107493E-4
        2.390000          -0.185865E-6       -0.107728E-4
        2.400000          -0.187892E-6       -0.107964E-4
        2.410000          -0.189939E-6       -0.108203E-4
        2.420000          -0.192006E-6       -0.108443E-4
        2.430000          -0.194092E-6       -0.108686E-4
        2.440000          -0.196198E-6       -0.108930E-4
        2.450000          -0.198324E-6       -0.109177E-4
        2.460000          -0.200470E-6       -0.109426E-4
        2.470000          -0.202638E-6       -0.109677E-4
        2.480000          -0.204827E-6       -0.109930E-4
        2.490000          -0.207037E-6       -0.110185E-4
        2.500000          -0.209268E-6       -0.110442E-4
        2.510000          -0.211522E-6       -0.110702E-4
        2.520000          -0.213798E-6       -0.110964E-4
        2.530000          -0.216097E-6       -0.111228E-4
        2.540000          -0.218418E-6       -0.111494E-4
        2.550000          -0.220763E-6       -0.111763E-4
        2.560000          -0.223131E-6       -0.112034E-4
        2.570000          -0.225524E-6       -0.112307E-4
        2.580000          -0.227940E-6       -0.112583E-4
        2.590000          -0.230381E-6       -0.112861E-4
        2.600000          -0.232848E-6       -0.113141E-4
        2.610000          -0.235339E-6       -0.113424E-4
        2.620000          -0.237857E-6       -0.113710E-4
        2.630000          -0.240400E-6       -0.113998E-4
        2.640000          -0.242970E-6       -0.114288E-4
        2.650000          -0.245566E-6       -0.114581E-4
        2.660000          -0.248190E-6       -0.114876E-4
        2.670000          -0.250842E-6       -0.115175E-4
        2.680000          -0.253521E-6       -0.115475E-4
        2.690000          -0.256230E-6       -0.115779E-4
        2.700000          -0.258967E-6       -0.116085E-4
        2.710000          -0.261733E-6       -0.116394E-4
        2.720000          -0.264529E-6       -0.116705E-4
        2.730000          -0.267355E-6       -0.117020E-4
        2.740000          -0.270212E-6       -0.117337E-4
        2.750000          -0.273100E-6       -0.117657E-4
        2.760000          -0.276020E-6       -0.117980E-4
        2.770000          -0.278972E-6       -0.118305E-4
        2.780000          -0.281956E-6       -0.118634E-4
        2.790000          -0.284974E-6       -0.118966E-4
        2.800000          -0.288025E-6       -0.119300E-4
        2.810000          -0.291110E-6       -0.119638E-4
        2.820000          -0.294230E-6       -0.119979E-4
        2.830000          -0.297385E-6       -0.120322E-4
        2.840000          -0.300576E-6       -0.120669E-4
        2.850000          -0.303803E-6       -0.121019E-4
        2.860000          -0.307067E-6       -0.121373E-4
        2.870000          -0.310368E-6       -0.121729E-4
        2.880000          -0.313707E-6       -0.122089E-4
        2.890000          -0.317085E-6       -0.122452E-4
        2.900000          -0.320502E-6       -0.122819E-4
        2.910000          -0.323959E-6       -0.123189E-4
        2.920000          -0.327457E-6       -0.123562E-4
        2.930000          -0.330995E-6       -0.123939E-4
        2.940000          -0.334576E-6       -0.124319E-4
        2.950000          -0.338199E-6       -0.124703E-4
        2.960000          -0.341865E-6       -0.125090E-4
        2.970000          -0.345575E-6       -0.125481E-4
        2.980000          -0.349330E-6       -0.125876E-4
        2.990000          -0.353130E-6       -0.126275E-4
        3.000000          -0.356976E-6       -0.126677E-4
        3.010000          -0.360869E-6       -0.127083E-4
        3.020000          -0.364810E-6       -0.127493E-4
        3.030000          -0.368799E-6       -0.127907E-4
        3.040000          -0.372837E-6       -0.128325E-4
        3.050000          -0.376925E-6       -0.128747E-4
        3.060000          -0.381065E-6       -0.129173E-4
        3.070000          -0.385256E-6       -0.129603E-4
        3.080000          -0.389500E-6       -0.130037E-4
        3.090000          -0.393797E-6       -0.130475E-4
        3.100000          -0.398149E-6       -0.130918E-4
        3.110000          -0.402556E-6       -0.131365E-4
        3.120000          -0.407019E-6       -0.131816E-4
        3.130000          -0.411540E-6       -0.132272E-4
        3.140000          -0.416120E-6       -0.132733E-4
        3.150000          -0.420758E-6       -0.133197E-4
        3.160000          -0.425458E-6       -0.133667E-4
        3.170000          -0.430218E-6       -0.134141E-4
        3.180000          -0.435041E-6       -0.134620E-4
        3.190000          -0.439928E-6       -0.135104E-4
        3.200000          -0.444879E-6       -0.135593E-4
        3.210000          -0.449897E-6       -0.136086E-4
        3.220000          -0.454982E-6       -0.136585E-4
        3.230000          -0.460135E-6       -0.137088E-4
        3.240000          -0.465358E-6       -0.137597E-4
        3.250000          -0.470652E-6       -0.138111E-4
        3.260000          -0.476017E-6       -0.138630E-4
        3.270000          -0.481457E-6       -0.139155E-4
        3.280000          -0.486971E-6       -0.139684E-4
        3.290000          -0.492561E-6       -0.140220E-4
        3.300000          -0.498229E-6       -0.140761E-4
        3.310000          -0.503977E-6       -0.141308E-4
        3.320000          -0.509804E-6       -0.141860E-4
        3.330000          -0.515714E-6       -0.142418E-4
        3.340000          -0.521708E-6       -0.142982E-4
        3.350000          -0.527787E-6       -0.143552E-4
        3.360000          -0.533953E-6       -0.144128E-4
        3.370000          -0.540207E-6       -0.144710E-4
        3.380000          -0.546552E-6       -0.145299E-4
        3.390000          -0.552989E-6       -0.145894E-4
        3.400000          -0.559519E-6       -0.146495E-4
        3.410000          -0.566146E-6       -0.147103E-4
        3.420000          -0.572869E-6       -0.147717E-4
        3.430000          -0.579693E-6       -0.148338E-4
        3.440000          -0.586617E-6       -0.148966E-4
        3.450000          -0.593645E-6       -0.149600E-4
        3.460000          -0.600779E-6       -0.150242E-4
        3.470000          -0.608020E-6       -0.150891E-4
        3.480000          -0.615371E-6       -0.151547E-4
        3.490000          -0.622834E-6       -0.152210E-4
        3.500000          -0.630411E-6       -0.152881E-4
        3.510000          -0.638105E-6       -0.153559E-4
        3.520000          -0.645918E-6       -0.154245E-4
        3.530000          -0.653852E-6       -0.154939E-4
        3.540000          -0.661911E-6       -0.155641E-4
        3.550000          -0.670096E-6       -0.156351E-4
        3.560000          -0.678410E-6       -0.157069E-4
        3.570000          -0.686857E-6       -0.157795E-4
        3.580000          -0.695438E-6       -0.158530E-4
        3.590000          -0.704157E-6       -0.159273E-4
        3.600000          -0.713017E-6       -0.160025E-4
        3.610000          -0.722019E-6       -0.160785E-4
        3.620000          -0.731169E-6       -0.161555E-4
        3.630000          -0.740469E-6       -0.162334E-4
        3.640000          -0.749922E-6       -0.163122E-4
        3.650000          -0.759531E-6       -0.163920E-4
        3.660000          -0.769301E-6       -0.164727E-4
        3.670000          -0.779234E-6       -0.165543E-4
        3.680000          -0.789334E-6       -0.166370E-4
        3.690000          -0.799605E-6       -0.167207E-4
        3.700000          -0.810052E-6       -0.168054E-4
        3.710000          -0.820676E-6       -0.168912E-4
        3.720000          -0.831484E-6       -0.169780E-4
        3.730000          -0.842478E-6       -0.170659E-4
        3.740000          -0.853664E-6       -0.171549E-4
        3.750000          -0.865046E-6       -0.172450E-4
        3.760000          -0.876628E-6       -0.173362E-4
        3.770000          -0.888415E-6       -0.174286E-4
        3.780000          -0.900411E-6       -0.175222E-4
        3.790000          -0.912623E-6       -0.176169E-4
        3.800000          -0.925055E-6       -0.177129E-4
        3.810000          -0.937711E-6       -0.178101E-4
        3.820000          -0.950597E-6       -0.179086E-4
        3.830000          -0.963721E-6       -0.180084E-4
        3.840000          -0.977086E-6       -0.181095E-4
        3.850000          -0.990698E-6       -0.182119E-4
        3.860000          -0.100456E-5       -0.183156E-4
        3.870000          -0.101869E-5       -0.184208E-4
        3.880000          -0.103309E-5       -0.185273E-4
        3.890000          -0.104775E-5       -0.186353E-4
        3.900000          -0.106270E-5       -0.187448E-4
        3.910000          -0.107793E-5       -0.188557E-4
        3.920000          -0.109346E-5       -0.189682E-4
        3.930000          -0.110929E-5       -0.190822E-4
        3.940000          -0.112543E-5       -0.191978E-4
        3.950000          -0.114189E-5       -0.193150E-4
        3.960000          -0.115868E-5       -0.194339E-4
        3.970000          -0.117580E-5       -0.195544E-4
        3.980000          -0.119326E-5       -0.196766E-4
        3.990000          -0.121108E-5       -0.198006E-4
        4.000000          -0.122926E-5       -0.199263E-4
        4.010000          -0.124781E-5       -0.200539E-4
        4.020000          -0.126674E-5       -0.201833E-4
        4.030000          -0.128607E-5       -0.203146E-4
        4.040000          -0.130580E-5       -0.204478E-4
        4.050000          -0.132595E-5       -0.205829E-4
        4.060000          -0.134652E-5       -0.207201E-4
        4.070000          -0.136753E-5       -0.208593E-4
        4.080000          -0.138899E-5       -0.210007E-4
        4.090000          -0.141091E-5       -0.211441E-4
        4.100000          -0.143331E-5       -0.212898E-4
        4.110000          -0.145620E-5       -0.214376E-4
        4.120000          -0.147959E-5       -0.215878E-4
        4.130000          -0.150350E-5       -0.217403E-4
        4.140000          -0.152795E-5       -0.218951E-4
        4.150000          -0.155295E-5       -0.220524E-4
        4.160000          -0.157852E-5       -0.222122E-4
        4.170000          -0.160466E-5       -0.223745E-4
        4.180000          -0.163141E-5       -0.225394E-4
        4.190000          -0.165878E-5       -0.227070E-4
        4.200000          -0.168679E-5       -0.228773E-4
        4.210000          -0.171546E-5       -0.230504E-4
        4.220000          -0.174480E-5       -0.232263E-4
        4.230000          -0.177485E-5       -0.234051E-4
        4.240000          -0.180562E-5       -0.235870E-4
        4.250000          -0.183713E-5       -0.237718E-4
        4.260000          -0.186941E-5       -0.239598E-4
        4.270000          -0.190249E-5       -0.241511E-4
        4.280000          -0.193638E-5       -0.243455E-4
        4.290000          -0.197113E-5       -0.245434E-4
        4.300000          -0.200675E-5       -0.247447E-4
        4.310000          -0.204327E-5       -0.249495E-4
        4.320000          -0.208073E-5       -0.251580E-4
        4.330000          -0.211915E-5       -0.253701E-4
        4.340000          -0.215857E-5       -0.255861E-4
        4.350000          -0.219902E-5       -0.258059E-4
        4.360000          -0.224055E-5       -0.260298E-4
        4.370000          -0.228318E-5       -0.262578E-4
        4.380000          -0.232695E-5       -0.264900E-4
        4.390000          -0.237192E-5       -0.267265E-4
        4.400000          -0.241811E-5       -0.269674E-4
        4.410000          -0.246557E-5       -0.272129E-4
        4.420000          -0.251436E-5       -0.274632E-4
        4.430000          -0.256451E-5       -0.277182E-4
        4.440000          -0.261609E-5       -0.279782E-4
        4.450000          -0.266913E-5       -0.282432E-4
        4.460000          -0.272371E-5       -0.285135E-4
        4.470000          -0.277987E-5       -0.287891E-4
        4.480000          -0.283768E-5       -0.290703E-4
        4.490000          -0.289720E-5       -0.293572E-4
        4.500000          -0.295850E-5       -0.296499E-4
        4.510000          -0.302165E-5       -0.299486E-4
        4.520000          -0.308673E-5       -0.302536E-4
        4.530000          -0.315380E-5       -0.305649E-4
        4.540000          -0.322296E-5       -0.308828E-4
        4.550000          -0.329428E-5       -0.312075E-4
        4.560000          -0.336787E-5       -0.315392E-4
        4.570000          -0.344380E-5       -0.318780E-4
        4.580000          -0.352219E-5       -0.322243E-4
        4.590000          -0.360313E-5       -0.325783E-4
        4.600000          -0.368675E-5       -0.329401E-4
        4.610000          -0.377315E-5       -0.333101E-4
        4.620000          -0.386246E-5       -0.336886E-4
        4.630000          -0.395480E-5       -0.340757E-4
        4.640000          -0.405032E-5       -0.344718E-4
        4.650000          -0.414916E-5       -0.348772E-4
        4.660000          -0.425147E-5       -0.352922E-4
        4.670000          -0.435742E-5       -0.357172E-4
        4.680000          -0.446717E-5       -0.361523E-4
        4.690000          -0.458091E-5       -0.365981E-4
        4.700000          -0.469882E-5       -0.370549E-4
        4.710000          -0.482112E-5       -0.375231E-4
        4.720000          -0.494801E-5       -0.380031E-4
        4.730000          -0.507974E-5       -0.384953E-4
        4.740000          -0.521653E-5       -0.390001E-4
        4.750000          -0.535865E-5       -0.395181E-4
        4.760000          -0.550638E-5       -0.400497E-4
        4.770000          -0.566001E-5       -0.405954E-4
        4.780000          -0.581986E-5       -0.411558E-4
        4.790000          -0.598624E-5       -0.417315E-4
        4.800000          -0.615953E-5       -0.423230E-4
        4.810000          -0.634010E-5       -0.429310E-4
        4.820000          -0.652836E-5       -0.435560E-4
        4.830000          -0.672474E-5       -0.441989E-4
        4.840000          -0.692971E-5       -0.448604E-4
        4.850000          -0.714377E-5       -0.455412E-4
        4.860000          -0.736746E-5       -0.462420E-4
        4.870000          -0.760133E-5       -0.469639E-4
        4.880000          -0.784602E-5       -0.477076E-4
        4.890000          -0.810219E-5       -0.484741E-4
        4.900000          -0.837055E-5       -0.492644E-4
        4.910000          -0.865188E-5       -0.500796E-4
        4.920000          -0.894701E-5       -0.509208E-4
        4.930000          -0.925683E-5       -0.517892E-4
        4.940000          -0.958232E-5       -0.526859E-4
        4.950000          -0.992454E-5       -0.536125E-4
        4.960000          -0.102846E-4       -0.545702E-4
        4.970000          -0.106638E-4       -0.555605E-4
        4.980000          -0.110635E-4       -0.565850E-4
        4.990000          -0.114850E-4       -0.576454E-4
        5.000000          -0.119301E-4       -0.587434E-4
        5.010000          -0.124004E-4       -0.598811E-4
        5.020000          -0.128979E-4       -0.610602E-4
        5.030000          -0.134247E-4       -0.622831E-4
        5.040000          -0.139830E-4       -0.635519E-4
        5.050000          -0.145753E-4       -0.648691E-4
        5.060000          -0.152044E-4       -0.662371E-4
        5.070000          -0.158734E-4       -0.676589E-4
        5.080000          -0.165855E-4       -0.691372E-4
        5.090000          -0.173446E-4       -0.706752E-4
        5.100000          -0.181546E-4       -0.722761E-4
        5.110000          -0.190201E-4       -0.739436E-4
        5.120000          -0.199462E-4       -0.756812E-4
        5.130000          -0.209385E-4       -0.774929E-4
        5.140000          -0.220032E-4       -0.793831E-4
        5.150000          -0.231474E-4       -0.813561E-4
        5.160000          -0.243788E-4       -0.834167E-4
        5.170000          -0.257063E-4       -0.855698E-4
        5.180000          -0.271398E-4       -0.878208E-4
        5.190000          -0.286903E-4       -0.901750E-4
        5.200000          -0.303706E-4       -0.926384E-4
        5.210000          -0.321948E-4       -0.952168E-4
        5.220000          -0.341792E-4       -0.979164E-4
        5.230000          -0.363420E-4       -0.100743E-3
        5.240000          -0.387043E-4       -0.103704E-3
        5.250000          -0.412899E-4       -0.106803E-3
        5.260000          -0.441263E-4       -0.110048E-3
        5.270000          -0.472449E-4       -0.113443E-3
        5.280000          -0.506818E-4       -0.116991E-3
        5.290000          -0.544784E-4       -0.120696E-3
        5.300000          -0.586825E-4       -0.124555E-3
        5.310000          -0.633493E-4       -0.128567E-3
        5.320000          -0.685423E-4       -0.132722E-3
        5.330000          -0.743344E-4       -0.137005E-3
        5.340000          -0.808096E-4       -0.141392E-3
        5.350000          -0.880640E-4       -0.145846E-3
        5.360000          -0.962065E-4       -0.150314E-3
        5.370000          -0.105360E-3       -0.154720E-3
        5.380000          -0.115660E-3       -0.158959E-3
        5.390000          -0.127254E-3       -0.162884E-3
        5.400000          -0.140295E-3       -0.166300E-3
        5.410000          -0.154932E-3       -0.168946E-3
        5.420000          -0.171296E-3       -0.170478E-3
        5.430000          -0.189472E-3       -0.170462E-3
        5.440000          -0.209459E-3       -0.168351E-3
        5.450000          -0.231120E-3       -0.163500E-3
        5.460000          -0.254110E-3       -0.155179E-3
        5.470000          -0.277804E-3       -0.142642E-3
        5.480000          -0.301235E-3       -0.125237E-3
        5.490000          -0.323081E-3       -0.102573E-3
        5.500000          -0.341749E-3       -0.747199E-4
        5.510000          -0.355574E-3       -0.423709E-4
        5.520000          -0.363134E-3       -0.690018E-5
        5.530000          -0.363578E-3        0.297750E-4
        5.540000          -0.356858E-3        0.655136E-4
        5.550000          -0.343734E-3        0.983533E-4
        5.560000          -0.325578E-3        0.126847E-3
        5.570000          -0.304039E-3        0.150218E-3
        5.580000          -0.280728E-3        0.168334E-3
        5.590000          -0.257004E-3        0.181535E-3
        5.600000          -0.233873E-3        0.190451E-3
        5.610000          -0.211998E-3        0.195821E-3
        5.620000          -0.191754E-3        0.198375E-3
        5.630000          -0.173300E-3        0.198772E-3
        5.640000          -0.156649E-3        0.197566E-3
        5.650000          -0.141728E-3        0.195206E-3
        5.660000          -0.128410E-3        0.192043E-3
        5.670000          -0.116547E-3        0.188347E-3
        5.680000          -0.105989E-3        0.184322E-3
        5.690000          -0.965871E-4        0.180119E-3
        5.700000          -0.882047E-4        0.175849E-3
        5.710000          -0.807179E-4        0.171590E-3
        5.720000          -0.740160E-4        0.167399E-3
        5.730000          -0.680015E-4        0.163316E-3
        5.740000          -0.625887E-4        0.159367E-3
        5.750000          -0.577031E-4        0.155568E-3
        5.760000          -0.532793E-4        0.151930E-3
        5.770000          -0.492611E-4        0.148456E-3
        5.780000          -0.455989E-4        0.145150E-3
        5.790000          -0.422496E-4        0.142009E-3
        5.800000          -0.391754E-4        0.139030E-3
        5.810000          -0.363433E-4        0.136210E-3
        5.820000          -0.337240E-4        0.133544E-3
        5.830000          -0.312916E-4        0.131026E-3
        5.840000          -0.290230E-4        0.128651E-3
        5.850000          -0.268975E-4        0.126414E-3
        5.860000          -0.248963E-4        0.124308E-3
        5.870000          -0.230024E-4        0.122330E-3
        5.880000          -0.211998E-4        0.120473E-3
        5.890000          -0.194738E-4        0.118731E-3
        5.900000          -0.178102E-4        0.117101E-3
        5.910000          -0.161954E-4        0.115577E-3
        5.920000          -0.146163E-4        0.114154E-3
        5.930000          -0.130596E-4        0.112825E-3
        5.940000          -0.115120E-4        0.111586E-3
        5.950000          -0.995951E-5        0.110429E-3
        5.960000          -0.838817E-5        0.109347E-3
        5.970000          -0.678301E-5        0.108331E-3
        5.980000          -0.512845E-5        0.107368E-3
        5.990000          -0.340831E-5        0.106444E-3
        6.000000          -0.160608E-5        0.105541E-3
        6.010000           0.294384E-6        0.104637E-3
        6.020000           0.230782E-5        0.103700E-3
        6.030000           0.444551E-5        0.102694E-3
        6.040000           0.671245E-5        0.101573E-3
        6.050000           0.910310E-5        0.100281E-3
        6.060000           0.115959E-4        0.987566E-4
        6.070000           0.141470E-4        0.969323E-4
        6.080000           0.166841E-4        0.947467E-4
        6.090000           0.191040E-4        0.921557E-4
        6.100000           0.212764E-4        0.891491E-4
        6.110000           0.230575E-4        0.857674E-4
        6.120000           0.243148E-4        0.821102E-4
        6.130000           0.249563E-4        0.783301E-4
        6.140000           0.249549E-4        0.746108E-4
        6.150000           0.243561E-4        0.711317E-4
        6.160000           0.232664E-4        0.680360E-4
        6.170000           0.218270E-4        0.654108E-4
        6.180000           0.201841E-4        0.632845E-4
        6.190000           0.184665E-4        0.616379E-4
        6.200000           0.167743E-4        0.604216E-4
        6.210000           0.151759E-4        0.595718E-4
        6.220000           0.137126E-4        0.590226E-4
        6.230000           0.124046E-4        0.587135E-4
        6.240000           0.112574E-4        0.585924E-4
        6.250000           0.102671E-4        0.586169E-4
        6.260000           0.942475E-5        0.587536E-4
        6.270000           0.871855E-5        0.589769E-4
        6.280000           0.813617E-5        0.592674E-4
        6.290000           0.766547E-5        0.596110E-4
        6.300000           0.729525E-5        0.599976E-4
        6.310000           0.701550E-5        0.604199E-4
        6.320000           0.681748E-5        0.608732E-4
        6.330000           0.669375E-5        0.613545E-4
        6.340000           0.663810E-5        0.618621E-4
        6.350000           0.664545E-5        0.623952E-4
        6.360000           0.671176E-5        0.629539E-4
        6.370000           0.683396E-5        0.635389E-4
        6.380000           0.700985E-5        0.641514E-4
        6.390000           0.723807E-5        0.647929E-4
        6.400000           0.751801E-5        0.654651E-4
        6.410000           0.784979E-5        0.661701E-4
        6.420000           0.823426E-5        0.669101E-4
        6.430000           0.867300E-5        0.676875E-4
        6.440000           0.916828E-5        0.685049E-4
        6.450000           0.972316E-5        0.693651E-4
        6.460000           0.103415E-4        0.702708E-4
        6.470000           0.110280E-4        0.712250E-4
        6.480000           0.117884E-4        0.722306E-4
        6.490000           0.126294E-4        0.732908E-4
        6.500000           0.135589E-4        0.744085E-4
        6.510000           0.145863E-4        0.755868E-4
        6.520000           0.157223E-4        0.768285E-4
        6.530000           0.169795E-4        0.781361E-4
        6.540000           0.183727E-4        0.795117E-4
        6.550000           0.199188E-4        0.809569E-4
        6.560000           0.216375E-4        0.824719E-4
        6.570000           0.235517E-4        0.840561E-4
        6.580000           0.256880E-4        0.857062E-4
        6.590000           0.280769E-4        0.874168E-4
        6.600000           0.307538E-4        0.891784E-4
        6.610000           0.337593E-4        0.909762E-4
        6.620000           0.371395E-4        0.927886E-4
        6.630000           0.409466E-4        0.945846E-4
        6.640000           0.452384E-4        0.963202E-4
        6.650000           0.500778E-4        0.979350E-4
        6.660000           0.555302E-4        0.993469E-4
        6.670000           0.616601E-4        0.100446E-3
        6.680000           0.685240E-4        0.101088E-3
        6.690000           0.761582E-4        0.101088E-3
        6.700000           0.845641E-4        0.100217E-3
        6.710000           0.936838E-4        0.981987E-4
        6.720000           0.103371E-3        0.947266E-4
        6.730000           0.113361E-3        0.894858E-4
        6.740000           0.123243E-3        0.822036E-4
        6.750000           0.132458E-3        0.727204E-4
        6.760000           0.140338E-3        0.610730E-4
        6.770000           0.146190E-3        0.475621E-4
        6.780000           0.149427E-3        0.327708E-4
        6.790000           0.149711E-3        0.175023E-4
        6.800000           0.147036E-3        0.264346E-5
        6.810000           0.141730E-3       -0.110025E-4
        6.820000           0.134365E-3       -0.228489E-4
        6.830000           0.125621E-3       -0.325887E-4
        6.840000           0.116157E-3       -0.401741E-4
        6.850000           0.106522E-3       -0.457500E-4
        6.860000           0.971242E-4       -0.495738E-4
        6.870000           0.882322E-4       -0.519460E-4
        6.880000           0.799971E-4       -0.531632E-4
        6.890000           0.724841E-4       -0.534913E-4
        6.900000           0.656999E-4       -0.531549E-4
        6.910000           0.596153E-4       -0.523358E-4
        6.920000           0.541807E-4       -0.511767E-4
        6.930000           0.493378E-4       -0.497877E-4
        6.940000           0.450256E-4       -0.482519E-4
        6.950000           0.411856E-4       -0.466310E-4
        6.960000           0.377628E-4       -0.449707E-4
        6.970000           0.347075E-4       -0.433038E-4
        6.980000           0.319754E-4       -0.416539E-4
        6.990000           0.295273E-4       -0.400374E-4
        7.000000           0.273287E-4       -0.384654E-4
        7.010000           0.253496E-4       -0.369451E-4
        7.020000           0.235640E-4       -0.354808E-4
        7.030000           0.219491E-4       -0.340749E-4
        7.039999           0.204851E-4       -0.327281E-4
        7.050000           0.191548E-4       -0.314400E-4
        7.059999           0.179433E-4       -0.302096E-4
        7.070000           0.168375E-4       -0.290353E-4
        7.079999           0.158260E-4       -0.279151E-4
        7.090000           0.148988E-4       -0.268469E-4
        7.099999           0.140471E-4       -0.258283E-4
        7.110000           0.132634E-4       -0.248572E-4
        7.119999           0.125407E-4       -0.239312E-4
        7.130000           0.118731E-4       -0.230479E-4
        7.140000           0.112553E-4       -0.222053E-4
        7.150000           0.106828E-4       -0.214011E-4
        7.160000           0.101512E-4       -0.206334E-4
        7.170000           0.965687E-5       -0.199003E-4
        7.180000           0.919653E-5       -0.191997E-4
        7.190000           0.876721E-5       -0.185301E-4
        7.200000           0.836624E-5       -0.178897E-4
        7.210000           0.799126E-5       -0.172769E-4
        7.220000           0.764013E-5       -0.166904E-4
        7.230000           0.731091E-5       -0.161287E-4
        7.240000           0.700187E-5       -0.155906E-4
        7.250000           0.671144E-5       -0.150747E-4
        7.260000           0.643819E-5       -0.145799E-4
        7.270000           0.618082E-5       -0.141052E-4
        7.280000           0.593817E-5       -0.136495E-4
        7.290000           0.570915E-5       -0.132119E-4
        7.300000           0.549278E-5       -0.127915E-4
        7.310000           0.528820E-5       -0.123873E-4
        7.320000           0.509456E-5       -0.119987E-4
        7.330000           0.491113E-5       -0.116249E-4
        7.340000           0.473721E-5       -0.112651E-4
        7.350000           0.457219E-5       -0.109186E-4
        7.360000           0.441547E-5       -0.105849E-4
        7.370000           0.426654E-5       -0.102634E-4
        7.380000           0.412489E-5       -0.995352E-5
        7.390000           0.399007E-5       -0.965466E-5
        7.400000           0.386166E-5       -0.936639E-5
        7.410000           0.373928E-5       -0.908820E-5
        7.420000           0.362256E-5       -0.881967E-5
        7.430000           0.351118E-5       -0.856035E-5
        7.440000           0.340481E-5       -0.830987E-5
        7.450000           0.330318E-5       -0.806783E-5
        7.460000           0.320600E-5       -0.783388E-5
        7.470000           0.311305E-5       -0.760769E-5
        7.480000           0.302409E-5       -0.738891E-5
        7.489999           0.293888E-5       -0.717724E-5
        7.500000           0.285724E-5       -0.697240E-5
        7.510000           0.277898E-5       -0.677412E-5
        7.520000           0.270392E-5       -0.658213E-5
        7.530000           0.263189E-5       -0.639618E-5
        7.540000           0.256274E-5       -0.621604E-5
        7.550000           0.249632E-5       -0.604147E-5
        7.560000           0.243250E-5       -0.587227E-5
        7.570000           0.237115E-5       -0.570819E-5
        7.580000           0.231215E-5       -0.554912E-5
        7.590000           0.225538E-5       -0.539480E-5
        7.600000           0.220074E-5       -0.524508E-5
        7.610000           0.214812E-5       -0.509979E-5
        7.620000           0.209744E-5       -0.495876E-5
        7.630000           0.204860E-5       -0.482185E-5
        7.640000           0.200152E-5       -0.468888E-5
        7.650000           0.195612E-5       -0.455976E-5
        7.660000           0.191233E-5       -0.443432E-5
        7.670000           0.187007E-5       -0.431243E-5
        7.680000           0.182927E-5       -0.419397E-5
        7.690000           0.178988E-5       -0.407884E-5
        7.700000           0.175184E-5       -0.396690E-5
        7.710000           0.171507E-5       -0.385807E-5
        7.720000           0.167954E-5       -0.375222E-5
        7.730000           0.164519E-5       -0.364926E-5
        7.740000           0.161197E-5       -0.354909E-5
        7.750000           0.157984E-5       -0.345163E-5
        7.760000           0.154875E-5       -0.335679E-5
        7.770000           0.151865E-5       -0.326448E-5
        7.780000           0.148952E-5       -0.317461E-5
        7.789999           0.146131E-5       -0.308710E-5
        7.800000           0.143398E-5       -0.300191E-5
        7.809999           0.140751E-5       -0.291894E-5
        7.820000           0.138185E-5       -0.283813E-5
        7.829999           0.135699E-5       -0.275941E-5
        7.840000           0.133288E-5       -0.268269E-5
        7.849999           0.130950E-5       -0.260796E-5
        7.860000           0.128682E-5       -0.253512E-5
        7.870000           0.126482E-5       -0.246412E-5
        7.880000           0.124347E-5       -0.239493E-5
        7.890000           0.122275E-5       -0.232748E-5
        7.900000           0.120264E-5       -0.226171E-5
        7.910000           0.118311E-5       -0.219759E-5
        7.920000           0.116415E-5       -0.213505E-5
        7.930000           0.114573E-5       -0.207406E-5
        7.940000           0.112783E-5       -0.201458E-5
        7.950000           0.111045E-5       -0.195654E-5
        7.960000           0.109355E-5       -0.189995E-5
        7.970000           0.107713E-5       -0.184473E-5
        7.980000           0.106116E-5       -0.179085E-5
        7.990000           0.104563E-5       -0.173827E-5
        8.000000           0.103053E-5       -0.168697E-5
        8.010000           0.101584E-5       -0.163690E-5
        8.020000           0.100156E-5       -0.158804E-5
        8.030000           0.987654E-6       -0.154035E-5
        8.040000           0.974127E-6       -0.149381E-5
        8.050000           0.960959E-6       -0.144837E-5
        8.059999           0.948142E-6       -0.140402E-5
        8.070000           0.935663E-6       -0.136073E-5
        8.080000           0.923512E-6       -0.131846E-5
        8.090000           0.911678E-6       -0.127720E-5
        8.099999           0.900150E-6       -0.123693E-5
        8.110000           0.888920E-6       -0.119760E-5
        8.120000           0.877978E-6       -0.115921E-5
        8.130000           0.867314E-6       -0.112174E-5
        8.139999           0.856919E-6       -0.108515E-5
        8.150000           0.846788E-6       -0.104944E-5
        8.160000           0.836908E-6       -0.101458E-5
        8.170000           0.827274E-6       -0.980543E-6
        8.179999           0.817877E-6       -0.947319E-6
        8.190000           0.808709E-6       -0.914904E-6
        8.200000           0.799764E-6       -0.883262E-6
        8.209999           0.791035E-6       -0.852380E-6
        8.219999           0.782513E-6       -0.822250E-6
        8.230000           0.774193E-6       -0.792849E-6
        8.240001           0.766067E-6       -0.764172E-6
        8.250000           0.758130E-6       -0.736196E-6
        8.260000           0.750375E-6       -0.708928E-6
        8.270000           0.742795E-6       -0.682329E-6
        8.280000           0.735385E-6       -0.656404E-6
        8.290000           0.728137E-6       -0.631131E-6
        8.300000           0.721047E-6       -0.606513E-6
        8.310000           0.714108E-6       -0.582535E-6
        8.320000           0.707315E-6       -0.559186E-6
        8.330000           0.700661E-6       -0.536463E-6
        8.340000           0.694141E-6       -0.514351E-6
        8.350000           0.687749E-6       -0.492840E-6
        8.360000           0.681480E-6       -0.471932E-6
        8.370000           0.675326E-6       -0.451619E-6
        8.380000           0.669283E-6       -0.431907E-6
        8.390000           0.663345E-6       -0.412768E-6
        8.400000           0.657505E-6       -0.394215E-6
        8.410000           0.651758E-6       -0.376229E-6
        8.420000           0.646096E-6       -0.358828E-6
        8.430000           0.640517E-6       -0.341997E-6
        8.440000           0.635009E-6       -0.325742E-6
        8.450000           0.629568E-6       -0.310055E-6
        8.460000           0.624189E-6       -0.294938E-6
        8.469999           0.618862E-6       -0.280404E-6
        8.480000           0.613581E-6       -0.266433E-6
        8.490000           0.608339E-6       -0.253053E-6
        8.500000           0.603127E-6       -0.240244E-6
        8.509999           0.597937E-6       -0.228034E-6
        8.520000           0.592761E-6       -0.216410E-6
        8.530000           0.587590E-6       -0.205391E-6
        8.540000           0.582414E-6       -0.194978E-6
        8.549999           0.577223E-6       -0.185188E-6
        8.559999           0.572006E-6       -0.176027E-6
        8.570000           0.566753E-6       -0.167499E-6
        8.580000           0.561450E-6       -0.159622E-6
        8.589999           0.556086E-6       -0.152427E-6
        8.600000           0.550646E-6       -0.145909E-6
        8.610001           0.545117E-6       -0.140089E-6
        8.620000           0.539483E-6       -0.134989E-6
        8.630000           0.533726E-6       -0.130643E-6
        8.640000           0.527829E-6       -0.127051E-6
        8.650001           0.521771E-6       -0.124253E-6
        8.660000           0.515534E-6       -0.122278E-6
        8.670000           0.509093E-6       -0.121151E-6
        8.680000           0.502423E-6       -0.120903E-6
        8.690001           0.495499E-6       -0.121570E-6
        8.700000           0.488291E-6       -0.123201E-6
        8.710000           0.480769E-6       -0.125820E-6
        8.720000           0.472897E-6       -0.129483E-6
        8.730000           0.464638E-6       -0.134236E-6
        8.740000           0.455951E-6       -0.140140E-6
        8.750000           0.446793E-6       -0.147233E-6
        8.760000           0.437111E-6       -0.155587E-6
        8.770000           0.426855E-6       -0.165271E-6
        8.780000           0.415966E-6       -0.176355E-6
        8.790000           0.404376E-6       -0.188917E-6
        8.800000           0.392017E-6       -0.203031E-6
        8.809999           0.378806E-6       -0.218805E-6
        8.820000           0.364659E-6       -0.236318E-6
        8.830000           0.349478E-6       -0.255690E-6
        8.840000           0.333156E-6       -0.277032E-6
        8.849999           0.315574E-6       -0.300460E-6
        8.860000           0.296600E-6       -0.326110E-6
        8.870000           0.276085E-6       -0.354133E-6
        8.880000           0.253867E-6       -0.384674E-6
        8.889999           0.229762E-6       -0.417918E-6
        8.900000           0.203562E-6       -0.454036E-6
        8.910000           0.175037E-6       -0.493213E-6
        8.919999           0.143929E-6       -0.535687E-6
        8.929999           0.109946E-6       -0.581659E-6
        8.940000           0.727570E-7       -0.631400E-6
        8.950000           0.319901E-7       -0.685163E-6
        8.959999          -0.127765E-7       -0.743240E-6
        8.970000          -0.620250E-7       -0.805936E-6
        8.980000          -0.116294E-6       -0.873568E-6
        8.990000          -0.176205E-6       -0.946504E-6
        9.000000          -0.242472E-6       -0.102511E-5
        9.010000          -0.315904E-6       -0.110977E-5
        9.020000          -0.397434E-6       -0.120090E-5
        9.030000          -0.488136E-6       -0.129895E-5
        9.040000          -0.589246E-6       -0.140433E-5
        9.050000          -0.702190E-6       -0.151749E-5
        9.060000          -0.828626E-6       -0.163888E-5
        9.070000          -0.970469E-6       -0.176888E-5
        9.080000          -0.112995E-5       -0.190785E-5
        9.090000          -0.130966E-5       -0.205605E-5
        9.100000          -0.151263E-5       -0.221363E-5
        9.110000          -0.174237E-5       -0.238050E-5
        9.120000          -0.200298E-5       -0.255630E-5
        9.130000          -0.229925E-5       -0.274024E-5
        9.140000          -0.263670E-5       -0.293095E-5
        9.150000          -0.302174E-5       -0.312620E-5
        9.160000          -0.346168E-5       -0.332269E-5
        9.170000          -0.396483E-5       -0.351547E-5
        9.179999          -0.454041E-5       -0.369759E-5
        9.190000          -0.519842E-5       -0.385926E-5
        9.200000          -0.594916E-5       -0.398706E-5
        9.210000          -0.680256E-5       -0.406296E-5
        9.219999          -0.776679E-5       -0.406327E-5
        9.230000          -0.884626E-5       -0.395769E-5
        9.240000          -0.100386E-4       -0.370900E-5
        9.250000          -0.113306E-4       -0.327379E-5
        9.259999          -0.126938E-4       -0.260527E-5
        9.270000          -0.140800E-4       -0.165897E-5
        9.280000          -0.154191E-4       -0.401882E-6
        9.290000          -0.166221E-4        0.117597E-5
        9.299999          -0.175908E-4        0.305054E-5
        9.309999          -0.182345E-4        0.515820E-5
        9.320000          -0.184896E-4        0.740029E-5
        9.330000          -0.183347E-4        0.965921E-5
        9.340000          -0.177953E-4        0.118197E-4
        9.350000          -0.169346E-4        0.137906E-4
        9.360001          -0.158373E-4        0.155153E-4
        9.370000          -0.145911E-4        0.169732E-4
        9.380000          -0.132738E-4        0.181726E-4
        9.390000          -0.119462E-4        0.191405E-4
        9.400001          -0.106506E-4        0.199129E-4
        9.410000          -0.941326E-5        0.205281E-4
        9.420000          -0.824786E-5        0.210220E-4
        9.430000          -0.715896E-5        0.214261E-4
        9.440000          -0.614515E-5        0.217668E-4
        9.450000          -0.520140E-5        0.220657E-4
        9.460000          -0.432062E-5        0.223399E-4
        9.470000          -0.349475E-5        0.226030E-4
        9.480000          -0.271546E-5        0.228658E-4
        9.490000          -0.197447E-5        0.231367E-4
        9.500000          -0.126377E-5        0.234224E-4
        9.510000          -0.575709E-6        0.237284E-4
        9.520000           0.970448E-7        0.240591E-4
        9.530000           0.761510E-6        0.244180E-4
        9.540000           0.142453E-5        0.248085E-4
        9.550000           0.209280E-5        0.252333E-4
        9.559999           0.277303E-5        0.256949E-4
        9.570000           0.347202E-5        0.261958E-4
        9.580000           0.419682E-5        0.267383E-4
        9.590000           0.495480E-5        0.273245E-4
        9.599999           0.575387E-5        0.279566E-4
        9.610000           0.660256E-5        0.286368E-4
        9.620000           0.751023E-5        0.293672E-4
        9.629999           0.848728E-5        0.301497E-4
        9.639999           0.954533E-5        0.309860E-4
        9.650000           0.106974E-4        0.318776E-4
        9.660000           0.119586E-4        0.328257E-4
        9.669999           0.133456E-4        0.338306E-4
        9.679999           0.148781E-4        0.348920E-4
        9.690000           0.165785E-4        0.360078E-4
        9.700000           0.184728E-4        0.371747E-4
        9.710000           0.205904E-4        0.383860E-4
        9.720000           0.229659E-4        0.396322E-4
        9.730000           0.256390E-4        0.408987E-4
        9.740000           0.286552E-4        0.421643E-4
        9.750000           0.320662E-4        0.433988E-4
        9.760000           0.359305E-4        0.445604E-4
        9.770000           0.403129E-4        0.455910E-4
        9.780000           0.452833E-4        0.464117E-4
        9.790000           0.509144E-4        0.469161E-4
        9.800000           0.572765E-4        0.469625E-4
        9.810000           0.644285E-4        0.463651E-4
        9.820000           0.724045E-4        0.448854E-4
        9.830000           0.811916E-4        0.422242E-4
        9.840000           0.906998E-4        0.380214E-4
        9.850000           0.100721E-3        0.318653E-4
        9.860000           0.110884E-3        0.233244E-4
        9.870000           0.120606E-3        0.120084E-4
        9.880000           0.129077E-3       -0.233461E-5
        9.889999           0.135279E-3       -0.196911E-4
        9.900000           0.138094E-3       -0.396545E-4
        9.910000           0.136481E-3       -0.613463E-4
        9.920000           0.129711E-3       -0.834429E-4
        9.929999           0.117571E-3       -0.104331E-3
        9.940000           0.100463E-3       -0.122359E-3
        9.950000           0.793651E-4       -0.136102E-3
        9.960000           0.556802E-4       -0.144557E-3
        9.969999           0.310379E-4       -0.147248E-3
        9.980000           0.710296E-5       -0.144244E-3
        9.990000          -0.145976E-4       -0.136123E-3
        10.00000          -0.328331E-4       -0.123906E-3
        10.01000          -0.468073E-4       -0.108923E-3
        10.02000          -0.562428E-4       -0.926237E-4
        10.03000          -0.613701E-4       -0.763628E-4
        10.04000          -0.628148E-4       -0.612158E-4
        10.05000          -0.614194E-4       -0.478800E-4
        10.06000          -0.580629E-4       -0.366779E-4
        10.07000          -0.535291E-4       -0.276351E-4
        10.08000          -0.484380E-4       -0.205783E-4
        10.09000          -0.432339E-4       -0.152352E-4
        10.10000          -0.382061E-4       -0.113046E-4
        10.11000          -0.335230E-4       -0.849916E-5
        10.12000          -0.292672E-4       -0.656779E-5
        10.13000          -0.254646E-4       -0.530190E-5
        10.14000          -0.221065E-4       -0.453476E-5
        10.15000          -0.191646E-4       -0.413631E-5
        10.16000          -0.166015E-4       -0.400666E-5
        10.17000          -0.143768E-4       -0.407057E-5
        10.18000          -0.124506E-4       -0.427153E-5
        10.19000          -0.107857E-4       -0.456768E-5
        10.20000          -0.934855E-5       -0.492827E-5
        10.21000          -0.810931E-5       -0.533083E-5
        10.22000          -0.704204E-5       -0.575918E-5
        10.23000          -0.612438E-5       -0.620171E-5
        10.24000          -0.533714E-5       -0.665034E-5
        10.25000          -0.466402E-5       -0.709952E-5
        10.26000          -0.409129E-5       -0.754555E-5
        10.27000          -0.360738E-5       -0.798614E-5
        10.28000          -0.320276E-5       -0.841999E-5
        10.29000          -0.286954E-5       -0.884640E-5
        10.30000          -0.260141E-5       -0.926530E-5
        10.31000          -0.239340E-5       -0.967682E-5
        10.32000          -0.224177E-5       -0.100813E-4
        10.33000          -0.214401E-5       -0.104790E-4
        10.34000          -0.209864E-5       -0.108701E-4
        10.35000          -0.210525E-5       -0.112548E-4
        10.36000          -0.216451E-5       -0.116326E-4
        10.37000          -0.227813E-5       -0.120026E-4
        10.38000          -0.244888E-5       -0.123631E-4
        10.39000          -0.268063E-5       -0.127113E-4
        10.40000          -0.297838E-5       -0.130432E-4
        10.41000          -0.334815E-5       -0.133527E-4
        10.42000          -0.379694E-5       -0.136312E-4
        10.43000          -0.433248E-5       -0.138669E-4
        10.44000          -0.496251E-5       -0.140437E-4
        10.45000          -0.569420E-5       -0.141401E-4
        10.46000          -0.653240E-5       -0.141275E-4
        10.47000          -0.747727E-5       -0.139697E-4
        10.48000          -0.852072E-5       -0.136210E-4
        10.49000          -0.964111E-5       -0.130270E-4
        10.50000          -0.107966E-4       -0.121261E-4
        10.51000          -0.119169E-4       -0.108560E-4
        10.52000          -0.128960E-4       -0.916408E-5
        10.53000          -0.135885E-4       -0.702606E-5
        10.54000          -0.138150E-4       -0.446987E-5
        10.55000          -0.133823E-4       -0.160068E-5
        10.56000          -0.121222E-4        0.138295E-5
        10.57000          -0.994175E-5        0.419586E-5
        10.58000          -0.687086E-5        0.650405E-5
        10.59000          -0.308433E-5        0.798980E-5
        10.60000           0.111615E-5        0.842320E-5
        10.61000           0.535688E-5        0.771408E-5
        10.62000           0.926495E-5        0.592656E-5
        10.63000           0.125335E-4        0.325587E-5
        10.64000           0.149638E-4       -0.187212E-7
        10.65000           0.164800E-4       -0.358899E-5
        10.66000           0.171189E-4       -0.716819E-5
        10.67000           0.170020E-4       -0.105280E-4
        10.68000           0.162987E-4       -0.135175E-4
        10.69000           0.151897E-4       -0.160630E-4
        10.70000           0.138392E-4       -0.181546E-4
        10.71000           0.123797E-4       -0.198258E-4
        10.72000           0.109074E-4       -0.211334E-4
        10.73000           0.948564E-5       -0.221425E-4
        10.74000           0.815113E-5       -0.229167E-4
        10.75000           0.692149E-5       -0.235121E-4
        10.76000           0.580143E-5       -0.239759E-4
        10.77000           0.478763E-5       -0.243464E-4
        10.78000           0.387223E-5       -0.246537E-4
        10.79000           0.304513E-5       -0.249211E-4
        10.80000           0.229565E-5       -0.251661E-4
        10.81000           0.161305E-5       -0.254023E-4
        10.82000           0.987225E-6       -0.256400E-4
        10.83000           0.408893E-6       -0.258867E-4
        10.84000          -0.130387E-6       -0.261484E-4
        10.85000          -0.638214E-6       -0.264294E-4
        10.86000          -0.112141E-5       -0.267333E-4
        10.87000          -0.158612E-5       -0.270628E-4
        10.88000          -0.203793E-5       -0.274203E-4
        10.89000          -0.248196E-5       -0.278075E-4
        10.90000          -0.292295E-5       -0.282265E-4
        10.91000          -0.336535E-5       -0.286788E-4
        10.92000          -0.381344E-5       -0.291659E-4
        10.93000          -0.427137E-5       -0.296895E-4
        10.94000          -0.474329E-5       -0.302513E-4
        10.95000          -0.523334E-5       -0.308531E-4
        10.96000          -0.574583E-5       -0.314969E-4
        10.97000          -0.628523E-5       -0.321847E-4
        10.98000          -0.685632E-5       -0.329189E-4
        10.99000          -0.746425E-5       -0.337020E-4
        11.00000          -0.811457E-5       -0.345369E-4
        11.01000          -0.881351E-5       -0.354266E-4
        11.02000          -0.956796E-5       -0.363746E-4
        11.03000          -0.103857E-4       -0.373847E-4
        11.04000          -0.112756E-4       -0.384612E-4
        11.05000          -0.122477E-4       -0.396089E-4
        11.06000          -0.133140E-4       -0.408331E-4
        11.07000          -0.144884E-4       -0.421399E-4
        11.08000          -0.157874E-4       -0.435361E-4
        11.09000          -0.172310E-4       -0.450293E-4
        11.10000          -0.188437E-4       -0.466278E-4
        11.11000          -0.206560E-4       -0.483409E-4
        11.12000          -0.227063E-4       -0.501780E-4
        11.13000          -0.250441E-4       -0.521475E-4
        11.14000          -0.277333E-4       -0.542551E-4
        11.15000          -0.308571E-4       -0.564996E-4
        11.16000          -0.345239E-4       -0.588650E-4
        11.17000          -0.388706E-4       -0.613081E-4
        11.18000          -0.440663E-4       -0.637393E-4
        11.19000          -0.503031E-4       -0.659942E-4
        11.20000          -0.577726E-4       -0.677993E-4
        11.21000          -0.666136E-4       -0.687418E-4
        11.22000          -0.768270E-4       -0.682621E-4
        11.23000          -0.881695E-4       -0.657015E-4
        11.24000          -0.100063E-3       -0.604286E-4
        11.25000          -0.111586E-3       -0.520357E-4
        11.26000          -0.121601E-3       -0.405426E-4
        11.27000          -0.129007E-3       -0.265005E-4
        11.28000          -0.133029E-3       -0.109179E-4
        11.29000          -0.133411E-3        0.497585E-5
        11.30000          -0.130423E-3        0.200246E-4
        11.31000          -0.124720E-3        0.333685E-4
        11.32000          -0.117127E-3        0.445316E-4
        11.33000          -0.108448E-3        0.533897E-4
        11.34000          -0.993528E-4        0.600702E-4
        11.35000          -0.903366E-4        0.648440E-4
        11.36000          -0.817239E-4        0.680369E-4
        11.37000          -0.737018E-4        0.699718E-4
        11.38000          -0.663571E-4        0.709382E-4
        11.39000          -0.597090E-4        0.711796E-4
        11.40000          -0.537352E-4        0.708927E-4
        11.41000          -0.483903E-4        0.702319E-4
        11.42000          -0.436179E-4        0.693160E-4
        11.43000          -0.393583E-4        0.682347E-4
        11.44000          -0.355532E-4        0.670550E-4
        11.45000          -0.321479E-4        0.658264E-4
        11.46000          -0.290927E-4        0.645854E-4
        11.47000          -0.263429E-4        0.633580E-4
        11.48000          -0.238590E-4        0.621628E-4
        11.49000          -0.216062E-4        0.610130E-4
        11.50000          -0.195539E-4        0.599175E-4
        11.51000          -0.176755E-4        0.588823E-4
        11.52000          -0.159471E-4        0.579111E-4
        11.53000          -0.143486E-4        0.570061E-4
        11.54000          -0.128613E-4        0.561684E-4
        11.55000          -0.114692E-4        0.553982E-4
        11.56000          -0.101575E-4        0.546952E-4
        11.57000          -0.891320E-5        0.540588E-4
        11.58000          -0.772423E-5        0.534881E-4
        11.59000          -0.657946E-5        0.529822E-4
        11.60000          -0.546846E-5        0.525401E-4
        11.61000          -0.438129E-5        0.521607E-4
        11.62000          -0.330830E-5        0.518429E-4
        11.63000          -0.223997E-5        0.515856E-4
        11.64000          -0.116670E-5        0.513877E-4
        11.65000          -0.787084E-7        0.512479E-4
        11.66000           0.103425E-5        0.511649E-4
        11.67000           0.218302E-5        0.511369E-4
        11.68000           0.337923E-5        0.511618E-4
        11.69000           0.463558E-5        0.512368E-4
        11.70000           0.596599E-5        0.513581E-4
        11.71000           0.738588E-5        0.515208E-4
        11.72000           0.891240E-5        0.517181E-4
        11.73000           0.105646E-4        0.519408E-4
        11.74000           0.123637E-4        0.521762E-4
        11.75000           0.143327E-4        0.524076E-4
        11.76000           0.164970E-4        0.526121E-4
        11.77000           0.188828E-4        0.527592E-4
        11.78000           0.215168E-4        0.528090E-4
        11.79000           0.244235E-4        0.527088E-4
        11.80000           0.276219E-4        0.523913E-4
        11.81000           0.311203E-4        0.517719E-4
        11.82000           0.349082E-4        0.507478E-4
        11.83000           0.389461E-4        0.492000E-4
        11.84000           0.431529E-4        0.469998E-4
        11.85000           0.473938E-4        0.440232E-4
        11.86000           0.514728E-4        0.401747E-4
        11.87000           0.551365E-4        0.354193E-4
        11.88000           0.580969E-4        0.298158E-4
        11.89000           0.600760E-4        0.235393E-4
        11.90000           0.608634E-4        0.168789E-4
        11.91000           0.603707E-4        0.101971E-4
        11.92000           0.586561E-4        0.386579E-5
        11.93000           0.559101E-4       -0.180330E-5
        11.94000           0.524069E-4       -0.660621E-5
        11.95000           0.484443E-4       -0.104599E-4
        11.96000           0.442936E-4       -0.133848E-4
        11.97000           0.401701E-4       -0.154716E-4
        11.98000           0.362249E-4       -0.168471E-4
        11.99000           0.325510E-4       -0.176469E-4
        12.00000           0.291952E-4       -0.179984E-4
        12.01000           0.261715E-4       -0.180123E-4
        12.02000           0.234731E-4       -0.177801E-4
        12.03000           0.210808E-4       -0.173744E-4
        12.04000           0.189691E-4       -0.168517E-4
        12.05000           0.171105E-4       -0.162549E-4
        12.06000           0.154777E-4       -0.156166E-4
        12.07000           0.140448E-4       -0.149612E-4
        12.08000           0.127880E-4       -0.143067E-4
        12.09000           0.116856E-4       -0.136670E-4
        12.10000           0.107177E-4       -0.130525E-4
        12.11000           0.986612E-5       -0.124709E-4
        12.12000           0.911352E-5       -0.119278E-4
        12.13000           0.844348E-5       -0.114268E-4
        12.14000           0.784027E-5       -0.109688E-4
        12.15000           0.728923E-5       -0.105524E-4
        12.16000           0.677747E-5       -0.101734E-4
        12.17000           0.629483E-5       -0.982513E-5
        12.18000           0.583454E-5       -0.949990E-5
        12.19000           0.539336E-5       -0.919011E-5
        12.20000           0.497094E-5       -0.888952E-5
        12.21000           0.456866E-5       -0.859406E-5
        12.22000           0.418854E-5       -0.830183E-5
        12.23000           0.383223E-5       -0.801270E-5
        12.24000           0.350063E-5       -0.772765E-5
        12.25000           0.319377E-5       -0.744816E-5
        12.26000           0.291089E-5       -0.717579E-5
        12.27000           0.265077E-5       -0.691193E-5
        12.28000           0.241179E-5       -0.665765E-5
        12.29000           0.219220E-5       -0.641370E-5
        12.30000           0.199026E-5       -0.618053E-5
        12.31000           0.180424E-5       -0.595834E-5
        12.32000           0.163255E-5       -0.574716E-5
        12.33000           0.147369E-5       -0.554688E-5
        12.34000           0.132633E-5       -0.535727E-5
        12.35000           0.118924E-5       -0.517803E-5
        12.36000           0.106132E-5       -0.500886E-5
        12.37000           0.941577E-6       -0.484937E-5
        12.38000           0.829105E-6       -0.469923E-5
        12.39000           0.723094E-6       -0.455807E-5
        12.40000           0.622806E-6       -0.442551E-5
        12.41000           0.527564E-6       -0.430124E-5
        12.42000           0.436747E-6       -0.418489E-5
        12.43000           0.349775E-6       -0.407619E-5
        12.44000           0.266110E-6       -0.397481E-5
        12.45000           0.185241E-6       -0.388049E-5
        12.46000           0.106678E-6       -0.379296E-5
        12.47000           0.299496E-7       -0.371199E-5
        12.48000          -0.454066E-7       -0.363733E-5
        12.49000          -0.119851E-6       -0.356877E-5
        12.50000          -0.193846E-6       -0.350608E-5
        12.51000          -0.267865E-6       -0.344907E-5
        12.52000          -0.342396E-6       -0.339754E-5
        12.53000          -0.417953E-6       -0.335127E-5
        12.54000          -0.495082E-6       -0.331004E-5
        12.55000          -0.574367E-6       -0.327362E-5
        12.56000          -0.656438E-6       -0.324173E-5
        12.57000          -0.741987E-6       -0.321405E-5
        12.58000          -0.831770E-6       -0.319020E-5
        12.59000          -0.926617E-6       -0.316969E-5
        12.60000          -0.102744E-5       -0.315195E-5
        12.61000          -0.113522E-5       -0.313619E-5
        12.62000          -0.125105E-5       -0.312143E-5
        12.63000          -0.137603E-5       -0.310641E-5
        12.64000          -0.151132E-5       -0.308946E-5
        12.65000          -0.165803E-5       -0.306850E-5
        12.66000          -0.181710E-5       -0.304083E-5
        12.67000          -0.198914E-5       -0.300307E-5
        12.68000          -0.217413E-5       -0.295109E-5
        12.69000          -0.237109E-5       -0.287996E-5
        12.70000          -0.257753E-5       -0.278412E-5
        12.71000          -0.278893E-5       -0.265776E-5
        12.72000          -0.299821E-5       -0.249554E-5
        12.73000          -0.319544E-5       -0.229379E-5
        12.74000          -0.336818E-5       -0.205200E-5
        12.75000          -0.350272E-5       -0.177439E-5
        12.76000          -0.358633E-5       -0.147083E-5
        12.77000          -0.361004E-5       -0.115641E-5
        12.78000          -0.357116E-5       -0.849423E-6
        12.79000          -0.347429E-5       -0.568022E-6
        12.80000          -0.333032E-5       -0.326852E-6
        12.81000          -0.315388E-5       -0.134861E-6
        12.82000          -0.296030E-5        0.514119E-8
        12.83000          -0.276308E-5        0.954007E-7
        12.84000          -0.257266E-5        0.141425E-6
        12.85000          -0.239606E-5        0.150242E-6
        12.86000          -0.223733E-5        0.129036E-6
        12.87000          -0.209825E-5        0.843402E-7
        12.88000          -0.197903E-5        0.216678E-7
        12.89000          -0.187895E-5       -0.545715E-7
        12.90000          -0.179677E-5       -0.140974E-6
        12.91000          -0.173103E-5       -0.235022E-6
        12.92000          -0.168026E-5       -0.334909E-6
        12.93000          -0.164307E-5       -0.439372E-6
        12.94000          -0.161823E-5       -0.547563E-6
        12.95000          -0.160467E-5       -0.658977E-6
        12.96000          -0.160149E-5       -0.773336E-6
        12.97000          -0.160797E-5       -0.890569E-6
        12.98000          -0.162356E-5       -0.101069E-5
        12.99000          -0.164783E-5       -0.113388E-5
        13.00000          -0.168051E-5       -0.126033E-5
        13.01000          -0.172144E-5       -0.139035E-5
        13.02000          -0.177061E-5       -0.152424E-5
        13.03000          -0.182810E-5       -0.166240E-5
        13.04000          -0.189409E-5       -0.180521E-5
        13.05000          -0.196891E-5       -0.195311E-5
        13.06000          -0.205297E-5       -0.210653E-5
        13.07000          -0.214681E-5       -0.226598E-5
        13.08000          -0.225108E-5       -0.243193E-5
        13.09000          -0.236658E-5       -0.260489E-5
        13.10000          -0.249424E-5       -0.278540E-5
        13.11000          -0.263516E-5       -0.297400E-5
        13.12000          -0.279062E-5       -0.317126E-5
        13.13000          -0.296209E-5       -0.337768E-5
        13.14000          -0.315129E-5       -0.359385E-5
        13.15000          -0.336018E-5       -0.382030E-5
        13.16000          -0.359105E-5       -0.405748E-5
        13.17000          -0.384650E-5       -0.430583E-5
        13.18000          -0.412958E-5       -0.456568E-5
        13.19000          -0.444376E-5       -0.483721E-5
        13.20000          -0.479309E-5       -0.512041E-5
        13.21000          -0.518222E-5       -0.541495E-5
        13.22000          -0.561651E-5       -0.572012E-5
        13.23000          -0.610214E-5       -0.603466E-5
        13.24000          -0.664623E-5       -0.635651E-5
        13.25000          -0.725692E-5       -0.668264E-5
        13.26000          -0.794346E-5       -0.700857E-5
        13.27000          -0.871629E-5       -0.732799E-5
        13.28000          -0.958701E-5       -0.763208E-5
        13.29000          -0.105682E-4       -0.790878E-5
        13.30000          -0.116731E-4       -0.814176E-5
        13.31000          -0.129148E-4       -0.830927E-5
        13.32000          -0.143051E-4       -0.838280E-5
        13.33000          -0.158523E-4       -0.832573E-5
        13.34000          -0.175580E-4       -0.809234E-5
        13.35000          -0.194131E-4       -0.762754E-5
        13.36000          -0.213913E-4       -0.686868E-5
        13.37000          -0.234434E-4       -0.574988E-5
        13.38000          -0.254911E-4       -0.421103E-5
        13.39000          -0.274246E-4       -0.221137E-5
        13.40000          -0.291075E-4        0.253392E-6
        13.41000          -0.303925E-4        0.313507E-5
        13.42000          -0.311465E-4        0.632536E-5
        13.43000          -0.312808E-4        0.966358E-5
        13.44000          -0.307744E-4        0.129616E-4
        13.45000          -0.296798E-4        0.160391E-4
        13.46000          -0.281089E-4        0.187556E-4
        13.47000          -0.262057E-4        0.210289E-4
        13.48000          -0.241164E-4        0.228354E-4
        13.49000          -0.219680E-4        0.241982E-4
        13.50000          -0.198574E-4        0.251697E-4
        13.51000          -0.178500E-4        0.258150E-4
        13.52000          -0.159843E-4        0.262005E-4
        13.53000          -0.142779E-4        0.263872E-4
        13.54000          -0.127344E-4        0.264269E-4
        13.55000          -0.113483E-4        0.263621E-4
        13.56000          -0.101092E-4        0.262263E-4
        13.57000          -0.900442E-5        0.260457E-4
        13.58000          -0.802040E-5        0.258400E-4
        13.59000          -0.714405E-5        0.256247E-4
        13.60000          -0.636314E-5        0.254111E-4
        13.61000          -0.566652E-5        0.252082E-4
        13.62000          -0.504403E-5        0.250231E-4
        13.63000          -0.448665E-5        0.248615E-4
        13.64000          -0.398570E-5        0.247285E-4
        13.65000          -0.353319E-5        0.246284E-4
        13.66000          -0.312080E-5        0.245651E-4
        13.67000          -0.274010E-5        0.245419E-4
        13.68000          -0.238181E-5        0.245612E-4
        13.69000          -0.203635E-5        0.246235E-4
        13.70000          -0.169380E-5        0.247276E-4
        13.71000          -0.134530E-5        0.248695E-4
        13.72000          -0.983694E-6        0.250431E-4
        13.73000          -0.604917E-6        0.252409E-4
        13.74000          -0.207856E-6        0.254560E-4
        13.75000           0.205691E-6        0.256824E-4
        13.76000           0.632629E-6        0.259168E-4
        13.77000           0.106928E-5        0.261583E-4
        13.78000           0.151294E-5        0.264082E-4
        13.79000           0.196179E-5        0.266688E-4
        13.80000           0.241567E-5        0.269434E-4
        13.81000           0.287535E-5        0.272354E-4
        13.82000           0.334287E-5        0.275481E-4
        13.83000           0.382076E-5        0.278842E-4
        13.84000           0.431245E-5        0.282467E-4
        13.85000           0.482154E-5        0.286378E-4
        13.86000           0.535235E-5        0.290597E-4
        13.87000           0.590928E-5        0.295142E-4
        13.88000           0.649752E-5        0.300033E-4
        13.89000           0.712236E-5        0.305285E-4
        13.90000           0.779008E-5        0.310914E-4
        13.91000           0.850732E-5        0.316934E-4
        13.92000           0.928149E-5        0.323356E-4
        13.93000           0.101213E-4        0.330193E-4
        13.94000           0.110362E-4        0.337449E-4
        13.95000           0.120374E-4        0.345129E-4
        13.96000           0.131371E-4        0.353226E-4
        13.97000           0.143499E-4        0.361729E-4
        13.98000           0.156919E-4        0.370609E-4
        13.99000           0.171823E-4        0.379825E-4
        14.00000           0.188423E-4        0.389305E-4
        14.01000           0.206968E-4        0.398951E-4
        14.02000           0.227731E-4        0.408614E-4
        14.03000           0.251030E-4        0.418092E-4
        14.04000           0.277200E-4        0.427096E-4
        14.05000           0.306615E-4        0.435240E-4
        14.06000           0.339641E-4        0.441997E-4
        14.07000           0.376648E-4        0.446675E-4
        14.08000           0.417916E-4        0.448369E-4
        14.09000           0.463616E-4        0.445933E-4
        14.10000           0.513645E-4        0.437958E-4
        14.11000           0.567545E-4        0.422790E-4
        14.12000           0.624261E-4        0.398620E-4
        14.13000           0.682033E-4        0.363656E-4
        14.14000           0.738203E-4        0.316477E-4
        14.15000           0.789320E-4        0.256425E-4
        14.16000           0.831362E-4        0.184147E-4
        14.17000           0.860393E-4        0.101863E-4
        14.18000           0.873320E-4        0.134385E-5
        14.19000           0.868689E-4       -0.762057E-5
        14.20000           0.847067E-4       -0.161871E-4
        14.21000           0.810877E-4       -0.239162E-4
        14.22000           0.763785E-4       -0.305069E-4
        14.23000           0.709836E-4       -0.358288E-4
        14.24000           0.652797E-4       -0.398924E-4
        14.25000           0.595667E-4       -0.428120E-4
        14.26000           0.540615E-4       -0.447526E-4
        14.27000           0.488970E-4       -0.458967E-4
        14.28000           0.441448E-4       -0.464169E-4
        14.29000           0.398300E-4       -0.464645E-4
        14.30000           0.359456E-4       -0.461654E-4
        14.31000           0.324691E-4       -0.456200E-4
        14.32000           0.293665E-4       -0.449062E-4
        14.33000           0.266020E-4       -0.440838E-4
        14.34000           0.241379E-4       -0.431971E-4
        14.35000           0.219400E-4       -0.422793E-4
        14.36000           0.199752E-4       -0.413543E-4
        14.37000           0.182151E-4       -0.404395E-4
        14.38000           0.166333E-4       -0.395469E-4
        14.39000           0.152075E-4       -0.386853E-4
        14.40000           0.139173E-4       -0.378600E-4
        14.41000           0.127455E-4       -0.370749E-4
        14.42000           0.116765E-4       -0.363319E-4
        14.43000           0.106973E-4       -0.356324E-4
        14.44000           0.979573E-5       -0.349766E-4
        14.45000           0.896167E-5       -0.343643E-4
        14.46000           0.818565E-5       -0.337950E-4
        14.47000           0.745966E-5       -0.332681E-4
        14.48000           0.677605E-5       -0.327825E-4
        14.49000           0.612825E-5       -0.323374E-4
        14.50000           0.550981E-5       -0.319318E-4
        14.51000           0.491509E-5       -0.315647E-4
        14.52000           0.433835E-5       -0.312351E-4
        14.53000           0.377443E-5       -0.309422E-4
        14.54000           0.321785E-5       -0.306848E-4
        14.55000           0.266352E-5       -0.304622E-4
        14.56000           0.210584E-5       -0.302732E-4
        14.57000           0.153935E-5       -0.301167E-4
        14.58000           0.957893E-6       -0.299914E-4
        14.59000           0.355237E-6       -0.298957E-4
        14.60000          -0.275817E-6       -0.298276E-4
        14.61000          -0.942764E-6       -0.297844E-4
        14.62000          -0.165434E-5       -0.297626E-4
        14.63000          -0.241990E-5       -0.297574E-4
        14.64000          -0.324974E-5       -0.297625E-4
        14.65000          -0.415562E-5       -0.297694E-4
        14.66000          -0.514960E-5       -0.297664E-4
        14.67000          -0.624492E-5       -0.297380E-4
        14.68000          -0.745407E-5       -0.296637E-4
        14.69000          -0.878898E-5       -0.295167E-4
        14.70000          -0.102575E-4       -0.292624E-4
        14.71000          -0.118623E-4       -0.288575E-4
        14.72000          -0.135943E-4       -0.282502E-4
        14.73000          -0.154296E-4       -0.273807E-4
        14.74000          -0.173206E-4       -0.261871E-4
        14.75000          -0.191932E-4       -0.246127E-4
        14.76000          -0.209418E-4       -0.226208E-4
        14.77000          -0.224379E-4       -0.202094E-4
        14.78000          -0.235428E-4       -0.174288E-4
        14.79000          -0.241352E-4       -0.143837E-4
        14.80000          -0.241375E-4       -0.112280E-4
        14.81000          -0.235367E-4       -0.813469E-5
        14.82000          -0.223864E-4       -0.526747E-5
        14.83000          -0.207906E-4       -0.274837E-5
        14.84000          -0.188784E-4       -0.648001E-6
        14.85000          -0.167765E-4        0.101566E-5
        14.86000          -0.145935E-4        0.226208E-5
        14.87000          -0.124096E-4        0.313470E-5
        14.88000          -0.102789E-4        0.368549E-5
        14.89000          -0.823092E-5        0.396627E-5
        14.90000          -0.627851E-5        0.402169E-5
        14.91000          -0.442124E-5        0.388605E-5
        14.92000          -0.265344E-5        0.358155E-5
        14.93000          -0.967254E-6        0.311796E-5
        14.94000           0.639783E-6        0.249452E-5
        14.95000           0.216221E-5        0.170263E-5
        14.96000           0.358115E-5        0.731894E-6
        14.97000           0.486504E-5       -0.423831E-6
        14.98000           0.597034E-5       -0.175731E-5
        14.99000           0.685000E-5       -0.324276E-5
        15.00000           0.746290E-5       -0.483185E-5
        15.01000           0.778621E-5       -0.645843E-5
        15.02000           0.782338E-5       -0.804986E-5
        15.03000           0.760459E-5       -0.953886E-5
        15.04000           0.718004E-5       -0.108769E-4
        15.05000           0.660901E-5       -0.120379E-4
        15.06000           0.594853E-5       -0.130184E-4
        15.07000           0.524663E-5       -0.138306E-4
        15.08000           0.453852E-5       -0.144970E-4
        15.09000           0.384775E-5       -0.150428E-4
        15.10000           0.318750E-5       -0.154933E-4
        15.11000           0.256413E-5       -0.158711E-4
        15.12000           0.197866E-5       -0.161953E-4
        15.13000           0.142940E-5       -0.164818E-4
        15.14000           0.912346E-6       -0.167435E-4
        15.15000           0.422705E-6       -0.169907E-4
        15.16000          -0.453079E-7       -0.172317E-4
        15.17000          -0.497521E-6       -0.174732E-4
        15.18000          -0.940255E-6       -0.177202E-4
        15.19000          -0.137965E-5       -0.179767E-4
        15.20000          -0.182225E-5       -0.182460E-4
        15.21000          -0.227447E-5       -0.185300E-4
        15.22000          -0.274324E-5       -0.188306E-4
        15.23000          -0.323554E-5       -0.191485E-4
        15.24000          -0.375915E-5       -0.194839E-4
        15.25000          -0.432213E-5       -0.198361E-4
        15.26000          -0.493368E-5       -0.202037E-4
        15.27000          -0.560351E-5       -0.205837E-4
        15.28000          -0.634280E-5       -0.209716E-4
        15.29000          -0.716335E-5       -0.213608E-4
        15.30000          -0.807848E-5       -0.217419E-4
        15.31000          -0.910178E-5       -0.221015E-4
        15.32000          -0.102477E-4       -0.224216E-4
        15.33000          -0.115294E-4       -0.226778E-4
        15.34000          -0.129580E-4       -0.228385E-4
        15.35000          -0.145388E-4       -0.228632E-4
        15.36000          -0.162688E-4       -0.227022E-4
        15.37000          -0.181298E-4       -0.222973E-4
        15.38000          -0.200823E-4       -0.215863E-4
        15.39000          -0.220612E-4       -0.205090E-4
        15.40000          -0.239695E-4       -0.190217E-4
        15.41000          -0.256842E-4       -0.171112E-4
        15.42000          -0.270670E-4       -0.148138E-4
        15.43000          -0.279897E-4       -0.122222E-4
        15.44000          -0.283623E-4       -0.948342E-5
        15.45000          -0.281586E-4       -0.677338E-5
        15.46000          -0.274248E-4       -0.426636E-5
        15.47000          -0.262670E-4       -0.209840E-5
        15.48000          -0.248266E-4       -0.350223E-6
        15.49000          -0.232483E-4        0.958352E-6
        15.50000          -0.216592E-4        0.185508E-5
        15.51000          -0.201535E-4        0.239926E-5
        15.52000          -0.187925E-4        0.266298E-5
        15.53000          -0.176072E-4        0.271841E-5
        15.54000          -0.166078E-4        0.262945E-5
        15.55000          -0.157901E-4        0.244879E-5
        15.56000          -0.151429E-4        0.221817E-5
        15.57000          -0.146514E-4        0.197006E-5
        15.58000          -0.143000E-4        0.173014E-5
        15.59000          -0.140729E-4        0.151890E-5
        15.60000          -0.139555E-4        0.135376E-5
        15.61000          -0.139330E-4        0.125028E-5
        15.62000          -0.139907E-4        0.122375E-5
        15.63000          -0.141116E-4        0.128992E-5
        15.64000          -0.142742E-4        0.146459E-5
        15.65000          -0.144503E-4        0.176144E-5
        15.66000          -0.146038E-4        0.218752E-5
        15.67000          -0.146929E-4        0.273836E-5
        15.68000          -0.146751E-4        0.339316E-5
        15.69000          -0.145161E-4        0.411475E-5
        15.70000          -0.141976E-4        0.485324E-5
        15.71000          -0.137219E-4        0.555576E-5
        15.72000          -0.131115E-4        0.617573E-5
        15.73000          -0.124021E-4        0.668138E-5
        15.74000          -0.116347E-4        0.705771E-5
        15.75000          -0.108477E-4        0.730518E-5
        15.76000          -0.100721E-4        0.743514E-5
        15.77000          -0.933017E-5        0.746474E-5
        15.78000          -0.863541E-5        0.741306E-5
        15.79000          -0.799503E-5        0.729838E-5
        15.80000          -0.741086E-5        0.713670E-5
        15.81000          -0.688192E-5        0.694144E-5
        15.82000          -0.640497E-5        0.672318E-5
        15.83000          -0.597607E-5        0.649023E-5
        15.84000          -0.559066E-5        0.624880E-5
        15.85000          -0.524442E-5        0.600359E-5
        15.86000          -0.493303E-5        0.575787E-5
        15.87000          -0.465273E-5        0.551413E-5
        15.88000          -0.439993E-5        0.527393E-5
        15.89000          -0.417160E-5        0.503846E-5
        15.90000          -0.396493E-5        0.480833E-5
        15.91000          -0.377755E-5        0.458396E-5
        15.92000          -0.360731E-5        0.436543E-5
        15.93000          -0.345239E-5        0.415278E-5
        15.94000          -0.331113E-5        0.394576E-5
        15.95000          -0.318214E-5        0.374419E-5
        15.96000          -0.306413E-5        0.354764E-5
        15.97000          -0.295605E-5        0.335574E-5
        15.98000          -0.285691E-5        0.316793E-5
        15.99000          -0.276590E-5        0.298369E-5
        16.00000          -0.268229E-5        0.280230E-5
        16.01000          -0.260554E-5        0.262303E-5
        16.02000          -0.253522E-5        0.244495E-5
        16.03000          -0.247112E-5        0.226707E-5
        16.04000          -0.241327E-5        0.208815E-5
        16.05000          -0.236210E-5        0.190692E-5
        16.06000          -0.231847E-5        0.172190E-5
        16.07000          -0.228393E-5        0.153178E-5
        16.08000          -0.226072E-5        0.133534E-5
        16.09000          -0.225195E-5        0.113212E-5
        16.10000          -0.226138E-5        0.922537E-6
        16.11000          -0.229307E-5        0.708562E-6
        16.12000          -0.235070E-5        0.493842E-6
        16.13000          -0.243679E-5        0.283398E-6
        16.14000          -0.255201E-5        0.831960E-7
        16.15000          -0.269517E-5       -0.101108E-6
        16.16000          -0.286361E-5       -0.264699E-6
        16.17000          -0.305422E-5       -0.404132E-6
        16.18000          -0.326397E-5       -0.516715E-6
        16.19000          -0.349032E-5       -0.599996E-6
        16.20000          -0.373063E-5       -0.651024E-6
        16.21000          -0.398165E-5       -0.666283E-6
        16.22000          -0.423851E-5       -0.642075E-6
        16.23000          -0.449466E-5       -0.575442E-6
        16.24000          -0.474177E-5       -0.465372E-6
        16.25000          -0.497115E-5       -0.313624E-6
        16.26000          -0.517501E-5       -0.125052E-6
        16.27000          -0.534834E-5        0.935906E-7
        16.28000          -0.548925E-5        0.335298E-6
        16.29000          -0.559841E-5        0.595081E-6
        16.30000          -0.567683E-5        0.870697E-6
        16.31000          -0.572365E-5        0.116232E-5
        16.32000          -0.573467E-5        0.147004E-5
        16.33000          -0.570275E-5        0.179146E-5
        16.34000          -0.562004E-5        0.211931E-5
        16.35000          -0.548116E-5        0.244160E-5
        16.36000          -0.528611E-5        0.274318E-5
        16.37000          -0.504120E-5        0.300943E-5
        16.38000          -0.475815E-5        0.322911E-5
        16.39000          -0.445127E-5        0.339655E-5
        16.40000          -0.413499E-5        0.351148E-5
        16.41000          -0.382134E-5        0.357804E-5
        16.42000          -0.351938E-5        0.360292E-5
        16.43000          -0.323473E-5        0.359386E-5
        16.44000          -0.297042E-5        0.355842E-5
        16.45000          -0.272722E-5        0.350339E-5
        16.46000          -0.250464E-5        0.343447E-5
        16.47000          -0.230129E-5        0.335629E-5
        16.48000          -0.211524E-5        0.327242E-5
        16.49000          -0.194445E-5        0.318560E-5
        16.50000          -0.178672E-5        0.309786E-5
        16.51000          -0.164002E-5        0.301068E-5
        16.52000          -0.150229E-5        0.292507E-5
        16.53000          -0.137167E-5        0.284173E-5
        16.54000          -0.124631E-5        0.276104E-5
        16.55000          -0.112451E-5        0.268319E-5
        16.56000          -0.100455E-5        0.260809E-5
        16.57000          -0.884807E-6        0.253549E-5
        16.58000          -0.763612E-6        0.246490E-5
        16.59000          -0.639355E-6        0.239558E-5
        16.60000          -0.510344E-6        0.232647E-5
        16.61000          -0.374987E-6        0.225615E-5
        16.62000          -0.231666E-6        0.218272E-5
        16.63000          -0.790119E-7        0.210371E-5
        16.64000           0.841129E-7        0.201592E-5
        16.65000           0.258171E-6        0.191546E-5
        16.66000           0.442788E-6        0.179754E-5
        16.67000           0.636057E-6        0.165680E-5
        16.68000           0.834230E-6        0.148750E-5
        16.69000           0.103098E-5        0.128446E-5
        16.70000           0.121744E-5        0.104397E-5
        16.71000           0.138238E-5        0.765426E-6
        16.72000           0.151370E-5        0.452476E-6
        16.73000           0.160036E-5        0.113932E-6
        16.74000           0.163502E-5       -0.237240E-6
        16.75000           0.161592E-5       -0.585563E-6
        16.76000           0.154740E-5       -0.916434E-6
        16.77000           0.143871E-5       -0.121838E-5
        16.78000           0.130167E-5       -0.148500E-5
        16.79000           0.114827E-5       -0.171464E-5
        16.80000           0.988678E-6       -0.190965E-5
        16.81000           0.830475E-6       -0.207465E-5
        16.82000           0.678353E-6       -0.221528E-5
        16.83000           0.534704E-6       -0.233695E-5
        16.84000           0.400198E-6       -0.244429E-5
        16.85000           0.274427E-6       -0.254088E-5
        16.86000           0.156662E-6       -0.262922E-5
        16.87000           0.460902E-7       -0.271108E-5
        16.88000          -0.578327E-7       -0.278770E-5
        16.89000          -0.155524E-6       -0.286017E-5
        16.90000          -0.247228E-6       -0.292943E-5
        16.91000          -0.333240E-6       -0.299649E-5
        16.92000          -0.413860E-6       -0.306230E-5
        16.93000          -0.489524E-6       -0.312775E-5
        16.94000          -0.560692E-6       -0.319362E-5
        16.95000          -0.627920E-6       -0.326064E-5
        16.96000          -0.691743E-6       -0.332936E-5
        16.97000          -0.752737E-6       -0.340028E-5
        16.98000          -0.811420E-6       -0.347377E-5
        16.99000          -0.868321E-6       -0.355019E-5
        17.00000          -0.923906E-6       -0.362981E-5
        17.01000          -0.978643E-6       -0.371289E-5
        17.02000          -0.103294E-5       -0.379962E-5
        17.03000          -0.108720E-5       -0.389025E-5
        17.04000          -0.114178E-5       -0.398495E-5
        17.05000          -0.119706E-5       -0.408396E-5
        17.06000          -0.125336E-5       -0.418747E-5
        17.07000          -0.131103E-5       -0.429574E-5
        17.08000          -0.137037E-5       -0.440899E-5
        17.09000          -0.143172E-5       -0.452755E-5
        17.10000          -0.149537E-5       -0.465170E-5
        17.11000          -0.156169E-5       -0.478185E-5
        17.12000          -0.163096E-5       -0.491838E-5
        17.13000          -0.170356E-5       -0.506182E-5
        17.14000          -0.177982E-5       -0.521271E-5
        17.15000          -0.186015E-5       -0.537180E-5
        17.16000          -0.194496E-5       -0.553987E-5
        17.17000          -0.203476E-5       -0.571799E-5
        17.18000          -0.213010E-5       -0.590736E-5
        17.19000          -0.223174E-5       -0.610959E-5
        17.20000          -0.234060E-5       -0.632654E-5
        17.21000          -0.245796E-5       -0.656056E-5
        17.22000          -0.258567E-5       -0.681465E-5
        17.23000          -0.272630E-5       -0.709228E-5
        17.24000          -0.288368E-5       -0.739775E-5
        17.25000          -0.306333E-5       -0.773579E-5
        17.26000          -0.327326E-5       -0.811161E-5
        17.27000          -0.352461E-5       -0.852982E-5
        17.28000          -0.383270E-5       -0.899372E-5
        17.29000          -0.421705E-5       -0.950287E-5
        17.30000          -0.470144E-5       -0.100512E-4
        17.31000          -0.531149E-5       -0.106235E-4
        17.32000          -0.607187E-5       -0.111942E-4
        17.33000          -0.700058E-5       -0.117266E-4
        17.34000          -0.810507E-5       -0.121753E-4
        17.35000          -0.937757E-5       -0.124909E-4
        17.36000          -0.107960E-4       -0.126264E-4
        17.37000          -0.123245E-4       -0.125415E-4
        17.38000          -0.139193E-4       -0.122060E-4
        17.39000          -0.155303E-4       -0.116002E-4
        17.40000          -0.171051E-4       -0.107132E-4
        17.41000          -0.185869E-4       -0.954288E-5
        17.42000          -0.199149E-4       -0.809702E-5
        17.43000          -0.210226E-4       -0.639946E-5
        17.44000          -0.218452E-4       -0.449452E-5
        17.45000          -0.223288E-4       -0.245194E-5
        17.46000          -0.224438E-4       -0.359559E-6
        17.47000          -0.221930E-4        0.168672E-5
        17.48000          -0.216114E-4        0.360143E-5
        17.49000          -0.207572E-4        0.531924E-5
        17.50000          -0.196982E-4        0.680189E-5
        17.51000          -0.185022E-4        0.803350E-5
        17.52000          -0.172288E-4        0.901647E-5
        17.53000          -0.159292E-4        0.976422E-5
        17.54000          -0.146438E-4        0.102983E-4
        17.55000          -0.134048E-4        0.106447E-4
        17.56000          -0.122346E-4        0.108320E-4
        17.57000          -0.111477E-4        0.108890E-4
        17.58000          -0.101513E-4        0.108430E-4
        17.59000          -0.924641E-5        0.107182E-4
        17.60000          -0.843058E-5        0.105354E-4
        17.61000          -0.769813E-5        0.103115E-4
        17.62000          -0.704242E-5        0.100599E-4
        17.63000          -0.645579E-5        0.979090E-5
        17.64000          -0.593096E-5        0.951245E-5
        17.65000          -0.546061E-5        0.923022E-5
        17.66000          -0.503829E-5        0.894845E-5
        17.67000          -0.465783E-5        0.866995E-5
        17.68000          -0.431395E-5        0.839681E-5
        17.69000          -0.400169E-5        0.813015E-5
        17.70000          -0.371683E-5        0.787071E-5
        17.71000          -0.345542E-5        0.761862E-5
        17.72000          -0.321411E-5        0.737381E-5
        17.73000          -0.298971E-5        0.713573E-5
        17.74000          -0.277954E-5        0.690368E-5
        17.75000          -0.258103E-5        0.667654E-5
        17.76000          -0.239208E-5        0.645302E-5
        17.77000          -0.221076E-5        0.623137E-5
        17.78000          -0.203567E-5        0.600964E-5
        17.79000          -0.186575E-5        0.578539E-5
        17.80000          -0.170073E-5        0.555607E-5
        17.81000          -0.154098E-5        0.531882E-5
        17.82000          -0.138788E-5        0.507100E-5
        17.83000          -0.124359E-5        0.481024E-5
        17.84000          -0.111109E-5        0.453505E-5
        17.85000          -0.993613E-6        0.424470E-5
        17.86000          -0.894376E-6        0.393952E-5
        17.87000          -0.816128E-6        0.362013E-5
        17.88000          -0.761359E-6        0.328737E-5
        17.89000          -0.732692E-6        0.294158E-5
        17.90000          -0.733614E-6        0.258328E-5
        17.91000          -0.768822E-6        0.221349E-5
        17.92000          -0.843919E-6        0.183524E-5
        17.93000          -0.964426E-6        0.145376E-5
        17.94000          -0.113432E-5        0.107688E-5
        17.95000          -0.135492E-5        0.713755E-6
        17.96000          -0.162474E-5        0.373256E-6
        17.97000          -0.194001E-5        0.630371E-7
        17.98000          -0.229620E-5       -0.211418E-6
        17.99000          -0.268892E-5       -0.446035E-6
        18.00000          -0.311503E-5       -0.637547E-6
        18.01000          -0.357216E-5       -0.782025E-6
        18.02000          -0.405858E-5       -0.874124E-6
        18.03000          -0.457144E-5       -0.906295E-6
        18.04000          -0.510591E-5       -0.868866E-6
        18.05000          -0.565280E-5       -0.750765E-6
        18.06000          -0.619776E-5       -0.541152E-6
        18.07000          -0.671970E-5       -0.232370E-6
        18.08000          -0.719221E-5        0.176760E-6
        18.09000          -0.758564E-5        0.676997E-6
        18.10000          -0.787282E-5        0.124723E-5
        18.11000          -0.803476E-5        0.185498E-5
        18.12000          -0.806615E-5        0.246189E-5
        18.13000          -0.797684E-5        0.303016E-5
        18.14000          -0.778933E-5        0.353030E-5
        18.15000          -0.753314E-5        0.394452E-5
        18.16000          -0.723818E-5        0.426774E-5
        18.17000          -0.693018E-5        0.450429E-5
        18.18000          -0.662803E-5        0.466432E-5
        18.19000          -0.634409E-5        0.475966E-5
        18.20000          -0.608536E-5        0.480127E-5
        18.21000          -0.585598E-5        0.479794E-5
        18.22000          -0.565869E-5        0.475630E-5
        18.23000          -0.549637E-5        0.468153E-5
        18.24000          -0.537216E-5        0.457818E-5
        18.25000          -0.528965E-5        0.445085E-5
        18.26000          -0.525253E-5        0.430438E-5
        18.27000          -0.526451E-5        0.414401E-5
        18.28000          -0.532929E-5        0.397528E-5
        18.29000          -0.545075E-5        0.380416E-5
        18.30000          -0.563299E-5        0.363724E-5
        18.31000          -0.588071E-5        0.348195E-5
        18.32000          -0.619896E-5        0.334725E-5
        18.33000          -0.659339E-5        0.324410E-5
        18.34000          -0.706952E-5        0.318638E-5
        18.35000          -0.763264E-5        0.319169E-5
        18.36000          -0.828605E-5        0.328239E-5
        18.37000          -0.903009E-5        0.348655E-5
        18.38000          -0.985869E-5        0.383835E-5
        18.39000          -0.107568E-4        0.437812E-5
        18.40000          -0.116949E-4        0.515004E-5
        18.41000          -0.126255E-4        0.619864E-5
        18.42000          -0.134781E-4        0.756011E-5
        18.43000          -0.141600E-4        0.925279E-5
        18.44000          -0.145606E-4        0.112626E-4
        18.45000          -0.145661E-4        0.135343E-4
        18.46000          -0.140783E-4        0.159661E-4
        18.47000          -0.130363E-4        0.184207E-4
        18.48000          -0.114308E-4        0.207420E-4
        18.49000          -0.930422E-5        0.227824E-4
        18.50000          -0.674091E-5        0.244189E-4
        18.51000          -0.384716E-5        0.255644E-4
        18.52000          -0.739050E-6        0.261634E-4
        18.53000           0.246898E-5        0.261852E-4
        18.54000           0.566018E-5        0.256174E-4
        18.55000           0.871555E-5        0.244644E-4
        18.56000           0.115073E-4        0.227545E-4
        18.57000           0.139073E-4        0.205486E-4
        18.58000           0.157968E-4        0.179509E-4
        18.59000           0.170907E-4        0.151049E-4
        18.60000           0.177552E-4        0.121820E-4
        18.61000           0.178189E-4        0.935256E-5
        18.62000           0.173657E-4        0.676131E-5
        18.63000           0.165152E-4        0.450459E-5
        18.64000           0.153978E-4        0.262819E-5
        18.65000           0.141328E-4        0.113158E-5
        18.66000           0.128169E-4       -0.159348E-7
        18.67000           0.115202E-4       -0.861951E-6
        18.68000           0.102871E-4       -0.145961E-5
        18.69000           0.914317E-5       -0.185928E-5
        18.70000           0.809879E-5       -0.210551E-5
        18.71000           0.715552E-5       -0.223500E-5
        18.72000           0.630853E-5       -0.227706E-5
        18.73000           0.555042E-5       -0.225417E-5
        18.74000           0.487201E-5       -0.218310E-5
        18.75000           0.426448E-5       -0.207593E-5
        18.76000           0.371924E-5       -0.194091E-5
        18.77000           0.322932E-5       -0.178351E-5
        18.78000           0.278896E-5       -0.160697E-5
        18.79000           0.239450E-5       -0.141332E-5
        18.80000           0.204384E-5       -0.120400E-5
        18.81000           0.173673E-5       -0.980975E-6
        18.82000           0.147371E-5       -0.747157E-6
        18.83000           0.125559E-5       -0.507148E-6
        18.84000           0.108203E-5       -0.266748E-6
        18.85000           0.951048E-6       -0.325134E-7
        18.86000           0.858539E-6        0.189639E-6
        18.87000           0.798930E-6        0.395134E-6
        18.88000           0.765906E-6        0.581526E-6
        18.89000           0.753439E-6        0.748223E-6
        18.90000           0.756395E-6        0.896265E-6
        18.91000           0.770888E-6        0.102751E-5
        18.92000           0.794272E-6        0.114429E-5
        18.93000           0.824986E-6        0.124880E-5
        18.94000           0.862340E-6        0.134308E-5
        18.95000           0.906270E-6        0.142864E-5
        18.96000           0.957199E-6        0.150663E-5
        18.97000           0.101584E-5        0.157763E-5
        18.98000           0.108318E-5        0.164175E-5
        18.99000           0.116027E-5        0.169855E-5
        19.00000           0.124824E-5        0.174699E-5
        19.01000           0.134812E-5        0.178537E-5
        19.02000           0.146071E-5        0.181128E-5
        19.03000           0.158629E-5        0.182146E-5
        19.04000           0.172427E-5        0.181188E-5
        19.05000           0.187288E-5        0.177778E-5
        19.06000           0.202844E-5        0.171409E-5
        19.07000           0.218508E-5        0.161598E-5
        19.08000           0.233430E-5        0.148002E-5
        19.09000           0.246544E-5        0.130539E-5
        19.10000           0.256659E-5        0.109543E-5
        19.11000           0.262668E-5        0.858139E-6
        19.12000           0.263780E-5        0.606122E-6
        19.13000           0.259729E-5        0.354440E-6
        19.14000           0.250852E-5        0.118163E-6
        19.15000           0.237990E-5       -0.906658E-7
        19.16000           0.222294E-5       -0.264453E-6
        19.17000           0.204958E-5       -0.400595E-6
        19.18000           0.187056E-5       -0.500397E-6
        19.19000           0.169407E-5       -0.567844E-6
        19.20000           0.152589E-5       -0.608121E-6
        19.21000           0.136934E-5       -0.626664E-6
        19.22000           0.122610E-5       -0.628487E-6
        19.23000           0.109651E-5       -0.617905E-6
        19.24000           0.980209E-6       -0.598444E-6
        19.25000           0.876293E-6       -0.572880E-6
        19.26000           0.783724E-6       -0.543368E-6
        19.27000           0.701325E-6       -0.511501E-6
        19.28000           0.628000E-6       -0.478483E-6
        19.29000           0.562668E-6       -0.445171E-6
        19.30000           0.504394E-6       -0.412193E-6
        19.31000           0.452299E-6       -0.379972E-6
        19.32000           0.405643E-6       -0.348808E-6
        19.33000           0.363747E-6       -0.318889E-6
        19.34000           0.326047E-6       -0.290333E-6
        19.35000           0.292026E-6       -0.263202E-6
        19.36000           0.261258E-6       -0.237518E-6
        19.37000           0.233357E-6       -0.213274E-6
        19.38000           0.208000E-6       -0.190451E-6
        19.39000           0.184894E-6       -0.169007E-6
        19.40000           0.163793E-6       -0.148893E-6
        19.41000           0.144485E-6       -0.130068E-6
        19.42000           0.126772E-6       -0.112466E-6
        19.43000           0.110494E-6       -0.960389E-7
        19.44000           0.954994E-7       -0.807277E-7
        19.45000           0.816656E-7       -0.664801E-7
        19.46000           0.688741E-7       -0.532415E-7
        19.47000           0.570294E-7       -0.409623E-7
        19.48000           0.460386E-7       -0.295946E-7
        19.49000           0.358265E-7       -0.190935E-7
        19.50000           0.263195E-7       -0.940607E-8
        19.51000           0.174583E-7       -0.50366E-09
        19.52000           0.918380E-8        0.766227E-8
        19.53000           0.144849E-8        0.151243E-7
        19.54000          -0.579528E-8        0.219194E-7
        19.55000          -0.125858E-7        0.280786E-7
        19.56000          -0.189619E-7        0.336318E-7
        19.57000          -0.249548E-7        0.386116E-7
        19.58000          -0.305965E-7        0.430418E-7
        19.59000          -0.359121E-7        0.469487E-7
        19.60000          -0.409287E-7        0.503561E-7
        19.61000          -0.456666E-7        0.532837E-7
        19.62000          -0.501484E-7        0.557588E-7
        19.63000          -0.543915E-7        0.577951E-7
        19.64000          -0.584143E-7        0.594126E-7
        19.65000          -0.622316E-7        0.606318E-7
        19.66000          -0.658591E-7        0.614632E-7
        19.67000          -0.693091E-7        0.619272E-7
        19.68000          -0.725951E-7        0.620351E-7
        19.69000          -0.757273E-7        0.618009E-7
        19.70000          -0.787176E-7        0.612363E-7
        19.71000          -0.815745E-7        0.603558E-7
        19.72000          -0.843083E-7        0.591685E-7
        19.73000          -0.869265E-7        0.576821E-7
        19.74000          -0.894376E-7        0.559132E-7
        19.75000          -0.918490E-7        0.538632E-7
        19.76000          -0.941668E-7        0.515459E-7
        19.77000          -0.963982E-7        0.489678E-7
        19.78000          -0.985488E-7        0.461348E-7
        19.79000          -0.100625E-6        0.430564E-7
        19.80000          -0.102630E-6        0.397381E-7
        19.81000          -0.104572E-6        0.361829E-7
        19.82000          -0.106453E-6        0.324005E-7
        19.83000          -0.108279E-6        0.283941E-7
        19.84000          -0.110054E-6        0.241691E-7
        19.85000          -0.111781E-6        0.197294E-7
        19.86000          -0.113465E-6        0.150812E-7
        19.87000          -0.115109E-6        0.102247E-7
        19.88000          -0.116717E-6        0.516586E-8
        19.89000          -0.118292E-6       -0.93812E-10
        19.90000          -0.119836E-6       -0.555008E-8
        19.91000          -0.121354E-6       -0.112030E-7
        19.92000          -0.122848E-6       -0.170456E-7
        19.93000          -0.124321E-6       -0.230824E-7
        19.94000          -0.125775E-6       -0.293066E-7
        19.95000          -0.127213E-6       -0.357189E-7
        19.96000          -0.128637E-6       -0.423178E-7
        19.97000          -0.130051E-6       -0.491029E-7
        19.98000          -0.131455E-6       -0.560720E-7
        19.99000          -0.132853E-6       -0.632283E-7
        20.00000          -0.134246E-6       -0.705673E-7
# 
# 06/20/2023 at 00:40 yambo @ unimi-XPS-8930 [start]
# 06/20/2023 at 00:40                        [end]
#
# .-Input file  yambo.in
# | rim_cut                          # [R] Coulomb potential
# | optics                           # [R] Linear Response optical properties
# | dipoles                          # [R] Oscillator strenghts (or dipoles)
# | bse                              # [R][BSE] Bethe Salpeter Equation.
# | ElecTemp= 0.025861         eV    # Electronic Temperature
# | BoseTemp= 0.025861         eV    # Bosonic Temperature
# | DIP_Threads= 1                   # [OPENMP/X] Number of threads for dipoles
# | BS_nCPU_LinAlg_INV= 1            # [PARALLEL] CPUs for Linear Algebra (if -1 it is automatically set)
# | BS_nCPU_LinAlg_DIAGO= 1          # [PARALLEL] CPUs for Linear Algebra (if -1 it is automatically set)
# | X_Threads= 1                     # [OPENMP/X] Number of threads for response functions
# | K_Threads= 1                     # [OPENMP/BSK] Number of threads for response functions
# | RandQpts=0                       # [RIM] Number of random q-points in the BZ
# | RandGvec= 1                RL    # [RIM] Coulomb interaction RS components
# | CUTGeo= "ws xyz"                 # [CUT] Coulomb Cutoff geometry: box/cylinder/sphere/ws/slab X/Y/Z/XY..
# | % CUTBox
# |  0.000000 | 0.000000 | 0.000000 |        # [CUT] [au] Box sides
# | %
# | CUTRadius= 0.000000              # [CUT] [au] Sphere/Cylinder radius
# | CUTCylLen= 0.000000              # [CUT] [au] Cylinder length
# | CUTwsGvec= 0.700000              # [CUT] WS cutoff: number of G to be modified
# | BSKmod= "IP"                     # [BSE] IP/Hartree/HF/ALDA/SEX/BSfxc
# | BSEmod= "retarded"               # [BSE] resonant/retarded/coupling
# | Lkind= "Lbar"                    # [BSE,X] bar(default)/full
# | DipBandsALL                    # [DIP] Compute all bands range, not only valence and conduction
# | DipComputed= "R V P"             # [DIP] [default R P V; extra P2 Spin Orb]
# | DbGdQsize= 1.000000              # [X,DbGd][o/o] Percentual of the total DbGd transitions to be used
# | BSENGexx= 20395            RL    # [BSK] Exchange components
# | % BSEQptR
# |  1 | 1 |                             # [BSK] Transferred momenta range
# | %
# | % BSEBands
# |   1 | 20 |                           # [BSK] Bands range
# | %
# | % BEnRange
# |   0.00000 | 20.00000 |         eV    # [BSS] Energy range
# | %
# | % BDmRange
# |  0.100000 | 0.100000 |         eV    # [BSS] Damping range
# | %
# | BEnSteps= 2001                   # [BSS] Energy steps
# | % BLongDir
# |  1.000000 | 0.000000 | 0.000000 |        # [BSS] [cc] Electric Field versor
# | %
# | BSEprop= "abs dichr jdos"        # [BSS] Can be any among abs/jdos/kerr/magn/dich/photolum/esrt
