#                                                                     
# :   :::   :::     ::::    ::::  :::::::::   ::::::::                
# :+:   :+: :+: :+:   +:+:+: :+:+:+ :+:    :+: :+:    :+              
#  +:+ +:+ +:+   +:+  +:+ +:+:+ +:+ +:+    +:+ +:+    +:+             
#   +#++: +#++:++#++: +#+  +:+  +#+ +#++:++#+  +#+    +:+             
#    +#+  +#+     +#+ +#+       +#+ +#+    +#+ +#+    +#+             
#    #+#  #+#     #+# #+#       #+# #+#    #+# #+#    #+#             
#    ###  ###     ### ###       ### #########   ########              
#                                                                     
#                                                                     
# Version 5.2.0 Revision 22368 Hash (prev commit) b42959ab6a          
#                    Branch is develop                                
#         MPI+OpenMP+SLK+SLEPC+HDF5_MPI_IO Build                      
#                http://www.yambo-code.org                            
#
# Absorption @ Q(1):  0.999999975E-5   0.00000000      0.00000000    [q->0 direction]
#
# [GEN] GF Energies                               : Perdew, Burke & Ernzerhof(X)+Perdew, Burke & Ernzerhof(C)
# [GEN] Green`s Function                          : Retarded
#
# [GEN] Gauge                                     : Length
# [GEN] [r,Vnl] included                          : yes
#
# DIP band range                                  :   1  20
# DIP band range limits                           :  20   1
# DIP e/h energy range                            :  -1.00000000     -1.00000000    [eV]
# RL vectors in the sum                           :  2637
# [r,Vnl] included                                : yes
# Bands ordered                                   : no
# Direct v evaluation                             : no
# Approach used                                   : G-space v
# Dipoles computed                                : R V P
# Wavefunctions                                   : Perdew, Burke & Ernzerhof(X)+Perdew, Burke & Ernzerhof(C)
#
# Diamagnetic term                                
# Ao                                              :  -8.00000000    [nel]
#
#    E[1] [eV]          Im(eps)            Re(eps)
#
        0.000000           0.000000           1.000000
        0.010000           0.61262E-13        1.000000
        0.020000           0.12253E-12        1.000000
        0.030000           0.18379E-12        1.000000
        0.040000           0.24507E-12        1.000000
        0.050000           0.30635E-12        1.000000
        0.060000           0.36764E-12        1.000000
        0.070000           0.42894E-12        1.000000
        0.080000           0.49025E-12        1.000000
        0.090000           0.55159E-12        1.000000
        0.100000           0.61293E-12        1.000000
        0.110000           0.67430E-12        1.000000
        0.120000           0.73568E-12        1.000000
        0.130000           0.79709E-12        1.000000
        0.140000           0.85852E-12        1.000000
        0.150000           0.91998E-12        1.000000
        0.160000           0.98147E-12        1.000000
        0.170000           0.10430E-11        1.000000
        0.180000           0.11045E-11        1.000000
        0.190000           0.11661E-11        1.000000
        0.200000           0.12277E-11        1.000000
        0.210000           0.12894E-11        1.000000
        0.220000           0.13511E-11        1.000000
        0.230000           0.14128E-11        1.000000
        0.240000           0.14746E-11        1.000000
        0.250000           0.15364E-11        1.000000
        0.260000           0.15983E-11        1.000000
        0.270000           0.16602E-11        1.000000
        0.280000           0.17222E-11        1.000000
        0.290000           0.17842E-11        1.000000
        0.300000           0.18463E-11        1.000000
        0.310000           0.19084E-11        1.000000
        0.320000           0.19706E-11        1.000000
        0.330000           0.20329E-11        1.000000
        0.340000           0.20952E-11        1.000000
        0.350000           0.21576E-11        1.000000
        0.360000           0.22201E-11        1.000000
        0.370000           0.22826E-11        1.000000
        0.380000           0.23452E-11        1.000000
        0.390000           0.24078E-11        1.000000
        0.400000           0.24706E-11        1.000000
        0.410000           0.25334E-11        1.000000
        0.420000           0.25963E-11        1.000000
        0.430000           0.26592E-11        1.000000
        0.440000           0.27223E-11        1.000000
        0.450000           0.27854E-11        1.000000
        0.460000           0.28487E-11        1.000000
        0.470000           0.29120E-11        1.000000
        0.480000           0.29754E-11        1.000000
        0.490000           0.30389E-11        1.000000
        0.500000           0.31025E-11        1.000000
        0.510000           0.31662E-11        1.000000
        0.520000           0.32300E-11        1.000000
        0.530000           0.32939E-11        1.000000
        0.540000           0.33579E-11        1.000000
        0.550000           0.34220E-11        1.000000
        0.560000           0.34862E-11        1.000000
        0.570000           0.35505E-11        1.000000
        0.580000           0.36149E-11        1.000000
        0.590000           0.36795E-11        1.000000
        0.600000           0.37441E-11        1.000000
        0.610000           0.38089E-11        1.000000
        0.620000           0.38738E-11        1.000000
        0.630000           0.39388E-11        1.000000
        0.640000           0.40040E-11        1.000000
        0.650000           0.40692E-11        1.000000
        0.660000           0.41346E-11        1.000000
        0.670000           0.42002E-11        1.000000
        0.680000           0.42658E-11        1.000000
        0.690000           0.43316E-11        1.000000
        0.700000           0.43976E-11        1.000000
        0.710000           0.44637E-11        1.000000
        0.720000           0.45299E-11        1.000000
        0.730000           0.45962E-11        1.000000
        0.740000           0.46628E-11        1.000000
        0.750000           0.47294E-11        1.000000
        0.760000           0.47963E-11        1.000000
        0.770000           0.48632E-11        1.000000
        0.780000           0.49304E-11        1.000000
        0.790000           0.49977E-11        1.000000
        0.800000           0.50651E-11        1.000000
        0.810000           0.51327E-11        1.000000
        0.820000           0.52005E-11        1.000000
        0.830000           0.52685E-11        1.000000
        0.840000           0.53366E-11        1.000000
        0.850000           0.54049E-11        1.000000
        0.860000           0.54734E-11        1.000000
        0.870000           0.55420E-11        1.000000
        0.880000           0.56108E-11        1.000000
        0.890000           0.56799E-11        1.000000
        0.900000           0.57491E-11        1.000000
        0.910000           0.58185E-11        1.000000
        0.920000           0.58881E-11        1.000000
        0.930000           0.59578E-11        1.000000
        0.940000           0.60278E-11        1.000000
        0.950000           0.60980E-11        1.000000
        0.960000           0.61684E-11        1.000000
        0.970000           0.62390E-11        1.000000
        0.980000           0.63098E-11        1.000000
        0.990000           0.63808E-11        1.000000
        1.000000           0.64520E-11        1.000000
        1.010000           0.65234E-11        1.000000
        1.020000           0.65951E-11        1.000000
        1.030000           0.66670E-11        1.000000
        1.040000           0.67391E-11        1.000000
        1.050000           0.68114E-11        1.000000
        1.060000           0.68840E-11        1.000000
        1.070000           0.69568E-11        1.000000
        1.080000           0.70298E-11        1.000000
        1.090000           0.71031E-11        1.000000
        1.100000           0.71766E-11        1.000000
        1.110000           0.72504E-11        1.000000
        1.120000           0.73244E-11        1.000000
        1.130000           0.73987E-11        1.000000
        1.140000           0.74732E-11        1.000000
        1.150000           0.75480E-11        1.000000
        1.160000           0.76230E-11        1.000000
        1.170000           0.76983E-11        1.000000
        1.180000           0.77739E-11        1.000000
        1.190000           0.78497E-11        1.000000
        1.200000           0.79258E-11        1.000000
        1.210000           0.80022E-11        1.000000
        1.220000           0.80789E-11        1.000000
        1.230000           0.81559E-11        1.000000
        1.240000           0.82331E-11        1.000000
        1.250000           0.83106E-11        1.000000
        1.260000           0.83885E-11        1.000000
        1.270000           0.84666E-11        1.000000
        1.280000           0.85450E-11        1.000000
        1.290000           0.86238E-11        1.000000
        1.300000           0.87028E-11        1.000000
        1.310000           0.87822E-11        1.000000
        1.320000           0.88619E-11        1.000000
        1.330000           0.89418E-11        1.000000
        1.340000           0.90222E-11        1.000000
        1.350000           0.91028E-11        1.000000
        1.360000           0.91838E-11        1.000000
        1.370000           0.92651E-11        1.000000
        1.380000           0.93467E-11        1.000000
        1.390000           0.94287E-11        1.000000
        1.400000           0.95111E-11        1.000000
        1.410000           0.95938E-11        1.000000
        1.420000           0.96768E-11        1.000000
        1.430000           0.97602E-11        1.000000
        1.440000           0.98440E-11        1.000000
        1.450000           0.99281E-11        1.000000
        1.460000           0.10013E-10        1.000000
        1.470000           0.10097E-10        1.000000
        1.480000           0.10183E-10        1.000000
        1.490000           0.10268E-10        1.000000
        1.500000           0.10354E-10        1.000000
        1.510000           0.10441E-10        1.000000
        1.520000           0.10528E-10        1.000000
        1.530000           0.10615E-10        1.000000
        1.540000           0.10702E-10        1.000000
        1.550000           0.10791E-10        1.000000
        1.560000           0.10879E-10        1.000000
        1.570000           0.10968E-10        1.000000
        1.580000           0.11057E-10        1.000000
        1.590000           0.11147E-10        1.000000
        1.600000           0.11237E-10        1.000000
        1.610000           0.11328E-10        1.000000
        1.620000           0.11419E-10        1.000000
        1.630000           0.11510E-10        1.000000
        1.640000           0.11602E-10        1.000000
        1.650000           0.11694E-10        1.000000
        1.660000           0.11787E-10        1.000000
        1.670000           0.11881E-10        1.000000
        1.680000           0.11974E-10        1.000000
        1.690000           0.12069E-10        1.000000
        1.700000           0.12164E-10        1.000000
        1.710000           0.12259E-10        1.000000
        1.720000           0.12355E-10        1.000000
        1.730000           0.12451E-10        1.000000
        1.740000           0.12548E-10        1.000000
        1.750000           0.12645E-10        1.000000
        1.760000           0.12743E-10        1.000000
        1.770000           0.12841E-10        1.000000
        1.780000           0.12940E-10        1.000000
        1.790000           0.13039E-10        1.000000
        1.800000           0.13139E-10        1.000000
        1.810000           0.13240E-10        1.000000
        1.820000           0.13341E-10        1.000000
        1.830000           0.13443E-10        1.000000
        1.840000           0.13545E-10        1.000000
        1.850000           0.13647E-10        1.000000
        1.860000           0.13751E-10        1.000000
        1.870000           0.13855E-10        1.000000
        1.880000           0.13959E-10        1.000000
        1.890000           0.14064E-10        1.000000
        1.900000           0.14170E-10        1.000000
        1.910000           0.14276E-10        1.000000
        1.920000           0.14383E-10        1.000000
        1.930000           0.14491E-10        1.000000
        1.940000           0.14599E-10        1.000000
        1.950000           0.14708E-10        1.000000
        1.960000           0.14818E-10        1.000000
        1.970000           0.14928E-10        1.000000
        1.980000           0.15039E-10        1.000000
        1.990000           0.15150E-10        1.000000
        2.000000           0.15263E-10        1.000000
        2.010000           0.15375E-10        1.000000
        2.020000           0.15489E-10        1.000000
        2.030000           0.15603E-10        1.000000
        2.040000           0.15718E-10        1.000000
        2.050000           0.15834E-10        1.000000
        2.060000           0.15951E-10        1.000000
        2.070000           0.16068E-10        1.000000
        2.080000           0.16186E-10        1.000000
        2.090000           0.16305E-10        1.000000
        2.100000           0.16424E-10        1.000000
        2.110000           0.16544E-10        1.000000
        2.120000           0.16665E-10        1.000000
        2.130000           0.16787E-10        1.000000
        2.140000           0.16910E-10        1.000000
        2.150000           0.17033E-10        1.000000
        2.160000           0.17158E-10        1.000000
        2.170000           0.17283E-10        1.000000
        2.180000           0.17409E-10        1.000000
        2.190000           0.17536E-10        1.000000
        2.200000           0.17663E-10        1.000000
        2.210000           0.17792E-10        1.000000
        2.220000           0.17921E-10        1.000000
        2.230000           0.18051E-10        1.000000
        2.240000           0.18183E-10        1.000000
        2.250000           0.18315E-10        1.000000
        2.260000           0.18448E-10        1.000000
        2.270000           0.18582E-10        1.000000
        2.280000           0.18717E-10        1.000000
        2.290000           0.18853E-10        1.000000
        2.300000           0.18990E-10        1.000000
        2.310000           0.19127E-10        1.000000
        2.320000           0.19266E-10        1.000000
        2.330000           0.19406E-10        1.000000
        2.340000           0.19547E-10        1.000000
        2.350000           0.19689E-10        1.000000
        2.360000           0.19832E-10        1.000000
        2.370000           0.19976E-10        1.000000
        2.380000           0.20121E-10        1.000000
        2.390000           0.20267E-10        1.000000
        2.400000           0.20414E-10        1.000000
        2.410000           0.20563E-10        1.000000
        2.420000           0.20712E-10        1.000000
        2.430000           0.20863E-10        1.000000
        2.440000           0.21015E-10        1.000000
        2.450000           0.21168E-10        1.000000
        2.460000           0.21322E-10        1.000000
        2.470000           0.21477E-10        1.000000
        2.480000           0.21634E-10        1.000000
        2.490000           0.21791E-10        1.000000
        2.500000           0.21950E-10        1.000000
        2.510000           0.22111E-10        1.000000
        2.520000           0.22272E-10        1.000000
        2.530000           0.22435E-10        1.000000
        2.540000           0.22599E-10        1.000000
        2.550000           0.22765E-10        1.000000
        2.560000           0.22932E-10        1.000000
        2.570000           0.23100E-10        1.000000
        2.580000           0.23269E-10        1.000000
        2.590000           0.23440E-10        1.000000
        2.600000           0.23613E-10        1.000000
        2.610000           0.23787E-10        1.000000
        2.620000           0.23962E-10        1.000000
        2.630000           0.24139E-10        1.000000
        2.640000           0.24317E-10        1.000000
        2.650000           0.24497E-10        1.000000
        2.660000           0.24678E-10        1.000000
        2.670000           0.24861E-10        1.000000
        2.680000           0.25045E-10        1.000000
        2.690000           0.25231E-10        1.000000
        2.700000           0.25419E-10        1.000000
        2.710000           0.25608E-10        1.000000
        2.720000           0.25799E-10        1.000000
        2.730000           0.25991E-10        1.000000
        2.740000           0.26186E-10        1.000000
        2.750000           0.26382E-10        1.000000
        2.760000           0.26580E-10        1.000000
        2.770000           0.26779E-10        1.000000
        2.780000           0.26980E-10        1.000000
        2.790000           0.27184E-10        1.000000
        2.800000           0.27389E-10        1.000000
        2.810000           0.27596E-10        1.000000
        2.820000           0.27805E-10        1.000000
        2.830000           0.28015E-10        1.000000
        2.840000           0.28228E-10        1.000000
        2.850000           0.28443E-10        1.000000
        2.860000           0.28659E-10        1.000000
        2.870000           0.28878E-10        1.000000
        2.880000           0.29099E-10        1.000000
        2.890000           0.29322E-10        1.000000
        2.900000           0.29547E-10        1.000000
        2.910000           0.29774E-10        1.000000
        2.920000           0.30004E-10        1.000000
        2.930000           0.30236E-10        1.000000
        2.940000           0.30470E-10        1.000000
        2.950000           0.30706E-10        1.000000
        2.960000           0.30944E-10        1.000000
        2.970000           0.31185E-10        1.000000
        2.980000           0.31429E-10        1.000000
        2.990000           0.31674E-10        1.000000
        3.000000           0.31923E-10        1.000000
        3.010000           0.32174E-10        1.000000
        3.020000           0.32427E-10        1.000000
        3.030000           0.32683E-10        1.000000
        3.040000           0.32941E-10        1.000000
        3.050000           0.33202E-10        1.000000
        3.060000           0.33466E-10        1.000000
        3.070000           0.33733E-10        1.000000
        3.080000           0.34002E-10        1.000000
        3.090000           0.34275E-10        1.000000
        3.100000           0.34550E-10        1.000000
        3.110000           0.34828E-10        1.000000
        3.120000           0.35109E-10        1.000000
        3.130000           0.35393E-10        1.000000
        3.140000           0.35680E-10        1.000000
        3.150000           0.35971E-10        1.000000
        3.160000           0.36264E-10        1.000000
        3.170000           0.36561E-10        1.000000
        3.180000           0.36861E-10        1.000000
        3.190000           0.37164E-10        1.000000
        3.200000           0.37470E-10        1.000000
        3.210000           0.37780E-10        1.000000
        3.220000           0.38094E-10        1.000000
        3.230000           0.38411E-10        1.000000
        3.240000           0.38732E-10        1.000000
        3.250000           0.39056E-10        1.000000
        3.260000           0.39384E-10        1.000000
        3.270000           0.39716E-10        1.000000
        3.280000           0.40052E-10        1.000000
        3.290000           0.40391E-10        1.000000
        3.300000           0.40735E-10        1.000000
        3.310000           0.41082E-10        1.000000
        3.320000           0.41434E-10        1.000000
        3.330000           0.41790E-10        1.000000
        3.340000           0.42150E-10        1.000000
        3.350000           0.42515E-10        1.000000
        3.360000           0.42884E-10        1.000000
        3.370000           0.43257E-10        1.000000
        3.380000           0.43635E-10        1.000000
        3.390000           0.44018E-10        1.000000
        3.400000           0.44405E-10        1.000000
        3.410000           0.44797E-10        1.000000
        3.420000           0.45195E-10        1.000000
        3.430000           0.45597E-10        1.000000
        3.440000           0.46004E-10        1.000000
        3.450000           0.46416E-10        1.000000
        3.460000           0.46834E-10        1.000000
        3.470000           0.47257E-10        1.000000
        3.480000           0.47685E-10        1.000000
        3.490000           0.48119E-10        1.000000
        3.500000           0.48559E-10        1.000000
        3.510000           0.49004E-10        1.000000
        3.520000           0.49456E-10        1.000000
        3.530000           0.49913E-10        1.000000
        3.540000           0.50377E-10        1.000000
        3.550000           0.50846E-10        1.000000
        3.560000           0.51322E-10        1.000000
        3.570000           0.51805E-10        1.000000
        3.580000           0.52294E-10        1.000000
        3.590000           0.52790E-10        1.000000
        3.600000           0.53292E-10        1.000000
        3.610000           0.53802E-10        1.000000
        3.620000           0.54319E-10        1.000000
        3.630000           0.54843E-10        1.000000
        3.640000           0.55374E-10        1.000000
        3.650000           0.55914E-10        1.000000
        3.660000           0.56460E-10        1.000000
        3.670000           0.57015E-10        1.000000
        3.680000           0.57578E-10        1.000000
        3.690000           0.58149E-10        1.000000
        3.700000           0.58728E-10        1.000000
        3.710000           0.59316E-10        1.000000
        3.720000           0.59912E-10        1.000000
        3.730000           0.60518E-10        1.000000
        3.740000           0.61133E-10        1.000000
        3.750000           0.61757E-10        1.000000
        3.760000           0.62390E-10        1.000000
        3.770000           0.63033E-10        1.000000
        3.780000           0.63686E-10        1.000000
        3.790000           0.64349E-10        1.000000
        3.800000           0.65023E-10        1.000000
        3.810000           0.65707E-10        1.000000
        3.820000           0.66402E-10        1.000000
        3.830000           0.67108E-10        1.000000
        3.840000           0.67825E-10        1.000000
        3.850000           0.68554E-10        1.000000
        3.860000           0.69295E-10        1.000000
        3.870000           0.70047E-10        1.000000
        3.880000           0.70812E-10        1.000000
        3.890000           0.71590E-10        1.000000
        3.900000           0.72381E-10        1.000000
        3.910000           0.73185E-10        1.000000
        3.920000           0.74003E-10        1.000000
        3.930000           0.74834E-10        1.000000
        3.940000           0.75680E-10        1.000000
        3.950000           0.76540E-10        1.000000
        3.960000           0.77415E-10        1.000000
        3.970000           0.78306E-10        1.000000
        3.980000           0.79212E-10        1.000000
        3.990000           0.80134E-10        1.000000
        4.000000           0.81073E-10        1.000000
        4.010000           0.82028E-10        1.000000
        4.020000           0.83001E-10        1.000000
        4.030000           0.83992E-10        1.000000
        4.040000           0.85000E-10        1.000000
        4.050000           0.86028E-10        1.000000
        4.060000           0.87074E-10        1.000000
        4.070000           0.88140E-10        1.000000
        4.080000           0.89226E-10        1.000000
        4.090000           0.90333E-10        1.000000
        4.100000           0.91461E-10        1.000000
        4.110000           0.92611E-10        1.000000
        4.120000           0.93784E-10        1.000000
        4.130000           0.94979E-10        1.000000
        4.140000           0.96198E-10        1.000000
        4.150000           0.97441E-10        1.000000
        4.160000           0.98709E-10        1.000000
        4.170000           0.10000E-09        1.000000
        4.180000           0.10132E-09        1.000000
        4.190000           0.10267E-09        1.000000
        4.200000           0.10405E-09        1.000000
        4.210000           0.10545E-09        1.000000
        4.220000           0.10688E-09        1.000000
        4.230000           0.10835E-09        1.000000
        4.240000           0.10984E-09        1.000000
        4.250000           0.11137E-09        1.000000
        4.260000           0.11293E-09        1.000000
        4.270000           0.11452E-09        1.000000
        4.280000           0.11616E-09        1.000000
        4.290000           0.11782E-09        1.000000
        4.300000           0.11953E-09        1.000000
        4.310000           0.12127E-09        1.000000
        4.320000           0.12305E-09        1.000000
        4.330000           0.12487E-09        1.000000
        4.340000           0.12674E-09        1.000000
        4.350000           0.12865E-09        1.000000
        4.360000           0.13061E-09        1.000000
        4.370000           0.13261E-09        1.000000
        4.380000           0.13466E-09        1.000000
        4.390000           0.13676E-09        1.000000
        4.400000           0.13891E-09        1.000000
        4.410000           0.14112E-09        1.000000
        4.420000           0.14338E-09        1.000000
        4.430000           0.14569E-09        1.000000
        4.440000           0.14807E-09        1.000000
        4.450000           0.15051E-09        1.000000
        4.460000           0.15301E-09        1.000000
        4.470000           0.15558E-09        1.000000
        4.480000           0.15821E-09        1.000000
        4.490000           0.16092E-09        1.000000
        4.500000           0.16370E-09        1.000000
        4.510000           0.16656E-09        1.000000
        4.520000           0.16949E-09        1.000000
        4.530000           0.17251E-09        1.000000
        4.540000           0.17561E-09        1.000000
        4.550000           0.17880E-09        1.000000
        4.560000           0.18208E-09        1.000000
        4.570000           0.18546E-09        1.000000
        4.580000           0.18894E-09        1.000000
        4.590000           0.19252E-09        1.000000
        4.600000           0.19621E-09        1.000000
        4.610000           0.20001E-09        1.000000
        4.620000           0.20392E-09        1.000000
        4.630000           0.20796E-09        1.000000
        4.640000           0.21213E-09        1.000000
        4.650000           0.21643E-09        1.000000
        4.660000           0.22087E-09        1.000000
        4.670000           0.22545E-09        1.000000
        4.680000           0.23019E-09        1.000000
        4.690000           0.23508E-09        1.000000
        4.700000           0.24014E-09        1.000000
        4.710000           0.24537E-09        1.000000
        4.720000           0.25079E-09        1.000000
        4.730000           0.25639E-09        1.000000
        4.740000           0.26220E-09        1.000000
        4.750000           0.26821E-09        1.000000
        4.760000           0.27444E-09        1.000000
        4.770000           0.28091E-09        1.000000
        4.780000           0.28761E-09        1.000000
        4.790000           0.29457E-09        1.000000
        4.800000           0.30180E-09        1.000000
        4.810000           0.30932E-09        1.000000
        4.820000           0.31713E-09        1.000000
        4.830000           0.32525E-09        1.000000
        4.840000           0.33371E-09        1.000000
        4.850000           0.34252E-09        1.000000
        4.860000           0.35170E-09        1.000000
        4.870000           0.36127E-09        1.000000
        4.880000           0.37125E-09        1.000000
        4.890000           0.38168E-09        1.000000
        4.900000           0.39257E-09        1.000000
        4.910000           0.40395E-09        1.000000
        4.920000           0.41586E-09        1.000000
        4.930000           0.42833E-09        1.000000
        4.940000           0.44140E-09        1.000000
        4.950000           0.45510E-09        1.000000
        4.960000           0.46947E-09        1.000000
        4.970000           0.48457E-09        1.000000
        4.980000           0.50044E-09        1.000000
        4.990000           0.51714E-09        1.000000
        5.000000           0.53472E-09        1.000000
        5.010000           0.55325E-09        1.000000
        5.020000           0.57279E-09        1.000000
        5.030000           0.59344E-09        1.000000
        5.040000           0.61526E-09        1.000000
        5.050000           0.63836E-09        1.000000
        5.060000           0.66282E-09        1.000000
        5.070000           0.68877E-09        1.000000
        5.080000           0.71633E-09        1.000000
        5.090000           0.74562E-09        1.000000
        5.100000           0.77681E-09        1.000000
        5.110000           0.81005E-09        1.000000
        5.120000           0.84554E-09        1.000000
        5.130000           0.88347E-09        1.000000
        5.140000           0.92407E-09        1.000000
        5.150000           0.96760E-09        1.000000
        5.160000           0.101434E-8        1.000000
        5.170000           0.106462E-8        1.000000
        5.180000           0.111879E-8        1.000000
        5.190000           0.117726E-8        1.000000
        5.200000           0.124048E-8        1.000000
        5.210000           0.130897E-8        1.000000
        5.220000           0.138332E-8        1.000000
        5.230000           0.146419E-8        1.000000
        5.240000           0.155235E-8        1.000000
        5.250000           0.164865E-8        1.000000
        5.260000           0.175409E-8        1.000000
        5.270000           0.186981E-8        1.000000
        5.280000           0.199712E-8        1.000000
        5.290000           0.213750E-8        1.000000
        5.300000           0.229269E-8        1.000000
        5.310000           0.246468E-8        1.000000
        5.320000           0.265577E-8        1.000000
        5.330000           0.286858E-8        1.000000
        5.340000           0.310614E-8        1.000000
        5.350000           0.337192E-8        1.000000
        5.360000           0.366986E-8        1.000000
        5.370000           0.400436E-8        1.000000
        5.380000           0.438032E-8        1.000000
        5.390000           0.480303E-8        1.000000
        5.400000           0.527801E-8        1.000000
        5.410000           0.581060E-8        1.000000
        5.420000           0.640549E-8        1.000000
        5.430000           0.706568E-8        1.000000
        5.440000           0.779115E-8        1.000000
        5.450000           0.857686E-8        1.000000
        5.460000           0.941033E-8        1.000000
        5.470000           0.102689E-7        1.000000
        5.480000           0.111178E-7        1.000000
        5.490000           0.119092E-7        1.000000
        5.500000           0.125858E-7        1.000000
        5.510000           0.130877E-7        1.000000
        5.520000           0.133637E-7        1.000000
        5.530000           0.133835E-7        1.000000
        5.540000           0.131456E-7        1.000000
        5.550000           0.126776E-7        1.000000
        5.560000           0.120290E-7        1.000000
        5.570000           0.112596E-7        1.000000
        5.580000           0.104274E-7        1.000000
        5.590000           0.958127E-8        1.000000
        5.600000           0.875756E-8        1.000000
        5.610000           0.798008E-8        1.000000
        5.620000           0.726228E-8        1.000000
        5.630000           0.660990E-8        1.000000
        5.640000           0.602343E-8        1.000000
        5.650000           0.550013E-8        1.000000
        5.660000           0.503555E-8        1.000000
        5.670000           0.462439E-8        1.000000
        5.680000           0.426121E-8        1.000000
        5.690000           0.394078E-8        1.000000
        5.700000           0.365824E-8        1.000000
        5.710000           0.340920E-8        1.000000
        5.720000           0.318977E-8        1.000000
        5.730000           0.299657E-8        1.000000
        5.740000           0.282663E-8        1.000000
        5.750000           0.267741E-8        1.000000
        5.760000           0.254673E-8        1.000000
        5.770000           0.243275E-8        1.000000
        5.780000           0.233388E-8        1.000000
        5.790000           0.224882E-8        1.000000
        5.800000           0.217646E-8        1.000000
        5.810000           0.211592E-8        1.000000
        5.820000           0.206648E-8        1.000000
        5.830000           0.202761E-8        1.000000
        5.840000           0.199890E-8        1.000000
        5.850000           0.198012E-8        1.000000
        5.860000           0.197117E-8        1.000000
        5.870000           0.197208E-8        1.000000
        5.880000           0.198305E-8        1.000000
        5.890000           0.200440E-8        1.000000
        5.900000           0.203664E-8        1.000000
        5.910000           0.208041E-8        1.000000
        5.920000           0.213657E-8        1.000000
        5.930000           0.220616E-8        1.000000
        5.940000           0.229047E-8        1.000000
        5.950000           0.239099E-8        1.000000
        5.960000           0.250950E-8        1.000000
        5.970000           0.264804E-8        1.000000
        5.980000           0.280892E-8        1.000000
        5.990000           0.299470E-8        1.000000
        6.000000           0.320808E-8        1.000000
        6.010000           0.345182E-8        1.000000
        6.020000           0.372843E-8        1.000000
        6.030000           0.403976E-8        1.000000
        6.040000           0.438642E-8        1.000000
        6.050000           0.476679E-8        1.000000
        6.060000           0.517589E-8        1.000000
        6.070000           0.560399E-8        1.000000
        6.080000           0.603528E-8        1.000000
        6.090000           0.644726E-8        1.000000
        6.100000           0.681152E-8        1.000000
        6.110000           0.709669E-8        1.000000
        6.120000           0.727362E-8        1.000000
        6.130000           0.732181E-8        1.000000
        6.140000           0.723457E-8        1.000000
        6.150000           0.702096E-8        1.000000
        6.160000           0.670320E-8        1.000000
        6.170000           0.631116E-8        1.000000
        6.180000           0.587595E-8        1.000000
        6.190000           0.542514E-8        1.000000
        6.200000           0.498011E-8        1.000000
        6.210000           0.455556E-8        1.000000
        6.220000           0.416032E-8        1.000000
        6.230000           0.379867E-8        1.000000
        6.240000           0.347172E-8        1.000000
        6.250000           0.317853E-8        1.000000
        6.260000           0.291702E-8        1.000000
        6.270000           0.268452E-8        1.000000
        6.280000           0.247817E-8        1.000000
        6.290000           0.229515E-8        1.000000
        6.300000           0.213283E-8        1.000000
        6.310000           0.198879E-8        1.000000
        6.320000           0.186089E-8        1.000000
        6.330000           0.174725E-8        1.000000
        6.340000           0.164618E-8        1.000000
        6.350000           0.155627E-8        1.000000
        6.360000           0.147626E-8        1.000000
        6.370000           0.140509E-8        1.000000
        6.380000           0.134184E-8        1.000000
        6.390000           0.128572E-8        1.000000
        6.400000           0.123605E-8        1.000000
        6.410000           0.119228E-8        1.000000
        6.420000           0.115392E-8        1.000000
        6.430000           0.112057E-8        1.000000
        6.440000           0.109191E-8        1.000000
        6.450000           0.106765E-8        1.000000
        6.460000           0.104761E-8        1.000000
        6.470000           0.103163E-8        1.000000
        6.480000           0.101960E-8        1.000000
        6.490000           0.101148E-8        1.000000
        6.500000           0.100727E-8        1.000000
        6.510000           0.100702E-8        1.000000
        6.520000           0.101083E-8        1.000000
        6.530000           0.101887E-8        1.000000
        6.540000           0.103135E-8        1.000000
        6.550000           0.104856E-8        1.000000
        6.560000           0.107085E-8        1.000000
        6.570000           0.109867E-8        1.000000
        6.580000           0.113253E-8        1.000000
        6.590000           0.117307E-8        1.000000
        6.600000           0.122102E-8        1.000000
        6.610000           0.127724E-8        1.000000
        6.620000           0.134271E-8        1.000000
        6.630000           0.141857E-8        1.000000
        6.640000           0.150605E-8        1.000000
        6.650000           0.160651E-8        1.000000
        6.660000           0.172136E-8        1.000000
        6.670000           0.185195E-8        1.000000
        6.680000           0.199944E-8        1.000000
        6.690000           0.216452E-8        1.000000
        6.700000           0.234703E-8        1.000000
        6.710000           0.254544E-8        1.000000
        6.720000           0.275619E-8        1.000000
        6.730000           0.297297E-8        1.000000
        6.740000           0.318623E-8        1.000000
        6.750000           0.338309E-8        1.000000
        6.760000           0.354827E-8        1.000000
        6.770000           0.366615E-8        1.000000
        6.780000           0.372374E-8        1.000000
        6.790000           0.371383E-8        1.000000
        6.800000           0.363687E-8        1.000000
        6.810000           0.350090E-8        1.000000
        6.820000           0.331936E-8        1.000000
        6.830000           0.310796E-8        1.000000
        6.840000           0.288175E-8        1.000000
        6.850000           0.265320E-8        1.000000
        6.860000           0.243143E-8        1.000000
        6.870000           0.222234E-8        1.000000
        6.880000           0.202920E-8        1.000000
        6.890000           0.185328E-8        1.000000
        6.900000           0.169460E-8        1.000000
        6.910000           0.155236E-8        1.000000
        6.920000           0.142531E-8        1.000000
        6.930000           0.131205E-8        1.000000
        6.940000           0.121113E-8        1.000000
        6.950000           0.112116E-8        1.000000
        6.960000           0.104084E-8        1.000000
        6.970000           0.96904E-09        1.000000
        6.980000           0.90469E-09        1.000000
        6.990000           0.84691E-09        1.000000
        7.000000           0.79488E-09        1.000000
        7.010000           0.74793E-09        1.000000
        7.020000           0.70543E-09        1.000000
        7.030000           0.66688E-09        1.000000
        7.039999           0.63182E-09        1.000000
        7.050000           0.59984E-09        1.000000
        7.059999           0.57061E-09        1.000000
        7.070000           0.54383E-09        1.000000
        7.079999           0.51924E-09        1.000000
        7.090000           0.49660E-09        1.000000
        7.099999           0.47572E-09        1.000000
        7.110000           0.45642E-09        1.000000
        7.119999           0.43855E-09        1.000000
        7.130000           0.42196E-09        1.000000
        7.140000           0.40654E-09        1.000000
        7.150000           0.39218E-09        1.000000
        7.160000           0.37879E-09        1.000000
        7.170000           0.36628E-09        1.000000
        7.180000           0.35457E-09        1.000000
        7.190000           0.34359E-09        1.000000
        7.200000           0.33330E-09        1.000000
        7.210000           0.32362E-09        1.000000
        7.220000           0.31451E-09        1.000000
        7.230000           0.30593E-09        1.000000
        7.240000           0.29784E-09        1.000000
        7.250000           0.29020E-09        1.000000
        7.260000           0.28298E-09        1.000000
        7.270000           0.27615E-09        1.000000
        7.280000           0.26968E-09        1.000000
        7.290000           0.26354E-09        1.000000
        7.300000           0.25772E-09        1.000000
        7.310000           0.25220E-09        1.000000
        7.320000           0.24694E-09        1.000000
        7.330000           0.24195E-09        1.000000
        7.340000           0.23719E-09        1.000000
        7.350000           0.23266E-09        1.000000
        7.360000           0.22835E-09        1.000000
        7.370000           0.22423E-09        1.000000
        7.380000           0.22030E-09        1.000000
        7.390000           0.21655E-09        1.000000
        7.400000           0.21297E-09        1.000000
        7.410000           0.20955E-09        1.000000
        7.420000           0.20628E-09        1.000000
        7.430000           0.20316E-09        1.000000
        7.440000           0.20017E-09        1.000000
        7.450000           0.19730E-09        1.000000
        7.460000           0.19456E-09        1.000000
        7.470000           0.19194E-09        1.000000
        7.480000           0.18943E-09        1.000000
        7.489999           0.18702E-09        1.000000
        7.500000           0.18472E-09        1.000000
        7.510000           0.18251E-09        1.000000
        7.520000           0.18039E-09        1.000000
        7.530000           0.17837E-09        1.000000
        7.540000           0.17643E-09        1.000000
        7.550000           0.17457E-09        1.000000
        7.560000           0.17278E-09        1.000000
        7.570000           0.17108E-09        1.000000
        7.580000           0.16944E-09        1.000000
        7.590000           0.16788E-09        1.000000
        7.600000           0.16638E-09        1.000000
        7.610000           0.16495E-09        1.000000
        7.620000           0.16358E-09        1.000000
        7.630000           0.16227E-09        1.000000
        7.640000           0.16102E-09        1.000000
        7.650000           0.15982E-09        1.000000
        7.660000           0.15868E-09        1.000000
        7.670000           0.15760E-09        1.000000
        7.680000           0.15656E-09        1.000000
        7.690000           0.15558E-09        1.000000
        7.700000           0.15464E-09        1.000000
        7.710000           0.15375E-09        1.000000
        7.720000           0.15291E-09        1.000000
        7.730000           0.15212E-09        1.000000
        7.740000           0.15136E-09        1.000000
        7.750000           0.15065E-09        1.000000
        7.760000           0.14999E-09        1.000000
        7.770000           0.14936E-09        1.000000
        7.780000           0.14877E-09        1.000000
        7.789999           0.14823E-09        1.000000
        7.800000           0.14772E-09        1.000000
        7.809999           0.14725E-09        1.000000
        7.820000           0.14682E-09        1.000000
        7.829999           0.14642E-09        1.000000
        7.840000           0.14607E-09        1.000000
        7.849999           0.14574E-09        1.000000
        7.860000           0.14546E-09        1.000000
        7.870000           0.14521E-09        1.000000
        7.880000           0.14499E-09        1.000000
        7.890000           0.14481E-09        1.000000
        7.900000           0.14466E-09        1.000000
        7.910000           0.14455E-09        1.000000
        7.920000           0.14447E-09        1.000000
        7.930000           0.14442E-09        1.000000
        7.940000           0.14441E-09        1.000000
        7.950000           0.14443E-09        1.000000
        7.960000           0.14448E-09        1.000000
        7.970000           0.14457E-09        1.000000
        7.980000           0.14469E-09        1.000000
        7.990000           0.14484E-09        1.000000
        8.000000           0.14503E-09        1.000000
        8.010000           0.14525E-09        1.000000
        8.020000           0.14550E-09        1.000000
        8.030000           0.14578E-09        1.000000
        8.040000           0.14610E-09        1.000000
        8.050000           0.14646E-09        1.000000
        8.059999           0.14685E-09        1.000000
        8.070000           0.14727E-09        1.000000
        8.080000           0.14773E-09        1.000000
        8.090000           0.14822E-09        1.000000
        8.099999           0.14875E-09        1.000000
        8.110000           0.14931E-09        1.000000
        8.120000           0.14991E-09        1.000000
        8.130000           0.15055E-09        1.000000
        8.139999           0.15122E-09        1.000000
        8.150000           0.15194E-09        1.000000
        8.160000           0.15269E-09        1.000000
        8.170000           0.15348E-09        1.000000
        8.179999           0.15431E-09        1.000000
        8.190000           0.15518E-09        1.000000
        8.200000           0.15610E-09        1.000000
        8.209999           0.15705E-09        1.000000
        8.219999           0.15805E-09        1.000000
        8.230000           0.15909E-09        1.000000
        8.240001           0.16018E-09        1.000000
        8.250000           0.16132E-09        1.000000
        8.260000           0.16250E-09        1.000000
        8.270000           0.16373E-09        1.000000
        8.280000           0.16502E-09        1.000000
        8.290000           0.16635E-09        1.000000
        8.300000           0.16774E-09        1.000000
        8.310000           0.16918E-09        1.000000
        8.320000           0.17067E-09        1.000000
        8.330000           0.17223E-09        1.000000
        8.340000           0.17384E-09        1.000000
        8.350000           0.17552E-09        1.000000
        8.360000           0.17726E-09        1.000000
        8.370000           0.17906E-09        1.000000
        8.380000           0.18093E-09        1.000000
        8.390000           0.18287E-09        1.000000
        8.400000           0.18488E-09        1.000000
        8.410000           0.18697E-09        1.000000
        8.420000           0.18914E-09        1.000000
        8.430000           0.19138E-09        1.000000
        8.440000           0.19371E-09        1.000000
        8.450000           0.19613E-09        1.000000
        8.460000           0.19863E-09        1.000000
        8.469999           0.20123E-09        1.000000
        8.480000           0.20393E-09        1.000000
        8.490000           0.20672E-09        1.000000
        8.500000           0.20963E-09        1.000000
        8.509999           0.21264E-09        1.000000
        8.520000           0.21577E-09        1.000000
        8.530000           0.21902E-09        1.000000
        8.540000           0.22239E-09        1.000000
        8.549999           0.22590E-09        1.000000
        8.559999           0.22954E-09        1.000000
        8.570000           0.23333E-09        1.000000
        8.580000           0.23727E-09        1.000000
        8.589999           0.24137E-09        1.000000
        8.600000           0.24563E-09        1.000000
        8.610001           0.25007E-09        1.000000
        8.620000           0.25469E-09        1.000000
        8.630000           0.25950E-09        1.000000
        8.640000           0.26452E-09        1.000000
        8.650001           0.26975E-09        1.000000
        8.660000           0.27521E-09        1.000000
        8.670000           0.28091E-09        1.000000
        8.680000           0.28686E-09        1.000000
        8.690001           0.29308E-09        1.000000
        8.700000           0.29958E-09        1.000000
        8.710000           0.30638E-09        1.000000
        8.720000           0.31350E-09        1.000000
        8.730000           0.32096E-09        1.000000
        8.740000           0.32878E-09        1.000000
        8.750000           0.33698E-09        1.000000
        8.760000           0.34559E-09        1.000000
        8.770000           0.35464E-09        1.000000
        8.780000           0.36415E-09        1.000000
        8.790000           0.37416E-09        1.000000
        8.800000           0.38470E-09        1.000000
        8.809999           0.39582E-09        1.000000
        8.820000           0.40754E-09        1.000000
        8.830000           0.41993E-09        1.000000
        8.840000           0.43303E-09        1.000000
        8.849999           0.44689E-09        1.000000
        8.860000           0.46158E-09        1.000000
        8.870000           0.47716E-09        1.000000
        8.880000           0.49370E-09        1.000000
        8.889999           0.51130E-09        1.000000
        8.900000           0.53004E-09        1.000000
        8.910000           0.55001E-09        1.000000
        8.919999           0.57134E-09        1.000000
        8.929999           0.59415E-09        1.000000
        8.940000           0.61857E-09        1.000000
        8.950000           0.64476E-09        1.000000
        8.959999           0.67289E-09        1.000000
        8.970000           0.70317E-09        1.000000
        8.980000           0.73581E-09        1.000000
        8.990000           0.77106E-09        1.000000
        9.000000           0.80920E-09        1.000000
        9.010000           0.85056E-09        1.000000
        9.020000           0.89549E-09        1.000000
        9.030000           0.94440E-09        1.000000
        9.040000           0.99778E-09        1.000000
        9.050000           0.105615E-8        1.000000
        9.060000           0.112014E-8        1.000000
        9.070000           0.119046E-8        1.000000
        9.080000           0.126792E-8        1.000000
        9.090000           0.135345E-8        1.000000
        9.100000           0.144815E-8        1.000000
        9.110000           0.155326E-8        1.000000
        9.120000           0.167021E-8        1.000000
        9.130000           0.180064E-8        1.000000
        9.140000           0.194644E-8        1.000000
        9.150000           0.210975E-8        1.000000
        9.160000           0.229295E-8        1.000000
        9.170000           0.249873E-8        1.000000
        9.179999           0.272994E-8        1.000000
        9.190000           0.298959E-8        1.000000
        9.200000           0.328059E-8        1.000000
        9.210000           0.360551E-8        1.000000
        9.219999           0.396599E-8        1.000000
        9.230000           0.436206E-8        1.000000
        9.240000           0.479101E-8        1.000000
        9.250000           0.524613E-8        1.000000
        9.259999           0.571520E-8        1.000000
        9.270000           0.617934E-8        1.000000
        9.280000           0.661273E-8        1.000000
        9.290000           0.698420E-8        1.000000
        9.299999           0.726118E-8        1.000000
        9.309999           0.741578E-8        1.000000
        9.320000           0.743130E-8        1.000000
        9.330000           0.730668E-8        1.000000
        9.340000           0.705682E-8        1.000000
        9.350000           0.670857E-8        1.000000
        9.360001           0.629430E-8        1.000000
        9.370000           0.584566E-8        1.000000
        9.380000           0.538933E-8        1.000000
        9.390000           0.494513E-8        1.000000
        9.400001           0.452613E-8        1.000000
        9.410000           0.413970E-8        1.000000
        9.420000           0.378902E-8        1.000000
        9.430000           0.347439E-8        1.000000
        9.440000           0.319438E-8        1.000000
        9.450000           0.294656E-8        1.000000
        9.460000           0.272809E-8        1.000000
        9.470000           0.253603E-8        1.000000
        9.480000           0.236753E-8        1.000000
        9.490000           0.221999E-8        1.000000
        9.500000           0.209103E-8        1.000000
        9.510000           0.197857E-8        1.000000
        9.520000           0.188078E-8        1.000000
        9.530000           0.179608E-8        1.000000
        9.540000           0.172312E-8        1.000000
        9.550000           0.166075E-8        1.000000
        9.559999           0.160799E-8        1.000000
        9.570000           0.156405E-8        1.000000
        9.580000           0.152824E-8        1.000000
        9.590000           0.150003E-8        1.000000
        9.599999           0.147899E-8        1.000000
        9.610000           0.146479E-8        1.000000
        9.620000           0.145723E-8        1.000000
        9.629999           0.145615E-8        1.000000
        9.639999           0.146153E-8        1.000000
        9.650000           0.147342E-8        1.000000
        9.660000           0.149194E-8        1.000000
        9.669999           0.151734E-8        1.000000
        9.679999           0.154993E-8        1.000000
        9.690000           0.159016E-8        1.000000
        9.700000           0.163857E-8        1.000000
        9.710000           0.169583E-8        1.000000
        9.720000           0.176277E-8        1.000000
        9.730000           0.184034E-8        1.000000
        9.740000           0.192969E-8        1.000000
        9.750000           0.203215E-8        1.000000
        9.760000           0.214924E-8        1.000000
        9.770000           0.228270E-8        1.000000
        9.780000           0.243447E-8        1.000000
        9.790000           0.260668E-8        1.000000
        9.800000           0.280154E-8        1.000000
        9.810000           0.302127E-8        1.000000
        9.820000           0.326785E-8        1.000000
        9.830000           0.354274E-8        1.000000
        9.840000           0.384632E-8        1.000000
        9.850000           0.417733E-8        1.000000
        9.860000           0.453208E-8        1.000000
        9.870000           0.490369E-8        1.000000
        9.880000           0.528175E-8        1.000000
        9.889999           0.565261E-8        1.000000
        9.900000           0.600077E-8        1.000000
        9.910000           0.631151E-8        1.000000
        9.920000           0.657388E-8        1.000000
        9.929999           0.678300E-8        1.000000
        9.940000           0.694035E-8        1.000000
        9.950000           0.705153E-8        1.000000
        9.960000           0.712244E-8        1.000000
        9.969999           0.715544E-8        1.000000
        9.980000           0.714732E-8        1.000000
        9.990000           0.708988E-8        1.000000
        10.00000           0.697302E-8        1.000000
        10.01000           0.678926E-8        1.000000
        10.02000           0.653763E-8        1.000000
        10.03000           0.622535E-8        1.000000
        10.04000           0.586668E-8        1.000000
        10.05000           0.547968E-8        1.000000
        10.06000           0.508258E-8        1.000000
        10.07000           0.469110E-8        1.000000
        10.08000           0.431690E-8        1.000000
        10.09000           0.396754E-8        1.000000
        10.10000           0.364704E-8        1.000000
        10.11000           0.335676E-8        1.000000
        10.12000           0.309623E-8        1.000000
        10.13000           0.286390E-8        1.000000
        10.14000           0.265762E-8        1.000000
        10.15000           0.247502E-8        1.000000
        10.16000           0.231372E-8        1.000000
        10.17000           0.217146E-8        1.000000
        10.18000           0.204616E-8        1.000000
        10.19000           0.193597E-8        1.000000
        10.20000           0.183924E-8        1.000000
        10.21000           0.175455E-8        1.000000
        10.22000           0.168066E-8        1.000000
        10.23000           0.161653E-8        1.000000
        10.24000           0.156126E-8        1.000000
        10.25000           0.151410E-8        1.000000
        10.26000           0.147442E-8        1.000000
        10.27000           0.144173E-8        1.000000
        10.28000           0.141561E-8        1.000000
        10.29000           0.139576E-8        1.000000
        10.30000           0.138196E-8        1.000000
        10.31000           0.137408E-8        1.000000
        10.32000           0.137208E-8        1.000000
        10.33000           0.137597E-8        1.000000
        10.34000           0.138587E-8        1.000000
        10.35000           0.140199E-8        1.000000
        10.36000           0.142461E-8        1.000000
        10.37000           0.145413E-8        1.000000
        10.38000           0.149102E-8        1.000000
        10.39000           0.153591E-8        1.000000
        10.40000           0.158953E-8        1.000000
        10.41000           0.165276E-8        1.000000
        10.42000           0.172663E-8        1.000000
        10.43000           0.181235E-8        1.000000
        10.44000           0.191127E-8        1.000000
        10.45000           0.202494E-8        1.000000
        10.46000           0.215506E-8        1.000000
        10.47000           0.230342E-8        1.000000
        10.48000           0.247181E-8        1.000000
        10.49000           0.266190E-8        1.000000
        10.50000           0.287495E-8        1.000000
        10.51000           0.311148E-8        1.000000
        10.52000           0.337079E-8        1.000000
        10.53000           0.365037E-8        1.000000
        10.54000           0.394530E-8        1.000000
        10.55000           0.424773E-8        1.000000
        10.56000           0.454657E-8        1.000000
        10.57000           0.482771E-8        1.000000
        10.58000           0.507478E-8        1.000000
        10.59000           0.527064E-8        1.000000
        10.60000           0.539955E-8        1.000000
        10.61000           0.544984E-8        1.000000
        10.62000           0.541628E-8        1.000000
        10.63000           0.530135E-8        1.000000
        10.64000           0.511487E-8        1.000000
        10.65000           0.487201E-8        1.000000
        10.66000           0.459050E-8        1.000000
        10.67000           0.428791E-8        1.000000
        10.68000           0.397968E-8        1.000000
        10.69000           0.367797E-8        1.000000
        10.70000           0.339138E-8        1.000000
        10.71000           0.312523E-8        1.000000
        10.72000           0.288222E-8        1.000000
        10.73000           0.266310E-8        1.000000
        10.74000           0.246733E-8        1.000000
        10.75000           0.229359E-8        1.000000
        10.76000           0.214017E-8        1.000000
        10.77000           0.200519E-8        1.000000
        10.78000           0.188680E-8        1.000000
        10.79000           0.178325E-8        1.000000
        10.80000           0.169296E-8        1.000000
        10.81000           0.161450E-8        1.000000
        10.82000           0.154663E-8        1.000000
        10.83000           0.148827E-8        1.000000
        10.84000           0.143850E-8        1.000000
        10.85000           0.139653E-8        1.000000
        10.86000           0.136172E-8        1.000000
        10.87000           0.133352E-8        1.000000
        10.88000           0.131149E-8        1.000000
        10.89000           0.129528E-8        1.000000
        10.90000           0.128464E-8        1.000000
        10.91000           0.127938E-8        1.000000
        10.92000           0.127939E-8        1.000000
        10.93000           0.128463E-8        1.000000
        10.94000           0.129514E-8        1.000000
        10.95000           0.131101E-8        1.000000
        10.96000           0.133243E-8        1.000000
        10.97000           0.135964E-8        1.000000
        10.98000           0.139297E-8        1.000000
        10.99000           0.143285E-8        1.000000
        11.00000           0.147979E-8        1.000000
        11.01000           0.153441E-8        1.000000
        11.02000           0.159746E-8        1.000000
        11.03000           0.166983E-8        1.000000
        11.04000           0.175256E-8        1.000000
        11.05000           0.184688E-8        1.000000
        11.06000           0.195420E-8        1.000000
        11.07000           0.207618E-8        1.000000
        11.08000           0.221469E-8        1.000000
        11.09000           0.237191E-8        1.000000
        11.10000           0.255024E-8        1.000000
        11.11000           0.275236E-8        1.000000
        11.12000           0.298115E-8        1.000000
        11.13000           0.323953E-8        1.000000
        11.14000           0.353031E-8        1.000000
        11.15000           0.385579E-8        1.000000
        11.16000           0.421725E-8        1.000000
        11.17000           0.461400E-8        1.000000
        11.18000           0.504248E-8        1.000000
        11.19000           0.549483E-8        1.000000
        11.20000           0.595765E-8        1.000000
        11.21000           0.641111E-8        1.000000
        11.22000           0.682923E-8        1.000000
        11.23000           0.718186E-8        1.000000
        11.24000           0.743874E-8        1.000000
        11.25000           0.757497E-8        1.000000
        11.26000           0.757640E-8        1.000000
        11.27000           0.744289E-8        1.000000
        11.28000           0.718831E-8        1.000000
        11.29000           0.683720E-8        1.000000
        11.30000           0.641952E-8        1.000000
        11.31000           0.596525E-8        1.000000
        11.32000           0.550040E-8        1.000000
        11.33000           0.504498E-8        1.000000
        11.34000           0.461266E-8        1.000000
        11.35000           0.421155E-8        1.000000
        11.36000           0.384546E-8        1.000000
        11.37000           0.351518E-8        1.000000
        11.38000           0.321957E-8        1.000000
        11.39000           0.295640E-8        1.000000
        11.40000           0.272289E-8        1.000000
        11.41000           0.251611E-8        1.000000
        11.42000           0.233319E-8        1.000000
        11.43000           0.217144E-8        1.000000
        11.44000           0.202842E-8        1.000000
        11.45000           0.190194E-8        1.000000
        11.46000           0.179011E-8        1.000000
        11.47000           0.169124E-8        1.000000
        11.48000           0.160389E-8        1.000000
        11.49000           0.152682E-8        1.000000
        11.50000           0.145895E-8        1.000000
        11.51000           0.139938E-8        1.000000
        11.52000           0.134733E-8        1.000000
        11.53000           0.130216E-8        1.000000
        11.54000           0.126331E-8        1.000000
        11.55000           0.123034E-8        1.000000
        11.56000           0.120288E-8        1.000000
        11.57000           0.118064E-8        1.000000
        11.58000           0.116342E-8        1.000000
        11.59000           0.115105E-8        1.000000
        11.60000           0.114346E-8        1.000000
        11.61000           0.114063E-8        1.000000
        11.62000           0.114260E-8        1.000000
        11.63000           0.114948E-8        1.000000
        11.64000           0.116145E-8        1.000000
        11.65000           0.117874E-8        1.000000
        11.66000           0.120170E-8        1.000000
        11.67000           0.123074E-8        1.000000
        11.68000           0.126635E-8        1.000000
        11.69000           0.130917E-8        1.000000
        11.70000           0.135991E-8        1.000000
        11.71000           0.141946E-8        1.000000
        11.72000           0.148883E-8        1.000000
        11.73000           0.156920E-8        1.000000
        11.74000           0.166191E-8        1.000000
        11.75000           0.176849E-8        1.000000
        11.76000           0.189063E-8        1.000000
        11.77000           0.203013E-8        1.000000
        11.78000           0.218885E-8        1.000000
        11.79000           0.236854E-8        1.000000
        11.80000           0.257062E-8        1.000000
        11.81000           0.279577E-8        1.000000
        11.82000           0.304344E-8        1.000000
        11.83000           0.331105E-8        1.000000
        11.84000           0.359315E-8        1.000000
        11.85000           0.388047E-8        1.000000
        11.86000           0.415938E-8        1.000000
        11.87000           0.441205E-8        1.000000
        11.88000           0.461799E-8        1.000000
        11.89000           0.475714E-8        1.000000
        11.90000           0.481391E-8        1.000000
        11.91000           0.478113E-8        1.000000
        11.92000           0.466195E-8        1.000000
        11.93000           0.446897E-8        1.000000
        11.94000           0.422097E-8        1.000000
        11.95000           0.393869E-8        1.000000
        11.96000           0.364126E-8        1.000000
        11.97000           0.334403E-8        1.000000
        11.98000           0.305792E-8        1.000000
        11.99000           0.278979E-8        1.000000
        12.00000           0.254319E-8        1.000000
        12.01000           0.231936E-8        1.000000
        12.02000           0.211799E-8        1.000000
        12.03000           0.193786E-8        1.000000
        12.04000           0.177728E-8        1.000000
        12.05000           0.163437E-8        1.000000
        12.06000           0.150725E-8        1.000000
        12.07000           0.139413E-8        1.000000
        12.08000           0.129335E-8        1.000000
        12.09000           0.120344E-8        1.000000
        12.10000           0.112306E-8        1.000000
        12.11000           0.105104E-8        1.000000
        12.12000           0.98635E-09        1.000000
        12.13000           0.92806E-09        1.000000
        12.14000           0.87536E-09        1.000000
        12.15000           0.82752E-09        1.000000
        12.16000           0.78392E-09        1.000000
        12.17000           0.74401E-09        1.000000
        12.18000           0.70736E-09        1.000000
        12.19000           0.67360E-09        1.000000
        12.20000           0.64243E-09        1.000000
        12.21000           0.61363E-09        1.000000
        12.22000           0.58700E-09        1.000000
        12.23000           0.56236E-09        1.000000
        12.24000           0.53956E-09        1.000000
        12.25000           0.51846E-09        1.000000
        12.26000           0.49891E-09        1.000000
        12.27000           0.48080E-09        1.000000
        12.28000           0.46400E-09        1.000000
        12.29000           0.44841E-09        1.000000
        12.30000           0.43393E-09        1.000000
        12.31000           0.42047E-09        1.000000
        12.32000           0.40794E-09        1.000000
        12.33000           0.39629E-09        1.000000
        12.34000           0.38544E-09        1.000000
        12.35000           0.37534E-09        1.000000
        12.36000           0.36593E-09        1.000000
        12.37000           0.35718E-09        1.000000
        12.38000           0.34904E-09        1.000000
        12.39000           0.34147E-09        1.000000
        12.40000           0.33445E-09        1.000000
        12.41000           0.32795E-09        1.000000
        12.42000           0.32195E-09        1.000000
        12.43000           0.31642E-09        1.000000
        12.44000           0.31136E-09        1.000000
        12.45000           0.30675E-09        1.000000
        12.46000           0.30257E-09        1.000000
        12.47000           0.29884E-09        1.000000
        12.48000           0.29554E-09        1.000000
        12.49000           0.29267E-09        1.000000
        12.50000           0.29025E-09        1.000000
        12.51000           0.28827E-09        1.000000
        12.52000           0.28677E-09        1.000000
        12.53000           0.28575E-09        1.000000
        12.54000           0.28525E-09        1.000000
        12.55000           0.28528E-09        1.000000
        12.56000           0.28590E-09        1.000000
        12.57000           0.28715E-09        1.000000
        12.58000           0.28908E-09        1.000000
        12.59000           0.29176E-09        1.000000
        12.60000           0.29526E-09        1.000000
        12.61000           0.29968E-09        1.000000
        12.62000           0.30511E-09        1.000000
        12.63000           0.31166E-09        1.000000
        12.64000           0.31946E-09        1.000000
        12.65000           0.32862E-09        1.000000
        12.66000           0.33926E-09        1.000000
        12.67000           0.35148E-09        1.000000
        12.68000           0.36533E-09        1.000000
        12.69000           0.38078E-09        1.000000
        12.70000           0.39768E-09        1.000000
        12.71000           0.41567E-09        1.000000
        12.72000           0.43417E-09        1.000000
        12.73000           0.45229E-09        1.000000
        12.74000           0.46885E-09        1.000000
        12.75000           0.48251E-09        1.000000
        12.76000           0.49189E-09        1.000000
        12.77000           0.49592E-09        1.000000
        12.78000           0.49406E-09        1.000000
        12.79000           0.48646E-09        1.000000
        12.80000           0.47390E-09        1.000000
        12.81000           0.45763E-09        1.000000
        12.82000           0.43902E-09        1.000000
        12.83000           0.41939E-09        1.000000
        12.84000           0.39978E-09        1.000000
        12.85000           0.38096E-09        1.000000
        12.86000           0.36342E-09        1.000000
        12.87000           0.34741E-09        1.000000
        12.88000           0.33304E-09        1.000000
        12.89000           0.32029E-09        1.000000
        12.90000           0.30910E-09        1.000000
        12.91000           0.29934E-09        1.000000
        12.92000           0.29092E-09        1.000000
        12.93000           0.28370E-09        1.000000
        12.94000           0.27758E-09        1.000000
        12.95000           0.27245E-09        1.000000
        12.96000           0.26821E-09        1.000000
        12.97000           0.26480E-09        1.000000
        12.98000           0.26215E-09        1.000000
        12.99000           0.26019E-09        1.000000
        13.00000           0.25888E-09        1.000000
        13.01000           0.25819E-09        1.000000
        13.02000           0.25809E-09        1.000000
        13.03000           0.25857E-09        1.000000
        13.04000           0.25960E-09        1.000000
        13.05000           0.26118E-09        1.000000
        13.06000           0.26332E-09        1.000000
        13.07000           0.26602E-09        1.000000
        13.08000           0.26930E-09        1.000000
        13.09000           0.27318E-09        1.000000
        13.10000           0.27769E-09        1.000000
        13.11000           0.28287E-09        1.000000
        13.12000           0.28875E-09        1.000000
        13.13000           0.29541E-09        1.000000
        13.14000           0.30289E-09        1.000000
        13.15000           0.31127E-09        1.000000
        13.16000           0.32064E-09        1.000000
        13.17000           0.33111E-09        1.000000
        13.18000           0.34279E-09        1.000000
        13.19000           0.35583E-09        1.000000
        13.20000           0.37038E-09        1.000000
        13.21000           0.38663E-09        1.000000
        13.22000           0.40479E-09        1.000000
        13.23000           0.42512E-09        1.000000
        13.24000           0.44790E-09        1.000000
        13.25000           0.47347E-09        1.000000
        13.26000           0.50219E-09        1.000000
        13.27000           0.53450E-09        1.000000
        13.28000           0.57086E-09        1.000000
        13.29000           0.61178E-09        1.000000
        13.30000           0.65782E-09        1.000000
        13.31000           0.70951E-09        1.000000
        13.32000           0.76733E-09        1.000000
        13.33000           0.83165E-09        1.000000
        13.34000           0.90255E-09        1.000000
        13.35000           0.97969E-09        1.000000
        13.36000           0.106206E-8        1.000000
        13.37000           0.114770E-8        1.000000
        13.38000           0.123350E-8        1.000000
        13.39000           0.131506E-8        1.000000
        13.40000           0.138691E-8        1.000000
        13.41000           0.144310E-8        1.000000
        13.42000           0.147826E-8        1.000000
        13.43000           0.148874E-8        1.000000
        13.44000           0.147362E-8        1.000000
        13.45000           0.143496E-8        1.000000
        13.46000           0.137721E-8        1.000000
        13.47000           0.130613E-8        1.000000
        13.48000           0.122762E-8        1.000000
        13.49000           0.114681E-8        1.000000
        13.50000           0.106765E-8        1.000000
        13.51000           0.99281E-09        1.000000
        13.52000           0.92390E-09        1.000000
        13.53000           0.86167E-09        1.000000
        13.54000           0.80634E-09        1.000000
        13.55000           0.75773E-09        1.000000
        13.56000           0.71548E-09        1.000000
        13.57000           0.67912E-09        1.000000
        13.58000           0.64818E-09        1.000000
        13.59000           0.62217E-09        1.000000
        13.60000           0.60067E-09        1.000000
        13.61000           0.58328E-09        1.000000
        13.62000           0.56964E-09        1.000000
        13.63000           0.55943E-09        1.000000
        13.64000           0.55232E-09        1.000000
        13.65000           0.54799E-09        1.000000
        13.66000           0.54604E-09        1.000000
        13.67000           0.54602E-09        1.000000
        13.68000           0.54739E-09        1.000000
        13.69000           0.54952E-09        1.000000
        13.70000           0.55174E-09        1.000000
        13.71000           0.55346E-09        1.000000
        13.72000           0.55420E-09        1.000000
        13.73000           0.55379E-09        1.000000
        13.74000           0.55233E-09        1.000000
        13.75000           0.55017E-09        1.000000
        13.76000           0.54783E-09        1.000000
        13.77000           0.54587E-09        1.000000
        13.78000           0.54479E-09        1.000000
        13.79000           0.54503E-09        1.000000
        13.80000           0.54688E-09        1.000000
        13.81000           0.55058E-09        1.000000
        13.82000           0.55626E-09        1.000000
        13.83000           0.56404E-09        1.000000
        13.84000           0.57400E-09        1.000000
        13.85000           0.58622E-09        1.000000
        13.86000           0.60078E-09        1.000000
        13.87000           0.61780E-09        1.000000
        13.88000           0.63741E-09        1.000000
        13.89000           0.65977E-09        1.000000
        13.90000           0.68508E-09        1.000000
        13.91000           0.71358E-09        1.000000
        13.92000           0.74557E-09        1.000000
        13.93000           0.78139E-09        1.000000
        13.94000           0.82143E-09        1.000000
        13.95000           0.86619E-09        1.000000
        13.96000           0.91619E-09        1.000000
        13.97000           0.97211E-09        1.000000
        13.98000           0.103468E-8        1.000000
        13.99000           0.110477E-8        1.000000
        14.00000           0.118339E-8        1.000000
        14.01000           0.127169E-8        1.000000
        14.02000           0.137096E-8        1.000000
        14.03000           0.148273E-8        1.000000
        14.04000           0.160860E-8        1.000000
        14.05000           0.175040E-8        1.000000
        14.06000           0.190998E-8        1.000000
        14.07000           0.208925E-8        1.000000
        14.08000           0.228985E-8        1.000000
        14.09000           0.251300E-8        1.000000
        14.10000           0.275891E-8        1.000000
        14.11000           0.302631E-8        1.000000
        14.12000           0.331145E-8        1.000000
        14.13000           0.360744E-8        1.000000
        14.14000           0.390315E-8        1.000000
        14.15000           0.418324E-8        1.000000
        14.16000           0.442856E-8        1.000000
        14.17000           0.461861E-8        1.000000
        14.18000           0.473477E-8        1.000000
        14.19000           0.476468E-8        1.000000
        14.20000           0.470524E-8        1.000000
        14.21000           0.456348E-8        1.000000
        14.22000           0.435479E-8        1.000000
        14.23000           0.409898E-8        1.000000
        14.24000           0.381652E-8        1.000000
        14.25000           0.352515E-8        1.000000
        14.26000           0.323867E-8        1.000000
        14.27000           0.296636E-8        1.000000
        14.28000           0.271383E-8        1.000000
        14.29000           0.248377E-8        1.000000
        14.30000           0.227672E-8        1.000000
        14.31000           0.209209E-8        1.000000
        14.32000           0.192842E-8        1.000000
        14.33000           0.178399E-8        1.000000
        14.34000           0.165691E-8        1.000000
        14.35000           0.154540E-8        1.000000
        14.36000           0.144770E-8        1.000000
        14.37000           0.136232E-8        1.000000
        14.38000           0.128787E-8        1.000000
        14.39000           0.122315E-8        1.000000
        14.40000           0.116714E-8        1.000000
        14.41000           0.111895E-8        1.000000
        14.42000           0.107782E-8        1.000000
        14.43000           0.104314E-8        1.000000
        14.44000           0.101437E-8        1.000000
        14.45000           0.99110E-09        1.000000
        14.46000           0.97298E-09        1.000000
        14.47000           0.95976E-09        1.000000
        14.48000           0.95125E-09        1.000000
        14.49000           0.94735E-09        1.000000
        14.50000           0.94800E-09        1.000000
        14.51000           0.95322E-09        1.000000
        14.52000           0.96311E-09        1.000000
        14.53000           0.97781E-09        1.000000
        14.54000           0.99755E-09        1.000000
        14.55000           0.102265E-8        1.000000
        14.56000           0.105349E-8        1.000000
        14.57000           0.109055E-8        1.000000
        14.58000           0.113443E-8        1.000000
        14.59000           0.118582E-8        1.000000
        14.60000           0.124557E-8        1.000000
        14.61000           0.131464E-8        1.000000
        14.62000           0.139415E-8        1.000000
        14.63000           0.148539E-8        1.000000
        14.64000           0.158976E-8        1.000000
        14.65000           0.170886E-8        1.000000
        14.66000           0.184428E-8        1.000000
        14.67000           0.199769E-8        1.000000
        14.68000           0.217046E-8        1.000000
        14.69000           0.236361E-8        1.000000
        14.70000           0.257717E-8        1.000000
        14.71000           0.280986E-8        1.000000
        14.72000           0.305805E-8        1.000000
        14.73000           0.331530E-8        1.000000
        14.74000           0.357129E-8        1.000000
        14.75000           0.381199E-8        1.000000
        14.76000           0.402009E-8        1.000000
        14.77000           0.417732E-8        1.000000
        14.78000           0.426755E-8        1.000000
        14.79000           0.428057E-8        1.000000
        14.80000           0.421472E-8        1.000000
        14.81000           0.407726E-8        1.000000
        14.82000           0.388258E-8        1.000000
        14.83000           0.364852E-8        1.000000
        14.84000           0.339307E-8        1.000000
        14.85000           0.313153E-8        1.000000
        14.86000           0.287565E-8        1.000000
        14.87000           0.263316E-8        1.000000
        14.88000           0.240869E-8        1.000000
        14.89000           0.220421E-8        1.000000
        14.90000           0.202017E-8        1.000000
        14.91000           0.185578E-8        1.000000
        14.92000           0.170980E-8        1.000000
        14.93000           0.158060E-8        1.000000
        14.94000           0.146653E-8        1.000000
        14.95000           0.136596E-8        1.000000
        14.96000           0.127738E-8        1.000000
        14.97000           0.119939E-8        1.000000
        14.98000           0.113077E-8        1.000000
        14.99000           0.107043E-8        1.000000
        15.00000           0.101742E-8        1.000000
        15.01000           0.97093E-09        1.000000
        15.02000           0.93025E-09        1.000000
        15.03000           0.89479E-09        1.000000
        15.04000           0.86402E-09        1.000000
        15.05000           0.83753E-09        1.000000
        15.06000           0.81490E-09        1.000000
        15.07000           0.79582E-09        1.000000
        15.08000           0.78000E-09        1.000000
        15.09000           0.76722E-09        1.000000
        15.10000           0.75732E-09        1.000000
        15.11000           0.75024E-09        1.000000
        15.12000           0.74595E-09        1.000000
        15.13000           0.74450E-09        1.000000
        15.14000           0.74596E-09        1.000000
        15.15000           0.75045E-09        1.000000
        15.16000           0.75809E-09        1.000000
        15.17000           0.76905E-09        1.000000
        15.18000           0.78354E-09        1.000000
        15.19000           0.80179E-09        1.000000
        15.20000           0.82408E-09        1.000000
        15.21000           0.85077E-09        1.000000
        15.22000           0.88226E-09        1.000000
        15.23000           0.91904E-09        1.000000
        15.24000           0.96169E-09        1.000000
        15.25000           0.101088E-8        1.000000
        15.26000           0.106741E-8        1.000000
        15.27000           0.113218E-8        1.000000
        15.28000           0.120625E-8        1.000000
        15.29000           0.129078E-8        1.000000
        15.30000           0.138713E-8        1.000000
        15.31000           0.149669E-8        1.000000
        15.32000           0.162101E-8        1.000000
        15.33000           0.176151E-8        1.000000
        15.34000           0.191956E-8        1.000000
        15.35000           0.209594E-8        1.000000
        15.36000           0.229079E-8        1.000000
        15.37000           0.250278E-8        1.000000
        15.38000           0.272860E-8        1.000000
        15.39000           0.296230E-8        1.000000
        15.40000           0.319446E-8        1.000000
        15.41000           0.341229E-8        1.000000
        15.42000           0.360009E-8        1.000000
        15.43000           0.374139E-8        1.000000
        15.44000           0.382169E-8        1.000000
        15.45000           0.383191E-8        1.000000
        15.46000           0.377061E-8        1.000000
        15.47000           0.364447E-8        1.000000
        15.48000           0.346652E-8        1.000000
        15.49000           0.325294E-8        1.000000
        15.50000           0.302002E-8        1.000000
        15.51000           0.278166E-8        1.000000
        15.52000           0.254850E-8        1.000000
        15.53000           0.232754E-8        1.000000
        15.54000           0.212294E-8        1.000000
        15.55000           0.193642E-8        1.000000
        15.56000           0.176827E-8        1.000000
        15.57000           0.161762E-8        1.000000
        15.58000           0.148312E-8        1.000000
        15.59000           0.136306E-8        1.000000
        15.60000           0.125574E-8        1.000000
        15.61000           0.115950E-8        1.000000
        15.62000           0.107291E-8        1.000000
        15.63000           0.99475E-09        1.000000
        15.64000           0.92404E-09        1.000000
        15.65000           0.85995E-09        1.000000
        15.66000           0.80183E-09        1.000000
        15.67000           0.74905E-09        1.000000
        15.68000           0.70111E-09        1.000000
        15.69000           0.65749E-09        1.000000
        15.70000           0.61777E-09        1.000000
        15.71000           0.58153E-09        1.000000
        15.72000           0.54842E-09        1.000000
        15.73000           0.51813E-09        1.000000
        15.74000           0.49037E-09        1.000000
        15.75000           0.46491E-09        1.000000
        15.76000           0.44152E-09        1.000000
        15.77000           0.42000E-09        1.000000
        15.78000           0.40016E-09        1.000000
        15.79000           0.38185E-09        1.000000
        15.80000           0.36493E-09        1.000000
        15.81000           0.34927E-09        1.000000
        15.82000           0.33474E-09        1.000000
        15.83000           0.32126E-09        1.000000
        15.84000           0.30872E-09        1.000000
        15.85000           0.29705E-09        1.000000
        15.86000           0.28617E-09        1.000000
        15.87000           0.27603E-09        1.000000
        15.88000           0.26656E-09        1.000000
        15.89000           0.25771E-09        1.000000
        15.90000           0.24944E-09        1.000000
        15.91000           0.24171E-09        1.000000
        15.92000           0.23449E-09        1.000000
        15.93000           0.22775E-09        1.000000
        15.94000           0.22146E-09        1.000000
        15.95000           0.21560E-09        1.000000
        15.96000           0.21016E-09        1.000000
        15.97000           0.20511E-09        1.000000
        15.98000           0.20046E-09        1.000000
        15.99000           0.19618E-09        1.000000
        16.00000           0.19229E-09        1.000000
        16.01000           0.18877E-09        1.000000
        16.02000           0.18562E-09        1.000000
        16.03000           0.18286E-09        1.000000
        16.04000           0.18046E-09        1.000000
        16.05000           0.17844E-09        1.000000
        16.06000           0.17676E-09        1.000000
        16.07000           0.17540E-09        1.000000
        16.08000           0.17431E-09        1.000000
        16.09000           0.17339E-09        1.000000
        16.10000           0.17254E-09        1.000000
        16.11000           0.17161E-09        1.000000
        16.12000           0.17045E-09        1.000000
        16.13000           0.16889E-09        1.000000
        16.14000           0.16681E-09        1.000000
        16.15000           0.16416E-09        1.000000
        16.16000           0.16095E-09        1.000000
        16.17000           0.15726E-09        1.000000
        16.18000           0.15322E-09        1.000000
        16.19000           0.14898E-09        1.000000
        16.20000           0.14467E-09        1.000000
        16.21000           0.14043E-09        1.000000
        16.22000           0.13633E-09        1.000000
        16.23000           0.13243E-09        1.000000
        16.24000           0.12874E-09        1.000000
        16.25000           0.12528E-09        1.000000
        16.26000           0.12204E-09        1.000000
        16.27000           0.11899E-09        1.000000
        16.28000           0.11614E-09        1.000000
        16.29000           0.11346E-09        1.000000
        16.30000           0.11094E-09        1.000000
        16.31000           0.10857E-09        1.000000
        16.32000           0.10635E-09        1.000000
        16.33000           0.10426E-09        1.000000
        16.34000           0.10229E-09        1.000000
        16.35000           0.10043E-09        1.000000
        16.36000           0.98682E-10        1.000000
        16.37000           0.97032E-10        1.000000
        16.38000           0.95479E-10        1.000000
        16.39000           0.94018E-10        1.000000
        16.40000           0.92648E-10        1.000000
        16.41000           0.91366E-10        1.000000
        16.42000           0.90171E-10        1.000000
        16.43000           0.89061E-10        1.000000
        16.44000           0.88035E-10        1.000000
        16.45000           0.87092E-10        1.000000
        16.46000           0.86233E-10        1.000000
        16.47000           0.85458E-10        1.000000
        16.48000           0.84767E-10        1.000000
        16.49000           0.84162E-10        1.000000
        16.50000           0.83648E-10        1.000000
        16.51000           0.83227E-10        1.000000
        16.52000           0.82906E-10        1.000000
        16.53000           0.82689E-10        1.000000
        16.54000           0.82587E-10        1.000000
        16.55000           0.82607E-10        1.000000
        16.56000           0.82762E-10        1.000000
        16.57000           0.83064E-10        1.000000
        16.58000           0.83529E-10        1.000000
        16.59000           0.84174E-10        1.000000
        16.60000           0.85018E-10        1.000000
        16.61000           0.86081E-10        1.000000
        16.62000           0.87382E-10        1.000000
        16.63000           0.88942E-10        1.000000
        16.64000           0.90773E-10        1.000000
        16.65000           0.92878E-10        1.000000
        16.66000           0.95247E-10        1.000000
        16.67000           0.97842E-10        1.000000
        16.68000           0.10059E-09        1.000000
        16.69000           0.10338E-09        1.000000
        16.70000           0.10605E-09        1.000000
        16.71000           0.10839E-09        1.000000
        16.72000           0.11020E-09        1.000000
        16.73000           0.11126E-09        1.000000
        16.74000           0.11146E-09        1.000000
        16.75000           0.11076E-09        1.000000
        16.76000           0.10925E-09        1.000000
        16.77000           0.10708E-09        1.000000
        16.78000           0.10446E-09        1.000000
        16.79000           0.10161E-09        1.000000
        16.80000           0.98691E-10        1.000000
        16.81000           0.95825E-10        1.000000
        16.82000           0.93073E-10        1.000000
        16.83000           0.90457E-10        1.000000
        16.84000           0.87968E-10        1.000000
        16.85000           0.85584E-10        1.000000
        16.86000           0.83286E-10        1.000000
        16.87000           0.81069E-10        1.000000
        16.88000           0.78939E-10        1.000000
        16.89000           0.76912E-10        1.000000
        16.90000           0.75009E-10        1.000000
        16.91000           0.73244E-10        1.000000
        16.92000           0.71632E-10        1.000000
        16.93000           0.70175E-10        1.000000
        16.94000           0.68874E-10        1.000000
        16.95000           0.67724E-10        1.000000
        16.96000           0.66719E-10        1.000000
        16.97000           0.65850E-10        1.000000
        16.98000           0.65109E-10        1.000000
        16.99000           0.64489E-10        1.000000
        17.00000           0.63982E-10        1.000000
        17.01000           0.63582E-10        1.000000
        17.02000           0.63284E-10        1.000000
        17.03000           0.63085E-10        1.000000
        17.04000           0.62982E-10        1.000000
        17.05000           0.62974E-10        1.000000
        17.06000           0.63060E-10        1.000000
        17.07000           0.63241E-10        1.000000
        17.08000           0.63519E-10        1.000000
        17.09000           0.63898E-10        1.000000
        17.10000           0.64380E-10        1.000000
        17.11000           0.64972E-10        1.000000
        17.12000           0.65680E-10        1.000000
        17.13000           0.66513E-10        1.000000
        17.14000           0.67479E-10        1.000000
        17.15000           0.68592E-10        1.000000
        17.16000           0.69864E-10        1.000000
        17.17000           0.71311E-10        1.000000
        17.18000           0.72952E-10        1.000000
        17.19000           0.74807E-10        1.000000
        17.20000           0.76901E-10        1.000000
        17.21000           0.79263E-10        1.000000
        17.22000           0.81924E-10        1.000000
        17.23000           0.84921E-10        1.000000
        17.24000           0.88296E-10        1.000000
        17.25000           0.92093E-10        1.000000
        17.26000           0.96365E-10        1.000000
        17.27000           0.10116E-09        1.000000
        17.28000           0.10655E-09        1.000000
        17.29000           0.11257E-09        1.000000
        17.30000           0.11927E-09        1.000000
        17.31000           0.12670E-09        1.000000
        17.32000           0.13485E-09        1.000000
        17.33000           0.14371E-09        1.000000
        17.34000           0.15320E-09        1.000000
        17.35000           0.16319E-09        1.000000
        17.36000           0.17349E-09        1.000000
        17.37000           0.18387E-09        1.000000
        17.38000           0.19411E-09        1.000000
        17.39000           0.20402E-09        1.000000
        17.40000           0.21355E-09        1.000000
        17.41000           0.22275E-09        1.000000
        17.42000           0.23179E-09        1.000000
        17.43000           0.24086E-09        1.000000
        17.44000           0.25008E-09        1.000000
        17.45000           0.25942E-09        1.000000
        17.46000           0.26861E-09        1.000000
        17.47000           0.27716E-09        1.000000
        17.48000           0.28433E-09        1.000000
        17.49000           0.28925E-09        1.000000
        17.50000           0.29108E-09        1.000000
        17.51000           0.28918E-09        1.000000
        17.52000           0.28334E-09        1.000000
        17.53000           0.27381E-09        1.000000
        17.54000           0.26123E-09        1.000000
        17.55000           0.24653E-09        1.000000
        17.56000           0.23066E-09        1.000000
        17.57000           0.21448E-09        1.000000
        17.58000           0.19865E-09        1.000000
        17.59000           0.18363E-09        1.000000
        17.60000           0.16970E-09        1.000000
        17.61000           0.15697E-09        1.000000
        17.62000           0.14548E-09        1.000000
        17.63000           0.13518E-09        1.000000
        17.64000           0.12599E-09        1.000000
        17.65000           0.11782E-09        1.000000
        17.66000           0.11058E-09        1.000000
        17.67000           0.10415E-09        1.000000
        17.68000           0.98464E-10        1.000000
        17.69000           0.93423E-10        1.000000
        17.70000           0.88961E-10        1.000000
        17.71000           0.85013E-10        1.000000
        17.72000           0.81524E-10        1.000000
        17.73000           0.78446E-10        1.000000
        17.74000           0.75740E-10        1.000000
        17.75000           0.73371E-10        1.000000
        17.76000           0.71312E-10        1.000000
        17.77000           0.69539E-10        1.000000
        17.78000           0.68034E-10        1.000000
        17.79000           0.66781E-10        1.000000
        17.80000           0.65769E-10        1.000000
        17.81000           0.64988E-10        1.000000
        17.82000           0.64431E-10        1.000000
        17.83000           0.64090E-10        1.000000
        17.84000           0.63958E-10        1.000000
        17.85000           0.64026E-10        1.000000
        17.86000           0.64280E-10        1.000000
        17.87000           0.64702E-10        1.000000
        17.88000           0.65263E-10        1.000000
        17.89000           0.65922E-10        1.000000
        17.90000           0.66622E-10        1.000000
        17.91000           0.67298E-10        1.000000
        17.92000           0.67879E-10        1.000000
        17.93000           0.68307E-10        1.000000
        17.94000           0.68546E-10        1.000000
        17.95000           0.68597E-10        1.000000
        17.96000           0.68502E-10        1.000000
        17.97000           0.68331E-10        1.000000
        17.98000           0.68171E-10        1.000000
        17.99000           0.68109E-10        1.000000
        18.00000           0.68225E-10        1.000000
        18.01000           0.68585E-10        1.000000
        18.02000           0.69240E-10        1.000000
        18.03000           0.70228E-10        1.000000
        18.04000           0.71577E-10        1.000000
        18.05000           0.73303E-10        1.000000
        18.06000           0.75414E-10        1.000000
        18.07000           0.77910E-10        1.000000
        18.08000           0.80782E-10        1.000000
        18.09000           0.84016E-10        1.000000
        18.10000           0.87596E-10        1.000000
        18.11000           0.91501E-10        1.000000
        18.12000           0.95712E-10        1.000000
        18.13000           0.10019E-09        1.000000
        18.14000           0.10486E-09        1.000000
        18.15000           0.10960E-09        1.000000
        18.16000           0.11419E-09        1.000000
        18.17000           0.11833E-09        1.000000
        18.18000           0.12168E-09        1.000000
        18.19000           0.12387E-09        1.000000
        18.20000           0.12460E-09        1.000000
        18.21000           0.12374E-09        1.000000
        18.22000           0.12133E-09        1.000000
        18.23000           0.11759E-09        1.000000
        18.24000           0.11287E-09        1.000000
        18.25000           0.10757E-09        1.000000
        18.26000           0.10204E-09        1.000000
        18.27000           0.96594E-10        1.000000
        18.28000           0.91435E-10        1.000000
        18.29000           0.86707E-10        1.000000
        18.30000           0.82488E-10        1.000000
        18.31000           0.78811E-10        1.000000
        18.32000           0.75681E-10        1.000000
        18.33000           0.73087E-10        1.000000
        18.34000           0.71008E-10        1.000000
        18.35000           0.69422E-10        1.000000
        18.36000           0.68303E-10        1.000000
        18.37000           0.67629E-10        1.000000
        18.38000           0.67374E-10        1.000000
        18.39000           0.67507E-10        1.000000
        18.40000           0.67989E-10        1.000000
        18.41000           0.68770E-10        1.000000
        18.42000           0.69781E-10        1.000000
        18.43000           0.70936E-10        1.000000
        18.44000           0.72139E-10        1.000000
        18.45000           0.73293E-10        1.000000
        18.46000           0.74318E-10        1.000000
        18.47000           0.75177E-10        1.000000
        18.48000           0.75880E-10        1.000000
        18.49000           0.76483E-10        1.000000
        18.50000           0.77074E-10        1.000000
        18.51000           0.77744E-10        1.000000
        18.52000           0.78561E-10        1.000000
        18.53000           0.79549E-10        1.000000
        18.54000           0.80672E-10        1.000000
        18.55000           0.81832E-10        1.000000
        18.56000           0.82871E-10        1.000000
        18.57000           0.83593E-10        1.000000
        18.58000           0.83797E-10        1.000000
        18.59000           0.83324E-10        1.000000
        18.60000           0.82096E-10        1.000000
        18.61000           0.80137E-10        1.000000
        18.62000           0.77564E-10        1.000000
        18.63000           0.74557E-10        1.000000
        18.64000           0.71317E-10        1.000000
        18.65000           0.68029E-10        1.000000
        18.66000           0.64842E-10        1.000000
        18.67000           0.61862E-10        1.000000
        18.68000           0.59157E-10        1.000000
        18.69000           0.56764E-10        1.000000
        18.70000           0.54695E-10        1.000000
        18.71000           0.52953E-10        1.000000
        18.72000           0.51527E-10        1.000000
        18.73000           0.50405E-10        1.000000
        18.74000           0.49570E-10        1.000000
        18.75000           0.49004E-10        1.000000
        18.76000           0.48684E-10        1.000000
        18.77000           0.48580E-10        1.000000
        18.78000           0.48655E-10        1.000000
        18.79000           0.48858E-10        1.000000
        18.80000           0.49126E-10        1.000000
        18.81000           0.49387E-10        1.000000
        18.82000           0.49563E-10        1.000000
        18.83000           0.49587E-10        1.000000
        18.84000           0.49413E-10        1.000000
        18.85000           0.49031E-10        1.000000
        18.86000           0.48465E-10        1.000000
        18.87000           0.47769E-10        1.000000
        18.88000           0.47015E-10        1.000000
        18.89000           0.46274E-10        1.000000
        18.90000           0.45613E-10        1.000000
        18.91000           0.45083E-10        1.000000
        18.92000           0.44724E-10        1.000000
        18.93000           0.44566E-10        1.000000
        18.94000           0.44631E-10        1.000000
        18.95000           0.44936E-10        1.000000
        18.96000           0.45496E-10        1.000000
        18.97000           0.46329E-10        1.000000
        18.98000           0.47451E-10        1.000000
        18.99000           0.48880E-10        1.000000
        19.00000           0.50636E-10        1.000000
        19.01000           0.52736E-10        1.000000
        19.02000           0.55192E-10        1.000000
        19.03000           0.58007E-10        1.000000
        19.04000           0.61163E-10        1.000000
        19.05000           0.64615E-10        1.000000
        19.06000           0.68273E-10        1.000000
        19.07000           0.71995E-10        1.000000
        19.08000           0.75575E-10        1.000000
        19.09000           0.78756E-10        1.000000
        19.10000           0.81247E-10        1.000000
        19.11000           0.82775E-10        1.000000
        19.12000           0.83141E-10        1.000000
        19.13000           0.82270E-10        1.000000
        19.14000           0.80234E-10        1.000000
        19.15000           0.77227E-10        1.000000
        19.16000           0.73519E-10        1.000000
        19.17000           0.69396E-10        1.000000
        19.18000           0.65116E-10        1.000000
        19.19000           0.60878E-10        1.000000
        19.20000           0.56824E-10        1.000000
        19.21000           0.53036E-10        1.000000
        19.22000           0.49558E-10        1.000000
        19.23000           0.46401E-10        1.000000
        19.24000           0.43557E-10        1.000000
        19.25000           0.41007E-10        1.000000
        19.26000           0.38727E-10        1.000000
        19.27000           0.36690E-10        1.000000
        19.28000           0.34870E-10        1.000000
        19.29000           0.33241E-10        1.000000
        19.30000           0.31781E-10        1.000000
        19.31000           0.30471E-10        1.000000
        19.32000           0.29291E-10        1.000000
        19.33000           0.28226E-10        1.000000
        19.34000           0.27262E-10        1.000000
        19.35000           0.26388E-10        1.000000
        19.36000           0.25592E-10        1.000000
        19.37000           0.24866E-10        1.000000
        19.38000           0.24202E-10        1.000000
        19.39000           0.23592E-10        1.000000
        19.40000           0.23032E-10        1.000000
        19.41000           0.22515E-10        1.000000
        19.42000           0.22038E-10        1.000000
        19.43000           0.21595E-10        1.000000
        19.44000           0.21185E-10        1.000000
        19.45000           0.20802E-10        1.000000
        19.46000           0.20446E-10        1.000000
        19.47000           0.20113E-10        1.000000
        19.48000           0.19802E-10        1.000000
        19.49000           0.19510E-10        1.000000
        19.50000           0.19236E-10        1.000000
        19.51000           0.18978E-10        1.000000
        19.52000           0.18735E-10        1.000000
        19.53000           0.18506E-10        1.000000
        19.54000           0.18289E-10        1.000000
        19.55000           0.18084E-10        1.000000
        19.56000           0.17890E-10        1.000000
        19.57000           0.17706E-10        1.000000
        19.58000           0.17532E-10        1.000000
        19.59000           0.17366E-10        1.000000
        19.60000           0.17208E-10        1.000000
        19.61000           0.17057E-10        1.000000
        19.62000           0.16914E-10        1.000000
        19.63000           0.16777E-10        1.000000
        19.64000           0.16647E-10        1.000000
        19.65000           0.16523E-10        1.000000
        19.66000           0.16404E-10        1.000000
        19.67000           0.16290E-10        1.000000
        19.68000           0.16181E-10        1.000000
        19.69000           0.16077E-10        1.000000
        19.70000           0.15978E-10        1.000000
        19.71000           0.15882E-10        1.000000
        19.72000           0.15791E-10        1.000000
        19.73000           0.15704E-10        1.000000
        19.74000           0.15620E-10        1.000000
        19.75000           0.15540E-10        1.000000
        19.76000           0.15463E-10        1.000000
        19.77000           0.15390E-10        1.000000
        19.78000           0.15320E-10        1.000000
        19.79000           0.15253E-10        1.000000
        19.80000           0.15189E-10        1.000000
        19.81000           0.15128E-10        1.000000
        19.82000           0.15069E-10        1.000000
        19.83000           0.15014E-10        1.000000
        19.84000           0.14961E-10        1.000000
        19.85000           0.14911E-10        1.000000
        19.86000           0.14863E-10        1.000000
        19.87000           0.14818E-10        1.000000
        19.88000           0.14776E-10        1.000000
        19.89000           0.14736E-10        1.000000
        19.90000           0.14698E-10        1.000000
        19.91000           0.14664E-10        1.000000
        19.92000           0.14631E-10        1.000000
        19.93000           0.14601E-10        1.000000
        19.94000           0.14574E-10        1.000000
        19.95000           0.14550E-10        1.000000
        19.96000           0.14528E-10        1.000000
        19.97000           0.14508E-10        1.000000
        19.98000           0.14492E-10        1.000000
        19.99000           0.14478E-10        1.000000
        20.00000           0.14467E-10        1.000000
# 
# 11/10/2023 at 10:05 yambo @ unimi-XPS-8930 [start]
# 11/10/2023 at 10:05                        [end]
#
# .-Input file  yambo.in
# | rim_cut                          # [R] Coulomb potential
# | optics                           # [R] Linear Response optical properties
# | dipoles                          # [R] Oscillator strenghts (or dipoles)
# | bse                              # [R][BSE] Bethe Salpeter Equation.
# | ElecTemp= 0.025861         eV    # Electronic Temperature
# | BoseTemp= 0.025861         eV    # Bosonic Temperature
# | DIP_Threads= 1                   # [OPENMP/X] Number of threads for dipoles
# | BS_nCPU_LinAlg_INV= 1            # [PARALLEL] CPUs for Linear Algebra (if -1 it is automatically set)
# | BS_nCPU_LinAlg_DIAGO= 1          # [PARALLEL] CPUs for Linear Algebra (if -1 it is automatically set)
# | X_Threads= 1                     # [OPENMP/X] Number of threads for response functions
# | K_Threads= 1                     # [OPENMP/BSK] Number of threads for response functions
# | RandQpts=0                       # [RIM] Number of random q-points in the BZ
# | RandGvec= 1                RL    # [RIM] Coulomb interaction RS components
# | CUTGeo= "ws xyz"                 # [CUT] Coulomb Cutoff geometry: box/cylinder/sphere/ws/slab X/Y/Z/XY..
# | % CUTBox
# |  0.000000 | 0.000000 | 0.000000 |        # [CUT] [au] Box sides
# | %
# | CUTRadius= 0.000000              # [CUT] [au] Sphere/Cylinder radius
# | CUTCylLen= 0.000000              # [CUT] [au] Cylinder length
# | CUTwsGvec= 0.700000              # [CUT] WS cutoff: number of G to be modified
# | BSKmod= "IP"                     # [BSE] IP/Hartree/HF/ALDA/SEX/BSfxc
# | BSEmod= "retarded"               # [BSE] resonant/retarded/coupling
# | Lkind= "Lbar"                    # [BSE,X] bar(default)/full
# | DipBandsALL                    # [DIP] Compute all bands range, not only valence and conduction
# | DipComputed= "R V P"             # [DIP] [default R P V; extra P2 Spin Orb]
# | DbGdQsize= 1.000000              # [X,DbGd][o/o] Percentual of the total DbGd transitions to be used
# | BSENGexx= 20395            RL    # [BSK] Exchange components
# | % BSEQptR
# |  1 | 1 |                             # [BSK] Transferred momenta range
# | %
# | % BSEBands
# |   1 | 20 |                           # [BSK] Bands range
# | %
# | % BEnRange
# |   0.00000 | 20.00000 |         eV    # [BSS] Energy range
# | %
# | % BDmRange
# |  0.100000 | 0.100000 |         eV    # [BSS] Damping range
# | %
# | BEnSteps= 2001                   # [BSS] Energy steps
# | % BLongDir
# |  0.100000E-4 |  0.00000    |  0.00000    # [BSS] [cc] Electric Field
# | %
# | BSEprop= "abs trace dichr jdos"  # [BSS] Can be any among abs/jdos/kerr/magn/dich/photolum/esrt
# | BSEdips= "none"                  # [BSS] Can be "trace/none" or "xy/xz/yz" to define off-diagonal rotation plane
