#                                                                     
# ooooo   oooo ..     ooo        ooo ooooooooo.    .oooo.             
#  `88.   .8" .88.    `88.       .88 `88"   `Y8b  dP"  `Yb            
#   `88. .8" .8"88.    888b     d"88  88     888 88      88           
#    `88.8" .8" `88.   8 Y88. .P  88  88oooo888" 88      88           
#     `88" .88ooo888.  8  `888"   88  88    `88b 88      88           
#      88 .8"     `88. 8    Y     88  88    .88P `8b    d8"           
#     o88o88o      888o8          88 o88bood8P"   `Ybod8P"            
#                                                                     
#                                                                     
# Version 5.2.0 Revision 23236 Hash (prev commit) fef8b788e7          
#                 Branch is phys-dichroism                            
#          MPI+OpenMP+SLK+SLEPC+HDF5_MPI_IO Build                     
#                 http://www.yambo-code.org                           
#
# Off-diagonal Polarizability @ Q(1):   1.00000000      0.00000000      0.00000000    [q->0 direction]
# [DIP] Rotation plane                            : none
#
# Beta units: volume
#
# [GEN] GF Energies                               : Perdew, Burke & Ernzerhof(X)+Perdew, Burke & Ernzerhof(C)
# [GEN] Green`s Function                          : Retarded
#
# [GEN] Gauge                                     : Length
# [GEN] [r,Vnl] included                          : yes
#
# DIP band range                                  :   2   7
# DIP band range limits                           :   7   2
# DIP e/h energy range                            :  -1.00000000     -1.00000000    [eV]
# RL vectors in the sum                           :  2637
# [r,Vnl] included                                : yes
# Bands ordered                                   : no
# Direct v evaluation                             : no
# Approach used                                   : G-space v
# Dipoles computed                                : R V P
# Wavefunctions                                   : Perdew, Burke & Ernzerhof(X)+Perdew, Burke & Ernzerhof(C)
#
#
# [K] Identifier                                  :  1723
# [K] Dimension                                   :   9
# [K] Bands                                       :   2   7
# [K] Exchange res                                : yes
# [K] Correlation res                             : no
# [K] Kernel`s coupling                           : no
# [K] Exchange cpl                                : no
# [K] Correlation cpl                             : no
# [K] W interaction is bare                       : no
# [K] ALDA kernel in R-space                      : no
# [K] RL vectors exchange                         :   4015
# [K] E/h energy range                            :  -1.00000000     -1.00000000    [eV]
# [K] Coupling range                              :   100.000000      100.000000    [o/o]
# [X] Response Kind                               : BAR
#
#
#    E[1] [eV]          Im(beta)           Re(beta)           Im(beta_o)         Re(beta_o)
#
       -20.00000           0.016191           1.366812           0.011661           0.958069
       -19.98000           0.016220           1.369561           0.011701           0.960222
       -19.96000           0.016249           1.372313           0.011741           0.962384
       -19.94000           0.016278           1.375069           0.011781           0.964552
       -19.92000           0.016307           1.377829           0.011822           0.966729
       -19.90000           0.016335           1.380592           0.011863           0.968914
       -19.88000           0.016363           1.383359           0.011904           0.971106
       -19.86000           0.016391           1.386129           0.011945           0.973306
       -19.84000           0.016418           1.388903           0.011986           0.975514
       -19.82000           0.016444           1.391679           0.012028           0.977730
       -19.80000           0.016471           1.394459           0.012070           0.979954
       -19.78000           0.016497           1.397241           0.012112           0.982186
       -19.76000           0.016522           1.400026           0.012154           0.984425
       -19.74000           0.016547           1.402814           0.012197           0.986673
       -19.72000           0.016572           1.405604           0.012239           0.988929
       -19.70000           0.016596           1.408398           0.012282           0.991194
       -19.68000           0.016620           1.411193           0.012325           0.993466
       -19.66000           0.016643           1.413991           0.012369           0.995747
       -19.64000           0.016665           1.416791           0.012412           0.998037
       -19.62000           0.016687           1.419593           0.012456           1.000334
       -19.60000           0.016709           1.422397           0.012500           1.002640
       -19.58000           0.016730           1.425202           0.012544           1.004954
       -19.56000           0.016750           1.428010           0.012589           1.007277
       -19.54000           0.016770           1.430818           0.012634           1.009608
       -19.52000           0.016789           1.433628           0.012679           1.011948
       -19.50000           0.016808           1.436439           0.012724           1.014296
       -19.48000           0.016826           1.439252           0.012769           1.016653
       -19.46000           0.016843           1.442065           0.012815           1.019019
       -19.44000           0.016860           1.444878           0.012861           1.021394
       -19.42000           0.016876           1.447693           0.012907           1.023777
       -19.40000           0.016891           1.450508           0.012953           1.026169
       -19.38000           0.016905           1.453323           0.013000           1.028570
       -19.36000           0.016919           1.456139           0.013047           1.030980
       -19.34000           0.016932           1.458954           0.013094           1.033399
       -19.32000           0.016944           1.461769           0.013141           1.035827
       -19.30000           0.016955           1.464583           0.013189           1.038264
       -19.28000           0.016965           1.467397           0.013237           1.040710
       -19.26000           0.016975           1.470210           0.013285           1.043165
       -19.24000           0.016983           1.473022           0.013333           1.045629
       -19.22000           0.016991           1.475832           0.013382           1.048104
       -19.20000           0.016997           1.478641           0.013431           1.050586
       -19.18000           0.017003           1.481449           0.013480           1.053079
       -19.16000           0.017008           1.484254           0.013530           1.055581
       -19.14000           0.017011           1.487057           0.013579           1.058092
       -19.12000           0.017014           1.489858           0.013629           1.060613
       -19.10000           0.017015           1.492656           0.013680           1.063144
       -19.08000           0.017015           1.495451           0.013730           1.065684
       -19.06000           0.017014           1.498243           0.013781           1.068234
       -19.04000           0.017012           1.501032           0.013832           1.070793
       -19.02000           0.017009           1.503817           0.013884           1.073362
       -19.00000           0.017004           1.506598           0.013935           1.075941
       -18.98000           0.016998           1.509374           0.013987           1.078530
       -18.96000           0.016991           1.512146           0.014039           1.081129
       -18.94000           0.016982           1.514913           0.014092           1.083739
       -18.92000           0.016972           1.517676           0.014145           1.086357
       -18.90000           0.016961           1.520432           0.014198           1.088987
       -18.88000           0.016948           1.523183           0.014251           1.091626
       -18.86000           0.016933           1.525927           0.014305           1.094276
       -18.84000           0.016917           1.528665           0.014359           1.096936
       -18.82000           0.016899           1.531396           0.014413           1.099606
       -18.80000           0.016880           1.534119           0.014468           1.102287
       -18.78000           0.016859           1.536836           0.014523           1.104978
       -18.76000           0.016836           1.539544           0.014578           1.107680
       -18.74000           0.016811           1.542244           0.014634           1.110392
       -18.72000           0.016784           1.544935           0.014690           1.113115
       -18.70000           0.016756           1.547617           0.014746           1.115849
       -18.68000           0.016725           1.550290           0.014802           1.118593
       -18.66000           0.016693           1.552952           0.014859           1.121348
       -18.64000           0.016658           1.555604           0.014916           1.124115
       -18.62000           0.016622           1.558245           0.014974           1.126891
       -18.60000           0.016583           1.560875           0.015032           1.129680
       -18.58000           0.016542           1.563492           0.015090           1.132479
       -18.56000           0.016498           1.566097           0.015148           1.135289
       -18.54000           0.016453           1.568689           0.015207           1.138110
       -18.52000           0.016404           1.571268           0.015266           1.140943
       -18.50000           0.016354           1.573833           0.015326           1.143787
       -18.48000           0.016300           1.576384           0.015386           1.146643
       -18.46000           0.016244           1.578919           0.015446           1.149510
       -18.44000           0.016185           1.581439           0.015507           1.152388
       -18.42000           0.016124           1.583943           0.015567           1.155279
       -18.40000           0.016060           1.586429           0.015629           1.158181
       -18.38000           0.015992           1.588898           0.015690           1.161094
       -18.36000           0.015922           1.591349           0.015752           1.164020
       -18.34000           0.015848           1.593781           0.015815           1.166957
       -18.32000           0.015771           1.596194           0.015878           1.169907
       -18.30000           0.015691           1.598587           0.015941           1.172868
       -18.28000           0.015608           1.600958           0.016004           1.175841
       -18.26000           0.015521           1.603309           0.016068           1.178827
       -18.24000           0.015430           1.605637           0.016132           1.181825
       -18.22000           0.015336           1.607942           0.016197           1.184835
       -18.20000           0.015238           1.610222           0.016262           1.187858
       -18.18000           0.015136           1.612478           0.016328           1.190893
       -18.16000           0.015030           1.614709           0.016393           1.193941
       -18.14000           0.014920           1.616912           0.016460           1.197001
       -18.12000           0.014806           1.619089           0.016526           1.200075
       -18.10000           0.014687           1.621237           0.016593           1.203160
       -18.08000           0.014564           1.623356           0.016661           1.206259
       -18.06000           0.014436           1.625445           0.016729           1.209370
       -18.04000           0.014303           1.627502           0.016797           1.212495
       -18.02000           0.014166           1.629528           0.016866           1.215632
       -18.00000           0.014023           1.631519           0.016935           1.218784
       -17.98000           0.013875           1.633478           0.017005           1.221948
       -17.96000           0.013722           1.635400           0.017075           1.225125
       -17.94000           0.013564           1.637286           0.017145           1.228317
       -17.92000           0.013400           1.639134           0.017216           1.231521
       -17.90000           0.013230           1.640943           0.017287           1.234739
       -17.88000           0.013054           1.642712           0.017359           1.237971
       -17.86000           0.012871           1.644439           0.017432           1.241217
       -17.84000           0.012683           1.646123           0.017504           1.244476
       -17.82000           0.012488           1.647763           0.017577           1.247749
       -17.80000           0.012286           1.649358           0.017651           1.251037
       -17.78000           0.012077           1.650905           0.017725           1.254339
       -17.76000           0.011861           1.652405           0.017800           1.257654
       -17.74000           0.011638           1.653855           0.017875           1.260984
       -17.72000           0.011408           1.655252           0.017951           1.264330
       -17.70000           0.011169           1.656597           0.018027           1.267688
       -17.68000           0.010922           1.657887           0.018103           1.271062
       -17.66000           0.010668           1.659120           0.018180           1.274451
       -17.64000           0.010404           1.660295           0.018258           1.277854
       -17.62000           0.010132           1.661411           0.018336           1.281271
       -17.60000           0.009851           1.662464           0.018415           1.284704
       -17.58000           0.009560           1.663453           0.018494           1.288153
       -17.56000           0.009260           1.664377           0.018573           1.291616
       -17.54000           0.008950           1.665233           0.018653           1.295095
       -17.52000           0.008630           1.666018           0.018734           1.298589
       -17.50000           0.008299           1.666733           0.018815           1.302099
       -17.48000           0.007958           1.667372           0.018897           1.305624
       -17.46000           0.007605           1.667934           0.018980           1.309165
       -17.44000           0.007241           1.668419           0.019062           1.312721
       -17.42000           0.006864           1.668821           0.019146           1.316293
       -17.40000           0.006476           1.669140           0.019230           1.319882
       -17.38000           0.006074           1.669372           0.019315           1.323487
       -17.36000           0.005660           1.669515           0.019400           1.327108
       -17.34000           0.005232           1.669566           0.019485           1.330746
       -17.32000           0.004790           1.669522           0.019572           1.334399
       -17.30000           0.004334           1.669381           0.019659           1.338070
       -17.28000           0.003863           1.669139           0.019746           1.341757
       -17.26000           0.003376           1.668793           0.019834           1.345461
       -17.24000           0.002874           1.668340           0.019923           1.349182
       -17.22000           0.002356           1.667777           0.020013           1.352920
       -17.20000           0.001820           1.667101           0.020103           1.356675
       -17.18000           0.001267           1.666306           0.020193           1.360447
       -17.16000           0.695720E-3        1.665390           0.020285           1.364237
       -17.14000           0.105914E-3        1.664351           0.020377           1.368044
       -17.12000          -0.503157E-3        1.663181           0.020469           1.371869
       -17.10000          -0.001132           1.661880           0.020563           1.375712
       -17.08000          -0.001782           1.660441           0.020657           1.379573
       -17.06000          -0.002453           1.658862           0.020751           1.383452
       -17.04000          -0.003146           1.657137           0.020846           1.387348
       -17.02000          -0.003862           1.655262           0.020942           1.391264
       -17.00000          -0.004601           1.653231           0.021039           1.395198
       -16.98000          -0.005365           1.651040           0.021137           1.399150
       -16.96000          -0.006154           1.648684           0.021235           1.403121
       -16.94000          -0.006969           1.646160           0.021334           1.407111
       -16.92000          -0.007812           1.643458           0.021433           1.411120
       -16.90000          -0.008682           1.640576           0.021533           1.415148
       -16.88000          -0.009582           1.637506           0.021635           1.419195
       -16.86000          -0.010512           1.634242           0.021736           1.423262
       -16.84000          -0.011473           1.630780           0.021839           1.427348
       -16.82000          -0.012466           1.627112           0.021942           1.431454
       -16.80000          -0.013493           1.623230           0.022046           1.435580
       -16.78000          -0.014554           1.619129           0.022151           1.439726
       -16.76000          -0.015652           1.614801           0.022257           1.443892
       -16.74000          -0.016786           1.610239           0.022364           1.448078
       -16.72000          -0.017960           1.605434           0.022471           1.452286
       -16.70000          -0.019174           1.600379           0.022579           1.456512
       -16.68000          -0.020430           1.595067           0.022688           1.460762
       -16.66000          -0.021729           1.589486           0.022798           1.465031
       -16.64000          -0.023073           1.583631           0.022909           1.469321
       -16.62000          -0.024464           1.577489           0.023021           1.473634
       -16.60000          -0.025903           1.571052           0.023133           1.477966
       -16.58000          -0.027393           1.564310           0.023247           1.482322
       -16.56000          -0.028935           1.557252           0.023361           1.486698
       -16.54000          -0.030532           1.549869           0.023476           1.491096
       -16.52000          -0.032186           1.542148           0.023592           1.495518
       -16.50000          -0.033898           1.534077           0.023709           1.499961
       -16.48000          -0.035672           1.525644           0.023827           1.504426
       -16.46000          -0.037510           1.516837           0.023946           1.508915
       -16.44000          -0.039414           1.507645           0.024066           1.513426
       -16.42000          -0.041388           1.498049           0.024187           1.517961
       -16.40000          -0.043433           1.488040           0.024309           1.522517
       -16.38000          -0.045554           1.477599           0.024432           1.527099
       -16.36000          -0.047754           1.466713           0.024556           1.531705
       -16.34000          -0.050034           1.455365           0.024681           1.536333
       -16.32000          -0.052401           1.443539           0.024808           1.540986
       -16.30000          -0.054856           1.431216           0.024935           1.545662
       -16.28000          -0.057403           1.418379           0.025063           1.550364
       -16.26000          -0.060048           1.405009           0.025192           1.555089
       -16.24000          -0.062793           1.391086           0.025323           1.559840
       -16.22000          -0.065644           1.376588           0.025454           1.564617
       -16.20000          -0.068606           1.361495           0.025587           1.569418
       -16.18000          -0.071683           1.345782           0.025721           1.574245
       -16.16000          -0.074881           1.329429           0.025856           1.579098
       -16.14000          -0.078204           1.312409           0.025992           1.583977
       -16.12000          -0.081660           1.294698           0.026130           1.588881
       -16.10000          -0.085255           1.276265           0.026268           1.593813
       -16.08000          -0.088994           1.257086           0.026408           1.598771
       -16.06000          -0.092885           1.237126           0.026549           1.603757
       -16.04000          -0.096935           1.216362           0.026692           1.608768
       -16.02000          -0.101152           1.194753           0.026835           1.613809
       -16.00000          -0.105544           1.172273           0.026981           1.618876
       -15.98000          -0.110121           1.148877           0.027127           1.623971
       -15.96000          -0.114889           1.124538           0.027275           1.629094
       -15.94000          -0.119862           1.099208           0.027424           1.634247
       -15.92000          -0.125046           1.072851           0.027574           1.639427
       -15.90000          -0.130456           1.045418           0.027726           1.644637
       -15.88000          -0.136101           1.016869           0.027879           1.649876
       -15.86000          -0.141995           0.987155           0.028034           1.655145
       -15.84000          -0.148150           0.956223           0.028190           1.660442
       -15.82000          -0.154582           0.924022           0.028348           1.665771
       -15.80000          -0.161304           0.890497           0.028508           1.671130
       -15.78000          -0.168332           0.855585           0.028668           1.676519
       -15.76000          -0.175685           0.819226           0.028831           1.681940
       -15.74000          -0.183380           0.781355           0.028995           1.687391
       -15.72000          -0.191437           0.741902           0.029160           1.692874
       -15.70000          -0.199876           0.700793           0.029328           1.698390
       -15.68000          -0.208721           0.657951           0.029497           1.703937
       -15.66000          -0.217994           0.613297           0.029667           1.709518
       -15.64000          -0.227722           0.566740           0.029840           1.715130
       -15.62000          -0.237932           0.518191           0.030014           1.720776
       -15.60000          -0.248654           0.467552           0.030190           1.726456
       -15.58000          -0.259920           0.414720           0.030368           1.732170
       -15.56000          -0.271764           0.359584           0.030547           1.737918
       -15.54000          -0.284222           0.302030           0.030729           1.743701
       -15.52000          -0.297336           0.241934           0.030912           1.749519
       -15.50000          -0.311147           0.179165           0.031098           1.755372
       -15.48000          -0.325702           0.113579           0.031285           1.761260
       -15.46000          -0.341052           0.045032           0.031474           1.767185
       -15.44000          -0.357251          -0.026636           0.031666           1.773146
       -15.42000          -0.374359          -0.101596           0.031859           1.779145
       -15.40000          -0.392439          -0.180029           0.032055           1.785181
       -15.38000          -0.411561          -0.262126           0.032253           1.791254
       -15.36000          -0.431801          -0.348100           0.032453           1.797366
       -15.34000          -0.453243          -0.438170           0.032655           1.803516
       -15.32000          -0.475978          -0.532584           0.032859           1.809706
       -15.30000          -0.500101          -0.631570           0.033066           1.815934
       -15.28000          -0.525727          -0.735439           0.033276           1.822203
       -15.26000          -0.552967          -0.844455           0.033487           1.828512
       -15.24000          -0.581961          -0.958968           0.033701           1.834862
       -15.22000          -0.612843          -1.079287           0.033918           1.841253
       -15.20000          -0.645782          -1.205825           0.034137           1.847686
       -15.18000          -0.680942          -1.338937           0.034359           1.854162
       -15.16000          -0.718529          -1.479108           0.034583           1.860680
       -15.14000          -0.758749          -1.626771           0.034810           1.867242
       -15.12000          -0.801844          -1.782453           0.035040           1.873847
       -15.10000          -0.848081          -1.946709           0.035273           1.880497
       -15.08000          -0.897755          -2.120145           0.035509           1.887191
       -15.06000          -0.951200          -2.303425           0.035747           1.893932
       -15.04000          -1.008789          -2.497271           0.035989           1.900718
       -15.02000          -1.070940          -2.702472           0.036233           1.907551
       -15.00000          -1.138125          -2.919901           0.036481           1.914432
       -14.98000          -1.210879          -3.150505           0.036732           1.921360
       -14.96000          -1.289806          -3.395334           0.036986           1.928337
       -14.94000          -1.375595          -3.655543           0.037243           1.935363
       -14.92000          -1.469031          -3.932412           0.037504           1.942439
       -14.90000          -1.571012          -4.227350           0.037769           1.949565
       -14.88000          -1.682571          -4.541926           0.038037           1.956742
       -14.86000          -1.804898          -4.877880           0.038308           1.963971
       -14.84000          -1.939369          -5.237155           0.038583           1.971253
       -14.82000          -2.087585          -5.621915           0.038862           1.978588
       -14.80000          -2.251415          -6.034583           0.039145           1.985976
       -14.78000          -2.433048          -6.477878           0.039432           1.993420
       -14.76000          -2.635067          -6.954852           0.039723           2.000919
       -14.74000          -2.860527          -7.468943           0.040018           2.008475
       -14.72000          -3.113068          -8.024035           0.040317           2.016088
       -14.70000          -3.397049          -8.624511           0.040621           2.023759
       -14.68000          -3.717720          -9.275333           0.040929           2.031487
       -14.66000          -4.081448          -9.982132           0.041242           2.039276
       -14.64000          -4.496005          -10.75128           0.041559           2.047126
       -14.62000          -4.970950          -11.58999           0.041881           2.055037
       -14.60000          -5.518124          -12.50642           0.042208           2.063010
       -14.58000          -6.152369          -13.50982           0.042540           2.071048
       -14.56000          -6.892142          -14.61015           0.042877           2.079148
       -14.54000          -7.761341          -15.81898           0.043219           2.087315
       -14.52000          -8.790002          -17.14795           0.043567           2.095548
       -14.50000          -10.01767          -18.60976           0.043921           2.103848
       -14.48000          -11.49508          -20.21541           0.044280           2.112217
       -14.46000          -13.28998          -21.97400           0.044644           2.120655
       -14.44000          -15.49074          -23.88663           0.045015           2.129164
       -14.42000          -18.21616          -25.94150           0.045392           2.137746
       -14.40000          -21.62188          -28.09840           0.045776           2.146400
       -14.38000          -25.91187          -30.26695           0.046165           2.155128
       -14.36000          -31.34233          -32.26491           0.046562           2.163934
       -14.34000          -38.20871          -33.75064           0.046965           2.172815
       -14.32000          -46.78245          -34.12305           0.047376           2.181775
       -14.30000          -57.13504          -32.41179           0.047793           2.190814
       -14.28000          -68.77182          -27.27188           0.048218           2.199934
       -14.26000          -80.11976          -17.36514           0.048651           2.209138
       -14.24000          -88.36519          -2.412482           0.049091           2.218424
       -14.22000          -90.56003           15.60900           0.049540           2.227797
       -14.20000          -85.78616           32.84963           0.049997           2.237257
       -14.18000          -75.97746           45.97829           0.050462           2.246806
       -14.16000          -64.25738           53.97152           0.050937           2.256444
       -14.14000          -52.99927           57.67510           0.051420           2.266176
       -14.12000          -43.30266           58.50954           0.051913           2.276002
       -14.10000          -35.38911           57.68690           0.052415           2.285923
       -14.08000          -29.08145           56.02264           0.052928           2.295943
       -14.06000          -24.08866           54.00386           0.053450           2.306062
       -14.04000          -20.12848           51.90105           0.053984           2.316282
       -14.02000          -16.96601           49.85549           0.054528           2.326607
       -14.00000          -14.41752           47.93516           0.055083           2.337037
       -13.98000          -12.34303           46.16791           0.055650           2.347575
       -13.96000          -10.63688           44.56020           0.056229           2.358224
       -13.94000          -9.219314           43.10760           0.056821           2.368987
       -13.92000          -8.029863           41.80058           0.057425           2.379864
       -13.90000          -7.022353           40.62762           0.058042           2.390858
       -13.88000          -6.161218           39.57685           0.058674           2.401974
       -13.86000          -5.418819           38.63692           0.059319           2.413212
       -13.84000          -4.773433           37.79728           0.059979           2.424578
       -13.82000          -4.208040           37.04867           0.060654           2.436070
       -13.80000          -3.708746           36.38245           0.061345           2.447695
       -13.78000          -3.264662           35.79142           0.062052           2.459455
       -13.76000          -2.866653           35.26890           0.062776           2.471354
       -13.74000          -2.507478           34.80938           0.063517           2.483391
       -13.72000          -2.180918           34.40778           0.064276           2.495576
       -13.70000          -1.881989           34.05994           0.065054           2.507907
       -13.68000          -1.606306           33.76206           0.065851           2.520392
       -13.66000          -1.350294           33.51101           0.066669           2.533031
       -13.64000          -1.110804           33.30406           0.067507           2.545832
       -13.62000          -0.885126           33.13887           0.068367           2.558794
       -13.60000          -0.670881           33.01349           0.069250           2.571927
       -13.58000          -0.465961           32.92630           0.070156           2.585231
       -13.56000          -0.268465           32.87600           0.071086           2.598712
       -13.54000          -0.076659           32.86155           0.072041           2.612375
       -13.52000           0.111066           32.88218           0.073023           2.626227
       -13.50000           0.296233           32.93737           0.074032           2.640269
       -13.48000           0.480307           33.02687           0.075069           2.654509
       -13.46000           0.664724           33.15062           0.076136           2.668952
       -13.44000           0.850928           33.30883           0.077233           2.683605
       -13.42000           1.040392           33.50193           0.078363           2.698472
       -13.40000           1.234653           33.73061           0.079526           2.713561
       -13.38000           1.435345           33.99580           0.080725           2.728878
       -13.36000           1.644237           34.29868           0.081959           2.744430
       -13.34000           1.863273           34.64076           0.083231           2.760225
       -13.32000           2.094627           35.02382           0.084543           2.776268
       -13.30000           2.340763           35.44999           0.085897           2.792567
       -13.28000           2.604505           35.92178           0.087294           2.809134
       -13.26000           2.889133           36.44212           0.088735           2.825974
       -13.24000           3.198501           37.01438           0.090225           2.843097
       -13.22000           3.537178           37.64246           0.091763           2.860513
       -13.20000           3.910638           38.33085           0.093353           2.878230
       -13.18000           4.325521           39.08471           0.094998           2.896262
       -13.16000           4.789885           39.90981           0.096700           2.914614
       -13.14000           5.313719           40.81282           0.098460           2.933302
       -13.12000           5.909439           41.80120           0.100284           2.952335
       -13.10000           6.592656           42.88324           0.102173           2.971727
       -13.08000           7.383174           44.06799           0.104130           2.991490
       -13.06000           8.306387           45.36503           0.106160           3.011638
       -13.04000           9.395145           46.78394           0.108266           3.032185
       -13.02000           10.69234           48.33321           0.110451           3.053145
       -13.00000           12.25440           50.01817           0.112721           3.074535
       -12.98000           14.15598           51.83722           0.115079           3.096374
       -12.96000           16.49594           53.77477           0.117530           3.118674
       -12.94000           19.40429           55.78875           0.120079           3.141456
       -12.92000           23.04814           57.78829           0.122731           3.164740
       -12.90000           27.63105           59.59578           0.125493           3.188548
       -12.88000           33.37037           60.88653           0.128370           3.212897
       -12.86000           40.42040           61.10808           0.131368           3.237814
       -12.84000           48.68404           59.41898           0.134495           3.263319
       -12.82000           57.48103           54.78382           0.137758           3.289440
       -12.80000           65.21980           46.46999           0.141165           3.316203
       -12.78000           69.63811           34.97533           0.144724           3.343637
       -12.76000           69.09933           22.52698           0.148445           3.371772
       -12.74000           63.96174           12.00054           0.152337           3.400639
       -12.72000           56.25566           5.097905           0.156411           3.430271
       -12.70000           48.12272           1.819859           0.160677           3.460705
       -12.68000           40.85101           1.255879           0.165150           3.491978
       -12.66000           34.89989           2.410932           0.169840           3.524132
       -12.64000           30.26795           4.545561           0.174763           3.557208
       -12.62000           26.78101           7.197452           0.179933           3.591255
       -12.60000           24.23727           10.10571           0.185368           3.626316
       -12.58000           22.46251           13.13564           0.191084           3.662447
       -12.56000           21.32415           16.22646           0.197101           3.699701
       -12.54000           20.73004           19.35930           0.203439           3.738138
       -12.52000           20.62357           22.53862           0.210122           3.777821
       -12.50000           20.97922           25.78171           0.217174           3.818817
       -12.48000           21.79998           29.11167           0.224621           3.861197
       -12.46000           23.11729           32.55378           0.232492           3.905040
       -12.44000           24.99354           36.13061           0.240819           3.950428
       -12.42000           27.52734           39.85629           0.249636           3.997447
       -12.40000           30.86197           43.72692           0.258981           4.046196
       -12.38000           35.19680           47.70369           0.268895           4.096775
       -12.36000           40.80034           51.68297           0.279423           4.149297
       -12.34000           48.01931           55.44401           0.290614           4.203878
       -12.32000           57.26831           58.56097           0.302522           4.260650
       -12.30000           68.96146           60.26810           0.315208           4.319746
       -12.28000           83.30662           59.29498           0.328737           4.381321
       -12.26000           99.84580           53.79308           0.343181           4.445536
       -12.24000           116.7266           41.70295           0.358622           4.512563
       -12.22000           130.2183           22.04723           0.375147           4.582600
       -12.20000           135.7729          -3.178596           0.392857           4.655847
       -12.18000           131.0453          -28.75852           0.411860           4.732534
       -12.16000           117.9470          -49.25688           0.432279           4.812909
       -12.14000           100.9486          -62.27531           0.454252           4.897235
       -12.12000           83.96246          -68.55347           0.477931           4.985814
       -12.10000           69.03798          -70.11760           0.503487           5.078959
       -12.08000           56.74259          -68.87484           0.531114           5.177024
       -12.06000           46.90745          -66.16369           0.561029           5.280403
       -12.04000           39.12037          -62.80145           0.593478           5.389516
       -12.02000           32.95357          -59.24826           0.628741           5.504832
       -12.00000           28.04205          -55.74734           0.667134           5.626874
       -11.98000           24.09740          -52.41780           0.709018           5.756214
       -11.96000           20.89898          -49.31027           0.754806           5.893492
       -11.94000           18.28014          -46.43879           0.804972           6.039410
       -11.92000           16.11515          -43.79852           0.860063           6.194757
       -11.90000           14.30890          -41.37558           0.920708           6.360411
       -11.88000           12.78890          -39.15237           0.987640           6.537353
       -11.86000           11.49949          -37.11042           1.061710           6.726676
       -11.84000           10.39755          -35.23177           1.143916           6.929620
       -11.82000           9.449365          -33.49973           1.235430           7.147569
       -11.80000           8.628352          -31.89909           1.337634           7.382082
       -11.78000           7.913366          -30.41619           1.452170           7.634924
       -11.76000           7.287436          -29.03881           1.581005           7.908107
       -11.74000           6.736914          -27.75624           1.726477           8.203870
       -11.72000           6.250629          -26.55881           1.891429           8.524782
       -11.70000           5.819457          -25.43803           2.079311           8.873762
       -11.68000           5.435878          -24.38633           2.294340           9.254115
       -11.66000           5.093671          -23.39698           2.541713           9.669583
       -11.64000           4.787662          -22.46398           2.827879           10.12440
       -11.62000           4.513531          -21.58193           3.160912           10.62333
       -11.60000           4.267677          -20.74600           3.550993           11.17167
       -11.58000           4.047083          -19.95183           4.011084           11.77519
       -11.56000           3.849239          -19.19543           4.557822           12.44004
       -11.54000           3.672063          -18.47320           5.212756           13.17241
       -11.52000           3.513853          -17.78178           6.004046           13.97788
       -11.50000           3.373240          -17.11811           6.968747           14.86018
       -11.48000           3.249170          -16.47930           8.155923           15.81886
       -11.46000           3.140884          -15.86266           9.630670           16.84504
       -11.44000           3.047917          -15.26561           11.47896           17.91377
       -11.42000           2.970109          -14.68569           13.81238           18.97037
       -11.40000           2.907629          -14.12051           16.76987           19.90691
       -11.38000           2.861026          -13.56780           20.50723           20.52368
       -11.36000           2.831290          -13.02525           25.15728           20.47438
       -11.34000           2.819951          -12.49070           30.72235           19.21155
       -11.32000           2.829219          -11.96202           36.86335           16.00533
       -11.30000           2.862169          -11.43731           42.63404           10.19789
       -11.28000           2.922977          -10.91502           46.47549           1.809742
       -11.26000           3.017202          -10.39435           46.93489          -7.899373
       -11.24000           3.152038          -9.875787           43.79252          -16.84330
       -11.22000           3.336362          -9.362206           38.26156          -23.43695
       -11.20000           3.580131          -8.860238           31.97956          -27.35139
       -11.18000           3.892437          -8.381638           26.08469          -29.13277
       -11.16000           4.277818          -7.942873           21.05769          -29.53361
       -11.14000           4.733220          -7.559994           16.96244          -29.16145
       -11.12000           5.253051          -7.239979           13.68549          -28.41477
       -11.10000           5.846490          -6.982014           11.06914          -27.52843
       -11.08000           6.548899          -6.803281           8.966147          -26.63195
       -11.06000           7.399734          -6.773376           7.255400          -25.79286
       -11.04000           8.388631          -7.022305           5.842255          -25.04388
       -11.02000           9.394120          -7.699474           4.654032          -24.39886
       -11.00000           10.15817          -8.868752           3.635112          -23.86191
       -10.98000           10.37863          -10.37981           2.742221          -23.43228
       -10.96000           9.922226          -11.87362           1.941100          -23.10720
       -10.94000           8.941630          -13.00191           1.203739          -22.88335
       -10.92000           7.739079          -13.63055           0.506226          -22.75763
       -10.90000           6.563449          -13.82465          -0.172987          -22.72748
       -10.88000           5.538225          -13.72229          -0.854612          -22.79093
       -10.86000           4.693434          -13.44764          -1.559976          -22.94636
       -10.84000           4.014371          -13.08623          -2.312556          -23.19199
       -10.82000           3.472414          -12.68971          -3.139707          -23.52485
       -10.80000           3.038845          -12.28692          -4.074677          -23.93885
       -10.78000           2.689425          -11.89295          -5.158883          -24.42148
       -10.76000           2.405076          -11.51503          -6.444014          -24.94780
       -10.74000           2.171201          -11.15608          -7.992570          -25.47032
       -10.72000           1.976764          -10.81671          -9.873140          -25.90270
       -10.70000           1.813423          -10.49638          -12.14208          -26.09708
       -10.68000           1.674849          -10.19396          -14.79700          -25.82381
       -10.66000           1.556206          -9.908097          -17.68976          -24.78612
       -10.64000           1.453787          -9.637433          -20.42827          -22.73378
       -10.62000           1.364703          -9.380629          -22.40140          -19.69971
       -10.60000           1.286705          -9.136431          -23.06894          -16.17678
       -10.58000           1.218028          -8.903708          -22.33842          -12.93428
       -10.56000           1.157280          -8.681429          -20.60481          -10.58470
       -10.54000           1.103368          -8.468672          -18.45206          -9.345401
       -10.52000           1.055442          -8.264613          -16.36421          -9.104627
       -10.50000           1.012854          -8.068526          -14.61395          -9.606880
       -10.48000           0.975134          -7.879786          -13.29343          -10.60186
       -10.46000           0.941979          -7.697868          -12.39385          -11.90751
       -10.44000           0.913241          -7.522390          -11.86944          -13.41272
       -10.42000           0.888921          -7.353148          -11.67152          -15.05876
       -10.40000           0.869136          -7.190236          -11.76222          -16.82060
       -10.38000           0.854014          -7.034149          -12.11811          -18.69359
       -10.36000           0.843420          -6.885979          -12.73048          -20.68538
       -10.34000           0.836414          -6.747387          -13.60481          -22.81110
       -10.32000           0.830489          -6.620022          -14.76075          -25.09068
       -10.30000           0.821383          -6.503954          -16.23325          -27.54718
       -10.28000           0.804756          -6.395997          -18.07455          -30.20487
       -10.26000           0.779310          -6.290355          -20.35846          -33.08791
       -10.24000           0.747819          -6.182151          -23.18587          -36.21667
       -10.22000           0.714652          -6.069847          -26.69312          -39.60210
       -10.20000           0.683057          -5.954523          -31.06289          -43.23508
       -10.18000           0.654486          -5.838046          -36.53804          -47.06727
       -10.16000           0.629176          -5.721970          -43.43573          -50.97687
       -10.14000           0.606820          -5.607313          -52.15520          -54.70931
       -10.12000           0.586959          -5.494637          -63.15874          -57.78028
       -10.10000           0.569151          -5.384212          -76.87973          -59.33582
       -10.08000           0.553026          -5.276133          -93.47241          -58.00970
       -10.06000           0.538286          -5.170398          -112.3150          -51.95135
       -10.04000           0.524701          -5.066955          -131.3929          -39.40063
       -10.02000           0.512090          -4.965732          -147.3070          -20.04260
       -10.00000           0.500311          -4.866638          -156.9053           3.860934
       -9.980000           0.489251          -4.769589          -159.5707           28.62597
       -9.960000           0.478821          -4.674496          -157.0488           52.00567
       -9.939999           0.468946          -4.581272          -150.7474           73.96824
       -9.919999           0.459568          -4.489847          -140.3787           94.53787
       -9.899999           0.450636          -4.400142          -125.5747           112.1625
       -9.879999           0.442107          -4.312089          -107.7013           124.8538
       -9.859999           0.433944          -4.225621          -89.29007           132.0686
       -9.839999           0.426117          -4.140682          -72.39603           134.8356
       -9.819999           0.418598          -4.057212          -57.93102           134.7248
       -9.799999           0.411362          -3.975159          -45.95192           133.0806
       -9.780000           0.404387          -3.894477          -36.12323           130.8131
       -9.759999           0.397655          -3.815117          -28.01038           128.4677
       -9.740000           0.391147          -3.737039          -21.20717           126.3478
       -9.719999           0.384848          -3.660202          -15.37272           124.6135
       -9.700000           0.378743          -3.584567          -10.23071           123.3454
       -9.679999           0.372817          -3.510102          -5.556602           122.5826
       -9.660000           0.367059          -3.436774          -1.162716           122.3441
       -9.639999           0.361456          -3.364552           3.115595           122.6405
       -9.620000           0.355997          -3.293408           7.432315           123.4804
       -9.599999           0.350671          -3.223317           11.94235           124.8725
       -9.580000           0.345469          -3.154254           16.81319           126.8257
       -9.559999           0.340380          -3.086194           22.23803           129.3455
       -9.539999           0.335395          -3.019121           28.45027           132.4260
       -9.520000           0.330505          -2.953015           35.74358           136.0367
       -9.499999           0.325702          -2.887857           44.49401           140.0946
       -9.480000           0.320975          -2.823633           55.18556           144.4176
       -9.459999           0.316318          -2.760329           68.43053           148.6402
       -9.440000           0.311722          -2.697934           84.96171           152.0719
       -9.419999           0.307178          -2.636433           105.5380           153.4751
       -9.400000           0.302678          -2.575821           130.6380           150.7783
       -9.379999           0.298213          -2.516088           159.7436           140.8930
       -9.360000           0.293776          -2.457228           190.1201           120.1687
       -9.339999           0.289358          -2.399241           215.7761           86.35433
       -9.320000           0.284950          -2.342118           228.7180           41.90913
       -9.299999           0.280544          -2.285861           223.8528          -4.763107
       -9.280000           0.276130          -2.230471           203.3446          -43.76781
       -9.259999           0.271700          -2.175950           174.6696          -69.89503
       -9.240000           0.267243          -2.122302           145.0797          -83.74397
       -9.219999           0.262750          -2.069532           118.6807          -88.70451
       -9.199999           0.258211          -2.017648           96.79350          -88.23017
       -9.179999           0.253614          -1.966665           79.26500          -84.82771
       -9.159999           0.248950          -1.916588           65.41064          -80.05595
       -9.139999           0.244206          -1.867436           54.47741          -74.80400
       -9.119999           0.239370          -1.819224           45.80965          -69.54811
       -9.099999           0.234428          -1.771973           38.88495          -64.52667
       -9.079999           0.229368          -1.725698           33.30240          -59.84587
       -9.059999           0.224174          -1.680431           28.75896          -55.54075
       -9.039999           0.218832          -1.636196           25.02627          -51.60935
       -9.020000           0.213325          -1.593021           21.93176          -48.03159
       -8.999999           0.207634          -1.550940           19.34425          -44.77956
       -8.980000           0.201743          -1.509996           17.16324          -41.82303
       -8.959999           0.195630          -1.470222           15.31102          -39.13231
       -8.940000           0.189274          -1.431666           13.72705          -36.67956
       -8.919999           0.182652          -1.394371           12.36366          -34.43943
       -8.900000           0.175740          -1.358399           11.18308          -32.38918
       -8.880000           0.168510          -1.323801           10.15506          -30.50857
       -8.860000           0.160934          -1.290641           9.255218          -28.77972
       -8.839999           0.152980          -1.258992           8.463711          -27.18678
       -8.819999           0.144615          -1.228923           7.764399          -25.71597
       -8.799999           0.135803          -1.200521           7.143892          -24.35496
       -8.779999           0.126503          -1.173871           6.591125          -23.09295
       -8.759999           0.116673          -1.149070           6.096868          -21.92040
       -8.739999           0.106264          -1.126222           5.653375          -20.82886
       -8.719999           0.095227          -1.105442           5.254116          -19.81084
       -8.699999           0.083504          -1.086849           4.893557          -18.85972
       -8.679999           0.071034          -1.070587           4.566985          -17.96958
       -8.659999           0.057751          -1.056794           4.270367          -17.13515
       -8.639999           0.043579          -1.045634           4.000238          -16.35171
       -8.620000           0.028439          -1.037273           3.753607          -15.61506
       -8.599999           0.012240          -1.031907           3.527884          -14.92140
       -8.580000          -0.005115          -1.029737           3.320816          -14.26734
       -8.559999          -0.023737          -1.030991           3.130440          -13.64982
       -8.540000          -0.043744          -1.035913           2.955032          -13.06606
       -8.520000          -0.065272          -1.044766           2.793083          -12.51358
       -8.500000          -0.088468          -1.057847           2.643260          -11.99010
       -8.479999          -0.113498          -1.075480           2.504381          -11.49355
       -8.459999          -0.140545          -1.098010           2.375410          -11.02211
       -8.439999          -0.169815          -1.125821           2.255416          -10.57404
       -8.419999          -0.201540          -1.159344           2.143569          -10.14782
       -8.399999          -0.235976          -1.199035           2.039130          -9.742014
       -8.379999          -0.273416          -1.245412           1.941435          -9.355352
       -8.360000          -0.314187          -1.299042           1.849888          -8.986642
       -8.339999          -0.358661          -1.360546           1.763952          -8.634809
       -8.320000          -0.407257          -1.430616           1.683140          -8.298862
       -8.299999          -0.460453          -1.510015           1.607012          -7.977897
       -8.280000          -0.518794          -1.599596           1.535169          -7.671082
       -8.259999          -0.582903          -1.700298           1.467245          -7.377657
       -8.240000          -0.653493          -1.813177           1.402908          -7.096916
       -8.219999          -0.731385          -1.939401           1.341853          -6.828225
       -8.200000          -0.817530          -2.080286           1.283799          -6.570992
       -8.179999          -0.913026          -2.237291           1.228487          -6.324680
       -8.160000          -1.019154          -2.412070           1.175677          -6.088799
       -8.139999          -1.137408          -2.606472           1.125147          -5.862894
       -8.120000          -1.269542          -2.822583           1.076690          -5.646556
       -8.099999          -1.417633          -3.062767           1.030107          -5.439404
       -8.079999          -1.584116          -3.329663           0.985222          -5.241113
       -8.059999          -1.771914          -3.626301           0.941857          -5.051371
       -8.039999          -1.984519          -3.956101           0.899849          -4.869907
       -8.020000          -2.226133          -4.322950           0.859040          -4.696473
       -7.999999          -2.501850          -4.731272           0.819278          -4.530860
       -7.979999          -2.817877          -5.186094           0.780416          -4.372874
       -7.959999          -3.181835          -5.693135           0.742311          -4.222357
       -7.939999          -3.603146          -6.258877           0.704823          -4.079174
       -7.920000          -4.093554          -6.890661           0.667813          -3.943219
       -7.900000          -4.667804          -7.596696           0.631140          -3.814419
       -7.880000          -5.344574          -8.386104           0.594667          -3.692704
       -7.860000          -6.147727          -9.268769           0.558251          -3.578051
       -7.840000          -7.108012          -10.25504           0.521748          -3.470459
       -7.820000          -8.265429          -11.35503           0.485008          -3.369949
       -7.800000          -9.672389          -12.57721           0.447878          -3.276579
       -7.780000          -11.39811          -13.92580           0.410196          -3.190421
       -7.760000          -13.53437          -15.39588           0.371791          -3.111594
       -7.739999          -16.20308          -16.96459           0.332481          -3.040232
       -7.719999          -19.56427          -18.57486           0.292077          -2.976527
       -7.699999          -23.82385          -20.10764           0.250368          -2.920683
       -7.679999          -29.23135          -21.33377           0.207130          -2.872951
       -7.659999          -36.04987          -21.83833           0.162118          -2.833627
       -7.639999          -44.45576          -20.92113           0.115064          -2.803052
       -7.619999          -54.29968          -17.52634           0.065675          -2.781608
       -7.599999          -64.68925          -10.37756           0.013623          -2.769740
       -7.579999          -73.60335           1.378290          -0.041453          -2.767951
       -7.559999          -78.25032           17.02211          -0.099956          -2.776804
       -7.539999          -76.71684           33.72836          -0.162341          -2.796943
       -7.520000          -69.58271           47.99784          -0.229117          -2.829079
       -7.500000          -59.39526           57.86554          -0.300860          -2.874030
       -7.480000          -48.73919           63.43389          -0.378226          -2.932694
       -7.460000          -39.12378           65.86088          -0.461961          -3.006107
       -7.440000          -31.05816           66.37107          -0.552920          -3.095412
       -7.420000          -24.50646           65.86756          -0.652088          -3.201902
       -7.400000          -19.23146           64.91773          -0.760602          -3.327030
       -7.379999          -14.96413           63.84880          -0.879784          -3.472450
       -7.359999          -11.46710           62.83936          -1.011166          -3.640001
       -7.339999          -8.547834           61.98230          -1.156553          -3.831775
       -7.319999          -6.055586           61.32319          -1.318068          -4.050138
       -7.299999          -3.872637           60.88264          -1.498225          -4.297775
       -7.279999          -1.905626           60.66866          -1.700015          -4.577725
       -7.259999          -0.078219           60.68363          -1.927022          -4.893437
       -7.239999           1.674918           60.92810          -2.183562          -5.248834
       -7.219999           3.413111           61.40274          -2.474869          -5.648371
       -7.199999           5.194067           62.10910          -2.807334          -6.097128
       -7.179999           7.078079           63.04965          -3.188817          -6.600844
       -7.159999           9.132518           64.22681          -3.629058          -7.166039
       -7.139999           11.43696           65.64093          -4.140218          -7.800045
       -7.119999           14.08948           67.28621          -4.737625          -8.511041
       -7.099999           17.21433           69.14336          -5.440738          -9.308001
       -7.079999           20.97104           71.16623          -6.274510          -10.20053
       -7.059999           25.56329           73.25817          -7.271212          -11.19842
       -7.039999           31.24262           75.23115          -8.472936          -12.31072
       -7.020000           38.29264           76.73880          -9.935030          -13.54402
       -6.999999           46.96152           77.17967          -11.73079          -14.89920
       -6.979999           57.27846           75.59764          -13.95721          -16.36511
       -6.959999           68.68980           70.70208          -16.74280          -17.90806
       -6.939999           79.57944           61.28891          -20.25493          -19.45205
       -6.919999           87.20796           47.29407          -24.70359          -20.84492
       -6.899999           88.91542           30.84468          -30.32983          -21.80250
       -6.879999           84.15357           15.65101          -37.35246          -21.82634
       -6.859999           74.99028           4.663211          -45.82084          -20.11494
       -6.839999           64.37692          -1.400328          -55.31150          -15.56431
       -6.819999           54.42917          -3.456566          -64.51032          -7.092111
       -6.799999           46.07438          -2.847039          -71.09795           5.489503
       -6.779999           39.46666          -0.670932          -72.68680           20.50994
       -6.760000           34.42539           2.349983          -68.59067           34.80365
       -6.740000           30.68472           5.794813          -60.44263           45.68581
       -6.720000           27.99786           9.438567          -50.79947           52.37289
       -6.700000           26.16868           13.17286          -41.57607           55.58495
       -6.680000           25.05437           16.95595          -33.64658           56.48735
       -6.660000           24.55932           20.78347          -27.17788           56.06483
       -6.639999           24.62810           24.67179          -22.01901           54.97665
       -6.619999           25.24045           28.64799          -17.93091           53.61548
       -6.599999           26.40889           32.74492          -14.68301           52.19875
       -6.579999           28.17935           36.99625          -12.08437           50.83960
       -6.559999           30.63482           41.43208          -9.986184           49.59220
       -6.539999           33.90249           46.07213          -8.275528           48.47837
       -6.519999           38.16465           50.91449          -6.867669           47.50275
       -6.500000           43.67352           55.91516          -5.699292           46.66119
       -6.480000           50.76831           60.95195          -4.723198           45.94546
       -6.460000           59.88861           65.76073          -3.904392           45.34565
       -6.440000           71.56570           69.82761          -3.217292           44.85160
       -6.420000           86.34657           72.22128          -2.643815           44.45360
       -6.400000           104.5545           71.37956          -2.172168           44.14277
       -6.379999           125.7377           64.98538          -1.796169           43.91138
       -6.359999           147.7478           50.34756          -1.515164           43.75338
       -6.339999           166.0156           25.92519          -1.334253           43.66491
       -6.319999           174.6196          -6.213243          -1.265129           43.64573
       -6.299999           170.0178          -39.66319          -1.327227           43.70158
       -6.279999           154.0976          -67.18439          -1.548896           43.84841
       -6.259999           132.4772          -85.16572          -1.967625           44.11995
       -6.239999           110.4201          -94.21980          -2.626501           44.57984
       -6.219999           90.83151          -96.88898          -3.560675           45.33902
       -6.199999           74.60682          -95.69413          -4.762414           46.57227
       -6.179999           61.59690          -92.44470          -6.113549           48.50943
       -6.159999           51.28751          -88.25917          -7.304729           51.35008
       -6.139999           43.12340          -83.77259          -7.845749           55.07142
       -6.119999           36.62411          -79.32353          -7.303221           59.26989
       -6.099999           31.40766          -75.08004          -5.636729           63.31691
       -6.079999           27.18098          -71.11546          -3.224648           66.76546
       -6.059999           23.72249          -67.45242          -0.545454           69.54979
       -6.039999           20.86497          -64.08723           2.084495           71.85320
       -6.020000           18.48194          -61.00327           4.544328           73.91171
       -6.000000           16.47706          -58.17863           6.834635           75.91716
       -5.980000           14.77641          -55.58976           9.008794           78.00181
       -5.960000           13.32270          -53.21379           11.13605           80.25280
       -5.940000           12.07122          -51.02920           13.28728           82.72959
       -5.920000           10.98670          -49.01644           15.53197           85.47658
       -5.900000           10.04108          -47.15794           17.94000           88.53143
       -5.880000           9.211879          -45.43803           20.58526           91.92973
       -5.860000           8.480919          -43.84280           23.55033           95.70791
       -5.840000           7.833386          -42.35997           26.93201           99.90434
       -5.820000           7.257135          -40.97867           30.84818           104.5594
       -5.800000           6.742123          -39.68927           35.44650           109.7138
       -5.780000           6.280011          -38.48326           40.91592           115.4050
       -5.760000           5.863813          -37.35308           47.50207           121.6595
       -5.740000           5.487661          -36.29202           55.52763           128.4780
       -5.719998           5.146557          -35.29403           65.41985           135.8096
       -5.699999           4.836334          -34.35396           77.73937           143.5008
       -5.679999           4.553352          -33.46694           93.21748           151.2127
       -5.659999           4.294513          -32.62869           112.7673           158.2686
       -5.639999           4.057147          -31.83540           137.4291           163.4092
       -5.619999           3.838940          -31.08361           168.1263           164.4330
       -5.599999           3.637882          -30.37020           205.0036           157.8212
       -5.579999           3.452221          -29.69234           246.0832           138.7836
       -5.559999           3.280421          -29.04749           285.4757           102.7639
       -5.539999           3.121134          -28.43334           313.0534           49.30395
       -5.519999           2.973170          -27.84776           318.7691          -13.95611
       -5.499999           2.835480          -27.28884           300.2400          -73.29368
       -5.479999           2.707133          -26.75482           264.8967          -117.5461
       -5.459999           2.587297          -26.24411           223.6933          -143.8034
       -5.439999           2.475236          -25.75521           184.6004          -155.3673
       -5.419999           2.370291          -25.28677           151.1552          -157.2379
       -5.399999           2.271868          -24.83757           123.9631          -153.5647
       -5.379999           2.179438          -24.40645           102.3383          -147.1031
       -5.359999           2.092521          -23.99235           85.24869          -139.4861
       -5.340000           2.010688          -23.59430           71.71298          -131.6154
       -5.320000           1.933547          -23.21138           60.92070          -123.9584
       -5.300000           1.860747          -22.84278           52.24020          -116.7377
       -5.280000           1.791965          -22.48770           45.19115          -110.0415
       -5.260000           1.726912          -22.14542           39.41117          -103.8872
       -5.240000           1.665321          -21.81528           34.62687          -98.25635
       -5.220000           1.606949          -21.49664           30.63093          -93.11343
       -5.200000           1.551577          -21.18892           27.26511          -88.41676
       -5.180000           1.499001          -20.89158           24.40754          -84.12383
       -5.160000           1.449036          -20.60411           21.96355          -80.19395
       -5.140000           1.401509          -20.32603           19.85895          -76.58958
       -5.120000           1.356266          -20.05690           18.03508          -73.27684
       -5.100000           1.313162          -19.79629           16.44515          -70.22536
       -5.080000           1.272062          -19.54381           15.05154          -67.40823
       -5.060000           1.232846          -19.29909           13.82379          -64.80159
       -5.040000           1.195398          -19.06179           12.73700          -62.38445
       -5.020000           1.159613          -18.83158           11.77073          -60.13819
       -4.999999           1.125392          -18.60813           10.90798          -58.04625
       -4.979999           1.092650          -18.39119           10.13481          -56.09443
       -4.959999           1.061299          -18.18046           9.439341          -54.26972
       -4.939999           1.031261          -17.97569           8.811628          -52.56067
       -4.919999           1.002465          -17.77663           8.243257          -50.95712
       -4.899999           0.974841          -17.58306           7.727061          -49.45005
       -4.879999           0.948328          -17.39474           7.256919          -48.03133
       -4.859999           0.922866          -17.21148           6.827571          -46.69374
       -4.839999           0.898399          -17.03307           6.434479          -45.43078
       -4.819999           0.874876          -16.85933           6.073718          -44.23660
       -4.799999           0.852251          -16.69009           5.741870          -43.10593
       -4.779999           0.830475          -16.52518           5.435959          -42.03400
       -4.759999           0.809509          -16.36443           5.153378          -41.01651
       -4.739999           0.789311          -16.20768           4.891833          -40.04955
       -4.719999           0.769845          -16.05481           4.649306          -39.12959
       -4.699999           0.751075          -15.90567           4.424017          -38.25336
       -4.679999           0.732968          -15.76012           4.214382          -37.41793
       -4.659999           0.715494          -15.61805           4.018997          -36.62060
       -4.639999           0.698622          -15.47933           3.836611          -35.85890
       -4.619999           0.682326          -15.34385           3.666104          -35.13055
       -4.599999           0.666579          -15.21150           3.506477          -34.43351
       -4.579999           0.651357          -15.08217           3.356830          -33.76583
       -4.559999           0.636636          -14.95577           3.216355          -33.12576
       -4.539999           0.622394          -14.83221           3.084323          -32.51168
       -4.520000           0.608611          -14.71138           2.960077          -31.92207
       -4.500000           0.595268          -14.59321           2.843020          -31.35555
       -4.480000           0.582344          -14.47760           2.732613          -30.81082
       -4.460000           0.569824          -14.36449           2.628365          -30.28670
       -4.440000           0.557689          -14.25378           2.529830          -29.78206
       -4.420000           0.545924          -14.14542           2.436600          -29.29587
       -4.400000           0.534515          -14.03933           2.348304          -28.82718
       -4.380000           0.523446          -13.93543           2.264602          -28.37507
       -4.360000           0.512705          -13.83367           2.185184          -27.93871
       -4.340000           0.502278          -13.73399           2.109763          -27.51733
       -4.320000           0.492152          -13.63632           2.038077          -27.11018
       -4.300000           0.482318          -13.54061           1.969886          -26.71657
       -4.280000           0.472762          -13.44678           1.904967          -26.33587
       -4.259999           0.463474          -13.35481           1.843110          -25.96745
       -4.239999           0.454445          -13.26463           1.784136          -25.61078
       -4.219999           0.445665          -13.17620           1.727866          -25.26532
       -4.199999           0.437125          -13.08948           1.674136          -24.93055
       -4.179999           0.428815          -13.00440           1.622798          -24.60601
       -4.159999           0.420728          -12.92093           1.573712          -24.29126
       -4.139999           0.412855          -12.83902           1.526749          -23.98586
       -4.119999           0.405189          -12.75864           1.481789          -23.68942
       -4.099999           0.397723          -12.67975           1.438719          -23.40158
       -4.079999           0.390449          -12.60229           1.397437          -23.12198
       -4.059999           0.383361          -12.52625           1.357843          -22.85026
       -4.039999           0.376452          -12.45159           1.319849          -22.58614
       -4.019999           0.369717          -12.37826           1.283369          -22.32930
       -3.999999           0.363149          -12.30623           1.248323          -22.07945
       -3.979999           0.356743          -12.23548           1.214639          -21.83633
       -3.959999           0.350493          -12.16598           1.182246          -21.59969
       -3.939999           0.344394          -12.09768           1.151080          -21.36927
       -3.919999           0.338442          -12.03057           1.121078          -21.14484
       -3.899999           0.332631          -11.96461           1.092185          -20.92619
       -3.879999           0.326957          -11.89978           1.064346          -20.71310
       -3.859999           0.321415          -11.83605           1.037510          -20.50538
       -3.839999           0.316002          -11.77340           1.011631          -20.30283
       -3.820000           0.310713          -11.71180           0.986662          -20.10528
       -3.800000           0.305545          -11.65122           0.962561          -19.91254
       -3.780000           0.300494          -11.59165           0.939290          -19.72446
       -3.760000           0.295555          -11.53306           0.916809          -19.54087
       -3.740000           0.290726          -11.47543           0.895085          -19.36163
       -3.720000           0.286003          -11.41873           0.874082          -19.18660
       -3.700000           0.281384          -11.36296           0.853769          -19.01563
       -3.680000           0.276864          -11.30808           0.834116          -18.84858
       -3.660000           0.272441          -11.25409           0.815096          -18.68534
       -3.640000           0.268113          -11.20095           0.796680          -18.52579
       -3.620000           0.263876          -11.14865           0.778843          -18.36982
       -3.600000           0.259728          -11.09718           0.761562          -18.21729
       -3.580000           0.255666          -11.04651           0.744813          -18.06812
       -3.560000           0.251687          -10.99663           0.728574          -17.92220
       -3.539999           0.247790          -10.94753           0.712824          -17.77943
       -3.519999           0.243972          -10.89918           0.697545          -17.63972
       -3.499999           0.240231          -10.85158           0.682718          -17.50298
       -3.479999           0.236564          -10.80471           0.668324          -17.36912
       -3.459999           0.232970          -10.75855           0.654346          -17.23806
       -3.439999           0.229447          -10.71309           0.640770          -17.10972
       -3.419999           0.225992          -10.66831           0.627578          -16.98402
       -3.399999           0.222604          -10.62421           0.614757          -16.86089
       -3.379999           0.219281          -10.58077           0.602293          -16.74026
       -3.359999           0.216021          -10.53797           0.590172          -16.62204
       -3.339999           0.212823          -10.49581           0.578382          -16.50620
       -3.319999           0.209684          -10.45428           0.566910          -16.39265
       -3.299999           0.206604          -10.41335           0.555745          -16.28133
       -3.279999           0.203581          -10.37303           0.544877          -16.17219
       -3.259999           0.200613          -10.33329           0.534293          -16.06517
       -3.239999           0.197699          -10.29413           0.523985          -15.96022
       -3.219999           0.194838          -10.25554           0.513943          -15.85727
       -3.199999           0.192027          -10.21751           0.504157          -15.75628
       -3.179999           0.189267          -10.18002           0.494618          -15.65721
       -3.159999           0.186555          -10.14307           0.485318          -15.56000
       -3.139999           0.183890          -10.10665           0.476249          -15.46460
       -3.120000           0.181272          -10.07075           0.467404          -15.37098
       -3.100000           0.178699          -10.03536           0.458774          -15.27908
       -3.080000           0.176169          -10.00047           0.450352          -15.18887
       -3.060000           0.173683          -9.966080           0.442132          -15.10031
       -3.040000           0.171238          -9.932169           0.434107          -15.01335
       -3.020000           0.168834          -9.898736           0.426271          -14.92797
       -3.000000           0.166469          -9.865771           0.418617          -14.84411
       -2.980000           0.164144          -9.833268           0.411140          -14.76176
       -2.960000           0.161856          -9.801218           0.403835          -14.68087
       -2.940000           0.159606          -9.769617           0.396695          -14.60140
       -2.920000           0.157391          -9.738453           0.389716          -14.52334
       -2.900000           0.155212          -9.707721           0.382892          -14.44664
       -2.880000           0.153067          -9.677413           0.376219          -14.37127
       -2.860000           0.150956          -9.647526           0.369692          -14.29721
       -2.840000           0.148877          -9.618045           0.363307          -14.22444
       -2.820000           0.146831          -9.588978           0.357060          -14.15291
       -2.799999           0.144816          -9.560302           0.350945          -14.08260
       -2.779999           0.142831          -9.532024           0.344961          -14.01350
       -2.759999           0.140877          -9.504133           0.339101          -13.94557
       -2.739999           0.138952          -9.476625           0.333364          -13.87879
       -2.719999           0.137055          -9.449490           0.327745          -13.81314
       -2.699999           0.135186          -9.422727           0.322240          -13.74858
       -2.679999           0.133345          -9.396329           0.316848          -13.68511
       -2.659999           0.131530          -9.370287           0.311563          -13.62269
       -2.639999           0.129741          -9.344604           0.306384          -13.56131
       -2.619999           0.127978          -9.319268           0.301307          -13.50095
       -2.599999           0.126240          -9.294278           0.296330          -13.44158
       -2.579999           0.124526          -9.269625           0.291449          -13.38320
       -2.559999           0.122836          -9.245310           0.286662          -13.32577
       -2.539999           0.121169          -9.221320           0.281966          -13.26928
       -2.519999           0.119525          -9.197660           0.277359          -13.21371
       -2.499999           0.117904          -9.174320           0.272838          -13.15905
       -2.479999           0.116304          -9.151297           0.268402          -13.10527
       -2.459999           0.114726          -9.128586           0.264047          -13.05237
       -2.439999           0.113168          -9.106182           0.259771          -13.00032
       -2.419999           0.111632          -9.084085           0.255574          -12.94912
       -2.400000           0.110115          -9.062285           0.251451          -12.89874
       -2.380000           0.108618          -9.040784           0.247402          -12.84917
       -2.360000           0.107140          -9.019574           0.243424          -12.80039
       -2.340000           0.105680          -8.998655           0.239516          -12.75240
       -2.320000           0.104239          -8.978021           0.235675          -12.70518
       -2.300000           0.102817          -8.957667           0.231901          -12.65871
       -2.280000           0.101411          -8.937592           0.228190          -12.61299
       -2.260000           0.100023          -8.917789           0.224543          -12.56800
       -2.240000           0.098652          -8.898262           0.220956          -12.52372
       -2.220000           0.097298          -8.879001           0.217429          -12.48015
       -2.200000           0.095960          -8.860001           0.213959          -12.43727
       -2.180000           0.094637          -8.841268           0.210546          -12.39508
       -2.160000           0.093330          -8.822790           0.207189          -12.35356
       -2.140000           0.092039          -8.804570           0.203884          -12.31270
       -2.120000           0.090762          -8.786602           0.200633          -12.27249
       -2.100000           0.089500          -8.768883           0.197432          -12.23292
       -2.080000           0.088252          -8.751408           0.194281          -12.19398
       -2.059999           0.087018          -8.734179           0.191178          -12.15566
       -2.039999           0.085798          -8.717193           0.188123          -12.11795
       -2.019999           0.084592          -8.700444           0.185114          -12.08085
       -1.999999           0.083398          -8.683931           0.182150          -12.04434
       -1.979999           0.082218          -8.667652           0.179230          -12.00841
       -1.959999           0.081050          -8.651604           0.176353          -11.97306
       -1.939999           0.079894          -8.635785           0.173517          -11.93828
       -1.919999           0.078751          -8.620192           0.170723          -11.90405
       -1.899999           0.077619          -8.604821           0.167968          -11.87038
       -1.879999           0.076500          -8.589673           0.165253          -11.83725
       -1.859999           0.075391          -8.574741           0.162575          -11.80465
       -1.839999           0.074294          -8.560031           0.159934          -11.77259
       -1.819999           0.073208          -8.545532           0.157330          -11.74104
       -1.799999           0.072132          -8.531247           0.154760          -11.71001
       -1.779999           0.071067          -8.517172           0.152226          -11.67949
       -1.759999           0.070012          -8.503304           0.149724          -11.64946
       -1.739999           0.068968          -8.489644           0.147256          -11.61993
       -1.719999           0.067933          -8.476191           0.144820          -11.59088
       -1.699999           0.066908          -8.462935           0.142415          -11.56232
       -1.679999           0.065892          -8.449883           0.140041          -11.53424
       -1.659999           0.064886          -8.437030           0.137696          -11.50661
       -1.640000           0.063889          -8.424374           0.135381          -11.47946
       -1.620000           0.062900          -8.411910           0.133094          -11.45276
       -1.600000           0.061921          -8.399643           0.130835          -11.42651
       -1.580000           0.060950          -8.387566           0.128603          -11.40071
       -1.560000           0.059987          -8.375680           0.126397          -11.37535
       -1.540000           0.059033          -8.363982           0.124218          -11.35043
       -1.520000           0.058087          -8.352471           0.122064          -11.32594
       -1.500000           0.057148          -8.341146           0.119934          -11.30187
       -1.480000           0.056217          -8.330004           0.117829          -11.27822
       -1.460000           0.055294          -8.319043           0.115747          -11.25499
       -1.440000           0.054378          -8.308264           0.113688          -11.23217
       -1.420000           0.053470          -8.297665           0.111651          -11.20976
       -1.400000           0.052568          -8.287244           0.109636          -11.18775
       -1.380000           0.051674          -8.276998           0.107643          -11.16614
       -1.360000           0.050786          -8.266926           0.105671          -11.14492
       -1.339999           0.049905          -8.257030           0.103719          -11.12409
       -1.319999           0.049030          -8.247307           0.101786          -11.10365
       -1.299999           0.048162          -8.237756           0.099874          -11.08360
       -1.279999           0.047300          -8.228374           0.097980          -11.06391
       -1.259999           0.046444          -8.219160           0.096105          -11.04461
       -1.239999           0.045594          -8.210115           0.094247          -11.02568
       -1.219999           0.044750          -8.201235           0.092408          -11.00711
       -1.199999           0.043912          -8.192521           0.090585          -10.98891
       -1.179999           0.043079          -8.183971           0.088780          -10.97106
       -1.159999           0.042252          -8.175587           0.086990          -10.95358
       -1.139999           0.041430          -8.167360           0.085217          -10.93645
       -1.119999           0.040613          -8.159296           0.083459          -10.91967
       -1.099999           0.039801          -8.151396           0.081716          -10.90324
       -1.079999           0.038994          -8.143651           0.079988          -10.88715
       -1.059999           0.038192          -8.136065           0.078274          -10.87141
       -1.039999           0.037395          -8.128637           0.076575          -10.85601
       -1.019999           0.036602          -8.121364           0.074889          -10.84094
       -0.999999           0.035814          -8.114248           0.073216          -10.82621
       -0.979999           0.035030          -8.107285           0.071556          -10.81180
       -0.960000           0.034251          -8.100476           0.069909          -10.79773
       -0.940000           0.033475          -8.093820           0.068274          -10.78398
       -0.920000           0.032704          -8.087317           0.066651          -10.77056
       -0.900000           0.031937          -8.080964           0.065040          -10.75746
       -0.880000           0.031173          -8.074762           0.063440          -10.74468
       -0.860000           0.030414          -8.068710           0.061851          -10.73221
       -0.840000           0.029658          -8.062805           0.060273          -10.72006
       -0.820000           0.028905          -8.057052           0.058704          -10.70823
       -0.800000           0.028156          -8.051444           0.057146          -10.69670
       -0.780000           0.027411          -8.045982           0.055598          -10.68548
       -0.760000           0.026668          -8.040668           0.054059          -10.67457
       -0.740000           0.025929          -8.035499           0.052530          -10.66397
       -0.720000           0.025193          -8.030475           0.051009          -10.65367
       -0.700000           0.024460          -8.025594           0.049497          -10.64367
       -0.680000           0.023729          -8.020859           0.047993          -10.63397
       -0.660000           0.023002          -8.016267           0.046497          -10.62457
       -0.640000           0.022277          -8.011817           0.045009          -10.61547
       -0.620000           0.021555          -8.007509           0.043528          -10.60665
       -0.599999           0.020835          -8.003344           0.042054          -10.59814
       -0.579999           0.020118          -7.999320           0.040588          -10.58992
       -0.559999           0.019403          -7.995435           0.039128          -10.58199
       -0.539999           0.018691          -7.991692           0.037675          -10.57434
       -0.519999           0.017980          -7.988088           0.036228          -10.56699
       -0.499999           0.017272          -7.984623           0.034787          -10.55993
       -0.479999           0.016565          -7.981299           0.033352          -10.55315
       -0.459999           0.015861          -7.978111           0.031922          -10.54665
       -0.439999           0.015158          -7.975062           0.030497          -10.54044
       -0.419999           0.014457          -7.972153           0.029077          -10.53452
       -0.399999           0.013758          -7.969379           0.027662          -10.52887
       -0.379999           0.013061          -7.966744           0.026252          -10.52350
       -0.359999           0.012365          -7.964247           0.024845          -10.51842
       -0.339999           0.011670          -7.961884           0.023443          -10.51362
       -0.319999           0.010977          -7.959658           0.022045          -10.50909
       -0.299999           0.010284          -7.957569           0.020650          -10.50484
       -0.279999           0.009594          -7.955616           0.019258          -10.50087
       -0.259999           0.008904          -7.953798           0.017870          -10.49718
       -0.239999           0.008215          -7.952117           0.016484          -10.49376
       -0.220000           0.007527          -7.950570           0.015101          -10.49062
       -0.200000           0.006840          -7.949157           0.013721          -10.48775
       -0.180000           0.006154          -7.947879           0.012342          -10.48516
       -0.160000           0.005468          -7.946739           0.010966          -10.48284
       -0.140000           0.004783          -7.945730           0.009591          -10.48079
       -0.120000           0.004099          -7.944858           0.008218          -10.47902
       -0.100000           0.003415          -7.944119           0.006847          -10.47752
       -0.080000           0.002732          -7.943515           0.005476          -10.47629
       -0.060000           0.002048          -7.943046           0.004106          -10.47534
       -0.040000           0.001366          -7.942710           0.002737          -10.47466
       -0.020000           0.682717E-3       -7.942508           0.001368          -10.47425
        0.000000           0.000000          -7.942442           0.000000          -10.47411
        0.020000          -0.682717E-3       -7.942508          -0.001368          -10.47425
        0.040000          -0.001366          -7.942711          -0.002737          -10.47466
        0.060000          -0.002048          -7.943046          -0.004106          -10.47534
        0.080000          -0.002732          -7.943515          -0.005476          -10.47629
        0.100000          -0.003415          -7.944119          -0.006847          -10.47752
        0.120001          -0.004099          -7.944857          -0.008218          -10.47902
        0.140001          -0.004783          -7.945729          -0.009591          -10.48079
        0.160001          -0.005468          -7.946738          -0.010966          -10.48284
        0.180001          -0.006154          -7.947879          -0.012342          -10.48516
        0.200001          -0.006840          -7.949157          -0.013721          -10.48775
        0.220001          -0.007527          -7.950569          -0.015101          -10.49062
        0.240001          -0.008215          -7.952116          -0.016484          -10.49376
        0.260001          -0.008904          -7.953798          -0.017870          -10.49718
        0.280001          -0.009594          -7.955615          -0.019258          -10.50087
        0.300001          -0.010285          -7.957569          -0.020650          -10.50484
        0.320001          -0.010977          -7.959659          -0.022045          -10.50909
        0.340001          -0.011670          -7.961883          -0.023443          -10.51362
        0.360001          -0.012365          -7.964247          -0.024845          -10.51842
        0.380001          -0.013061          -7.966744          -0.026252          -10.52351
        0.400001          -0.013758          -7.969379          -0.027662          -10.52887
        0.420001          -0.014458          -7.972154          -0.029077          -10.53452
        0.440001          -0.015158          -7.975063          -0.030497          -10.54044
        0.460001          -0.015861          -7.978111          -0.031922          -10.54665
        0.480001          -0.016565          -7.981300          -0.033352          -10.55315
        0.500001          -0.017272          -7.984624          -0.034787          -10.55993
        0.520000          -0.017980          -7.988088          -0.036228          -10.56699
        0.540000          -0.018691          -7.991691          -0.037675          -10.57434
        0.560000          -0.019403          -7.995436          -0.039128          -10.58199
        0.580000          -0.020118          -7.999320          -0.040588          -10.58992
        0.600000          -0.020835          -8.003345          -0.042055          -10.59814
        0.620000          -0.021555          -8.007509          -0.043528          -10.60665
        0.640000          -0.022277          -8.011817          -0.045009          -10.61547
        0.660000          -0.023002          -8.016267          -0.046497          -10.62457
        0.680000          -0.023729          -8.020860          -0.047993          -10.63397
        0.700000          -0.024460          -8.025596          -0.049497          -10.64367
        0.720000          -0.025193          -8.030475          -0.051009          -10.65367
        0.740000          -0.025929          -8.035499          -0.052530          -10.66397
        0.760000          -0.026668          -8.040668          -0.054059          -10.67457
        0.780000          -0.027411          -8.045982          -0.055598          -10.68548
        0.800000          -0.028156          -8.051444          -0.057146          -10.69670
        0.820000          -0.028905          -8.057052          -0.058704          -10.70823
        0.840000          -0.029658          -8.062807          -0.060273          -10.72006
        0.860001          -0.030414          -8.068709          -0.061851          -10.73221
        0.880001          -0.031173          -8.074762          -0.063440          -10.74468
        0.900001          -0.031937          -8.080965          -0.065040          -10.75746
        0.920001          -0.032704          -8.087317          -0.066652          -10.77056
        0.940001          -0.033475          -8.093822          -0.068275          -10.78398
        0.960001          -0.034251          -8.100478          -0.069909          -10.79773
        0.980001          -0.035030          -8.107287          -0.071556          -10.81180
        1.000001          -0.035814          -8.114247          -0.073216          -10.82621
        1.020001          -0.036602          -8.121366          -0.074889          -10.84094
        1.040001          -0.037395          -8.128637          -0.076575          -10.85601
        1.060001          -0.038192          -8.136065          -0.078274          -10.87141
        1.080001          -0.038994          -8.143653          -0.079988          -10.88715
        1.100001          -0.039801          -8.151396          -0.081716          -10.90324
        1.120001          -0.040613          -8.159298          -0.083459          -10.91967
        1.140001          -0.041430          -8.167361          -0.085217          -10.93645
        1.160001          -0.042252          -8.175587          -0.086990          -10.95358
        1.180001          -0.043079          -8.183971          -0.088780          -10.97107
        1.200001          -0.043912          -8.192521          -0.090585          -10.98891
        1.220001          -0.044750          -8.201236          -0.092408          -11.00711
        1.240000          -0.045595          -8.210114          -0.094248          -11.02567
        1.260000          -0.046444          -8.219160          -0.096105          -11.04461
        1.280000          -0.047300          -8.228375          -0.097980          -11.06392
        1.300000          -0.048162          -8.237756          -0.099874          -11.08360
        1.320000          -0.049031          -8.247307          -0.101787          -11.10366
        1.340000          -0.049905          -8.257031          -0.103719          -11.12409
        1.360000          -0.050786          -8.266926          -0.105671          -11.14492
        1.380000          -0.051674          -8.276997          -0.107643          -11.16614
        1.400000          -0.052568          -8.287242          -0.109636          -11.18775
        1.420000          -0.053470          -8.297665          -0.111651          -11.20976
        1.440000          -0.054378          -8.308264          -0.113688          -11.23217
        1.460000          -0.055294          -8.319043          -0.115747          -11.25499
        1.480000          -0.056217          -8.330004          -0.117829          -11.27822
        1.500000          -0.057148          -8.341146          -0.119934          -11.30187
        1.520000          -0.058087          -8.352471          -0.122064          -11.32594
        1.540000          -0.059033          -8.363982          -0.124218          -11.35043
        1.560000          -0.059987          -8.375680          -0.126397          -11.37535
        1.580001          -0.060950          -8.387567          -0.128603          -11.40071
        1.600001          -0.061921          -8.399644          -0.130835          -11.42651
        1.620001          -0.062900          -8.411911          -0.133094          -11.45276
        1.640001          -0.063889          -8.424375          -0.135381          -11.47946
        1.660001          -0.064886          -8.437030          -0.137696          -11.50662
        1.680001          -0.065892          -8.449884          -0.140041          -11.53424
        1.700001          -0.066908          -8.462937          -0.142415          -11.56232
        1.720001          -0.067933          -8.476192          -0.144820          -11.59089
        1.740001          -0.068968          -8.489648          -0.147256          -11.61993
        1.760001          -0.070012          -8.503304          -0.149725          -11.64946
        1.780001          -0.071067          -8.517174          -0.152226          -11.67949
        1.800001          -0.072132          -8.531247          -0.154761          -11.71001
        1.820001          -0.073208          -8.545532          -0.157330          -11.74104
        1.840001          -0.074294          -8.560034          -0.159934          -11.77259
        1.860001          -0.075391          -8.574744          -0.162575          -11.80465
        1.880001          -0.076500          -8.589675          -0.165253          -11.83725
        1.900001          -0.077620          -8.604823          -0.167969          -11.87038
        1.920001          -0.078751          -8.620192          -0.170723          -11.90406
        1.940001          -0.079894          -8.635786          -0.173518          -11.93828
        1.960001          -0.081050          -8.651606          -0.176353          -11.97306
        1.980000          -0.082218          -8.667654          -0.179230          -12.00841
        2.000000          -0.083398          -8.683933          -0.182150          -12.04434
        2.020000          -0.084592          -8.700446          -0.185114          -12.08085
        2.040000          -0.085798          -8.717196          -0.188123          -12.11796
        2.060000          -0.087018          -8.734182          -0.191178          -12.15566
        2.080000          -0.088252          -8.751408          -0.194281          -12.19398
        2.100000          -0.089500          -8.768883          -0.197432          -12.23292
        2.120000          -0.090762          -8.786601          -0.200633          -12.27249
        2.140000          -0.092039          -8.804569          -0.203884          -12.31270
        2.160000          -0.093330          -8.822790          -0.207189          -12.35356
        2.180000          -0.094637          -8.841267          -0.210546          -12.39508
        2.200000          -0.095960          -8.860003          -0.213959          -12.43727
        2.220000          -0.097298          -8.879000          -0.217429          -12.48015
        2.240000          -0.098652          -8.898261          -0.220956          -12.52372
        2.260000          -0.100023          -8.917790          -0.224543          -12.56800
        2.280000          -0.101411          -8.937591          -0.228190          -12.61299
        2.300000          -0.102817          -8.957667          -0.231901          -12.65871
        2.320001          -0.104240          -8.978022          -0.235675          -12.70518
        2.340001          -0.105680          -8.998658          -0.239516          -12.75241
        2.360001          -0.107140          -9.019576          -0.243424          -12.80040
        2.380001          -0.108618          -9.040788          -0.247402          -12.84917
        2.400001          -0.110115          -9.062287          -0.251451          -12.89874
        2.420001          -0.111632          -9.084086          -0.255574          -12.94912
        2.440001          -0.113169          -9.106185          -0.259772          -13.00033
        2.460001          -0.114726          -9.128588          -0.264047          -13.05238
        2.480001          -0.116304          -9.151299          -0.268402          -13.10528
        2.500001          -0.117904          -9.174323          -0.272839          -13.15905
        2.520001          -0.119525          -9.197661          -0.277359          -13.21372
        2.540001          -0.121169          -9.221323          -0.281966          -13.26928
        2.560001          -0.122836          -9.245312          -0.286662          -13.32577
        2.580001          -0.124526          -9.269627          -0.291449          -13.38320
        2.600001          -0.126240          -9.294280          -0.296330          -13.44159
        2.620001          -0.127978          -9.319270          -0.301308          -13.50096
        2.640001          -0.129741          -9.344605          -0.306385          -13.56132
        2.660001          -0.131530          -9.370291          -0.311564          -13.62270
        2.680001          -0.133345          -9.396331          -0.316848          -13.68511
        2.700001          -0.135186          -9.422729          -0.322241          -13.74859
        2.720001          -0.137055          -9.449492          -0.327745          -13.81314
        2.740000          -0.138952          -9.476625          -0.333364          -13.87880
        2.760000          -0.140877          -9.504135          -0.339102          -13.94558
        2.780000          -0.142832          -9.532027          -0.344961          -14.01351
        2.800000          -0.144816          -9.560303          -0.350946          -14.08261
        2.820000          -0.146831          -9.588977          -0.357060          -14.15291
        2.840000          -0.148877          -9.618048          -0.363307          -14.22444
        2.860000          -0.150956          -9.647525          -0.369692          -14.29722
        2.880000          -0.153067          -9.677413          -0.376219          -14.37127
        2.900000          -0.155212          -9.707721          -0.382892          -14.44664
        2.920000          -0.157391          -9.738451          -0.389716          -14.52334
        2.940000          -0.159606          -9.769616          -0.396695          -14.60140
        2.960000          -0.161856          -9.801218          -0.403835          -14.68087
        2.980000          -0.164144          -9.833268          -0.411140          -14.76176
        3.000000          -0.166469          -9.865771          -0.418617          -14.84411
        3.020000          -0.168834          -9.898736          -0.426271          -14.92797
        3.040001          -0.171238          -9.932173          -0.434108          -15.01336
        3.060001          -0.173683          -9.966083          -0.442133          -15.10032
        3.080001          -0.176169          -10.00048          -0.450353          -15.18888
        3.100001          -0.178699          -10.03536          -0.458774          -15.27909
        3.120001          -0.181272          -10.07075          -0.467404          -15.37099
        3.140001          -0.183891          -10.10665          -0.476250          -15.46461
        3.160001          -0.186555          -10.14307          -0.485319          -15.56001
        3.180001          -0.189267          -10.18002          -0.494619          -15.65722
        3.200001          -0.192028          -10.21751          -0.504157          -15.75629
        3.220001          -0.194838          -10.25554          -0.513943          -15.85728
        3.240001          -0.197700          -10.29413          -0.523986          -15.96022
        3.260001          -0.200614          -10.33329          -0.534294          -16.06518
        3.280001          -0.203581          -10.37303          -0.544878          -16.17220
        3.300001          -0.206605          -10.41335          -0.555746          -16.28134
        3.320001          -0.209685          -10.45428          -0.566911          -16.39266
        3.340001          -0.212823          -10.49582          -0.578383          -16.50621
        3.360001          -0.216021          -10.53798          -0.590173          -16.62205
        3.380001          -0.219281          -10.58078          -0.602294          -16.74026
        3.400001          -0.222604          -10.62422          -0.614758          -16.86090
        3.420001          -0.225992          -10.66832          -0.627579          -16.98404
        3.440001          -0.229447          -10.71309          -0.640771          -17.10973
        3.460000          -0.232970          -10.75855          -0.654348          -17.23807
        3.480000          -0.236564          -10.80471          -0.668325          -17.36914
        3.500000          -0.240231          -10.85159          -0.682719          -17.50299
        3.520000          -0.243972          -10.89919          -0.697546          -17.63973
        3.540000          -0.247790          -10.94753          -0.712825          -17.77944
        3.560000          -0.251687          -10.99663          -0.728574          -17.92221
        3.580000          -0.255666          -11.04651          -0.744813          -18.06812
        3.600000          -0.259728          -11.09718          -0.761562          -18.21729
        3.620000          -0.263876          -11.14865          -0.778843          -18.36982
        3.640000          -0.268113          -11.20095          -0.796680          -18.52579
        3.660000          -0.272441          -11.25408          -0.815096          -18.68534
        3.680000          -0.276864          -11.30808          -0.834116          -18.84858
        3.700000          -0.281384          -11.36296          -0.853769          -19.01563
        3.720000          -0.286003          -11.41873          -0.874082          -19.18660
        3.740000          -0.290726          -11.47543          -0.895085          -19.36163
        3.760000          -0.295555          -11.53306          -0.916809          -19.54087
        3.780001          -0.300494          -11.59166          -0.939292          -19.72447
        3.800001          -0.305546          -11.65123          -0.962563          -19.91256
        3.820001          -0.310714          -11.71180          -0.986664          -20.10529
        3.840001          -0.316003          -11.77340          -1.011633          -20.30285
        3.860001          -0.321416          -11.83606          -1.037513          -20.50540
        3.880001          -0.326957          -11.89978          -1.064348          -20.71312
        3.900001          -0.332631          -11.96462          -1.092188          -20.92621
        3.920001          -0.338442          -12.03057          -1.121081          -21.14486
        3.940001          -0.344395          -12.09769          -1.151082          -21.36929
        3.960001          -0.350493          -12.16598          -1.182249          -21.59971
        3.980001          -0.356743          -12.23549          -1.214642          -21.83635
        4.000001          -0.363149          -12.30624          -1.248326          -22.07947
        4.020001          -0.369717          -12.37826          -1.283372          -22.32932
        4.040001          -0.376453          -12.45159          -1.319852          -22.58616
        4.060001          -0.383362          -12.52626          -1.357847          -22.85028
        4.080000          -0.390450          -12.60230          -1.397440          -23.12199
        4.100000          -0.397724          -12.67975          -1.438723          -23.40160
        4.120000          -0.405190          -12.75865          -1.481792          -23.68945
        4.140000          -0.412856          -12.83903          -1.526753          -23.98588
        4.160000          -0.420729          -12.92093          -1.573716          -24.29128
        4.180000          -0.428816          -13.00441          -1.622802          -24.60604
        4.200000          -0.437125          -13.08948          -1.674140          -24.93058
        4.220000          -0.445666          -13.17621          -1.727870          -25.26535
        4.240000          -0.454446          -13.26464          -1.784141          -25.61081
        4.260000          -0.463475          -13.35482          -1.843115          -25.96748
        4.280000          -0.472762          -13.44678          -1.904967          -26.33587
        4.300000          -0.482318          -13.54061          -1.969886          -26.71657
        4.320000          -0.492152          -13.63632          -2.038077          -27.11018
        4.340000          -0.502278          -13.73399          -2.109763          -27.51733
        4.360000          -0.512705          -13.83367          -2.185184          -27.93871
        4.380000          -0.523446          -13.93543          -2.264602          -28.37507
        4.400000          -0.534515          -14.03933          -2.348304          -28.82718
        4.420000          -0.545924          -14.14542          -2.436600          -29.29587
        4.440000          -0.557689          -14.25378          -2.529830          -29.78206
        4.460000          -0.569824          -14.36449          -2.628365          -30.28670
        4.480000          -0.582344          -14.47760          -2.732613          -30.81082
        4.500000          -0.595268          -14.59321          -2.843020          -31.35555
        4.520001          -0.608613          -14.71139          -2.960087          -31.92212
        4.540001          -0.622395          -14.83222          -3.084334          -32.51173
        4.560001          -0.636637          -14.95579          -3.216365          -33.12581
        4.580001          -0.651358          -15.08218          -3.356842          -33.76588
        4.600001          -0.666580          -15.21151          -3.506489          -34.43356
        4.620001          -0.682327          -15.34385          -3.666117          -35.13062
        4.640001          -0.698624          -15.47934          -3.836625          -35.85896
        4.660001          -0.715495          -15.61806          -4.019012          -36.62066
        4.680001          -0.732970          -15.76013          -4.214398          -37.41800
        4.700001          -0.751076          -15.90568          -4.424035          -38.25343
        4.720001          -0.769846          -16.05482          -4.649325          -39.12965
        4.740001          -0.789313          -16.20770          -4.891853          -40.04963
        4.760001          -0.809510          -16.36444          -5.153399          -41.01659
        4.780001          -0.830477          -16.52519          -5.435984          -42.03409
        4.800001          -0.852252          -16.69011          -5.741897          -43.10602
        4.820001          -0.874878          -16.85935          -6.073746          -44.23669
        4.840001          -0.898401          -17.03308          -6.434509          -45.43088
        4.860001          -0.922867          -17.21149          -6.827603          -46.69385
        4.880001          -0.948330          -17.39476          -7.256955          -48.03144
        4.900001          -0.974843          -17.58307          -7.727101          -49.45016
        4.920001          -1.002467          -17.77665          -8.243300          -50.95725
        4.940001          -1.031264          -17.97571          -8.811677          -52.56080
        4.960001          -1.061301          -18.18048          -9.439394          -54.26986
        4.980000          -1.092652          -18.39120          -10.13487          -56.09459
        5.000000          -1.125395          -18.60814          -10.90805          -58.04641
        5.020000          -1.159613          -18.83158          -11.77073          -60.13819
        5.040000          -1.195398          -19.06179          -12.73700          -62.38445
        5.060000          -1.232846          -19.29909          -13.82379          -64.80160
        5.080000          -1.272062          -19.54381          -15.05154          -67.40823
        5.100000          -1.313162          -19.79629          -16.44515          -70.22536
        5.120000          -1.356266          -20.05690          -18.03508          -73.27685
        5.140000          -1.401509          -20.32603          -19.85895          -76.58958
        5.160000          -1.449036          -20.60411          -21.96355          -80.19396
        5.180000          -1.499001          -20.89159          -24.40754          -84.12383
        5.200000          -1.551577          -21.18893          -27.26511          -88.41676
        5.220000          -1.606949          -21.49664          -30.63093          -93.11343
        5.240001          -1.665325          -21.81530          -34.62722          -98.25678
        5.260001          -1.726917          -22.14545          -39.41160          -103.8877
        5.280001          -1.791971          -22.48773          -45.19167          -110.0420
        5.300001          -1.860753          -22.84281          -52.24083          -116.7382
        5.320001          -1.933554          -23.21141          -60.92147          -123.9590
        5.340001          -2.010694          -23.59433          -71.71396          -131.6160
        5.360001          -2.092528          -23.99239          -85.24992          -139.4867
        5.380001          -2.179445          -24.40649          -102.3398          -147.1036
        5.400001          -2.271875          -24.83761          -123.9650          -153.5651
        5.420001          -2.370298          -25.28681          -151.1577          -157.2380
        5.440001          -2.475245          -25.75525          -184.6033          -155.3668
        5.460001          -2.587306          -26.24415          -223.6966          -143.8020
        5.480001          -2.707142          -26.75486          -264.9000          -117.5433
        5.500000          -2.835491          -27.28889          -300.2424          -73.28939
        5.520000          -2.973182          -27.84781          -318.7697          -13.95094
        5.540000          -3.121147          -28.43338          -313.0519           49.30884
        5.560000          -3.280435          -29.04755          -285.4728           102.7675
        5.580000          -3.452237          -29.69239          -246.0798           138.7858
        5.600000          -3.637898          -30.37026          -205.0003           157.8221
        5.620000          -3.838956          -31.08368          -168.1236           164.4332
        5.640000          -4.057165          -31.83546          -137.4269           163.4089
        5.660000          -4.294533          -32.62876          -112.7655           158.2681
        5.680000          -4.553374          -33.46701          -93.21608           151.2121
        5.700000          -4.836358          -34.35403          -77.73826           143.5002
        5.720000          -5.146584          -35.29411          -65.41897           135.8090
        5.740000          -5.487661          -36.29202          -55.52763           128.4780
        5.760000          -5.863813          -37.35308          -47.50207           121.6595
        5.780000          -6.280011          -38.48326          -40.91592           115.4050
        5.800000          -6.742123          -39.68927          -35.44650           109.7138
        5.820000          -7.257134          -40.97867          -30.84818           104.5594
        5.840000          -7.833386          -42.35997          -26.93201           99.90434
        5.860000          -8.480919          -43.84280          -23.55033           95.70791
        5.880000          -9.211878          -45.43803          -20.58526           91.92972
        5.900000          -10.04108          -47.15794          -17.94000           88.53143
        5.920000          -10.98670          -49.01644          -15.53197           85.47658
        5.940000          -12.07122          -51.02920          -13.28728           82.72959
        5.960000          -13.32270          -53.21379          -11.13605           80.25280
        5.980001          -14.77653          -55.58997          -9.008619           78.00163
        6.000001          -16.47721          -58.17884          -6.834456           75.91699
        6.020001          -18.48211          -61.00351          -4.544136           73.91155
        6.040001          -20.86518          -64.08749          -2.084288           71.85301
        6.060001          -23.72274          -67.45273           0.545673           69.54959
        6.080001          -27.18129          -71.11578           3.224859           66.76520
        6.100001          -31.40804          -75.08035           5.636900           63.31659
        6.120001          -36.62459          -79.32390           7.303313           59.26955
        6.140001          -43.12398          -83.77295           7.845746           55.07109
        6.160001          -51.28825          -88.25953           7.304653           51.34980
        6.180001          -61.59783          -92.44503           6.113441           48.50924
        6.200001          -74.60799          -95.69433           4.762306           46.57215
        6.220001          -90.83297          -96.88894           3.560588           45.33895
        6.240001          -110.4218          -94.21935           2.626437           44.57979
        6.260001          -132.4790          -85.16467           1.967582           44.11992
        6.280001          -154.0992          -67.18253           1.548871           43.84840
        6.300001          -170.0187          -39.66064           1.327215           43.70157
        6.320001          -174.6194          -6.210476           1.265130           43.64573
        6.340001          -166.0144           25.92754           1.334263           43.66492
        6.360001          -147.7461           50.34915           1.515182           43.75339
        6.380001          -125.7359           64.98621           1.796195           43.91140
        6.400000          -104.5537           71.37970           2.172184           44.14278
        6.420000          -86.34592           72.22125           2.643836           44.45362
        6.440000          -71.56517           69.82748           3.217317           44.85163
        6.460000          -59.88820           65.76055           3.904422           45.34567
        6.480000          -50.76799           60.95176           4.723234           45.94548
        6.500000          -43.67327           55.91497           5.699337           46.66122
        6.520000          -38.16446           50.91429           6.867722           47.50279
        6.540000          -33.90234           46.07194           8.275590           48.47841
        6.560000          -30.63471           41.43189           9.986260           49.59225
        6.580000          -28.17926           36.99607           12.08447           50.83965
        6.600000          -26.40882           32.74475           14.68313           52.19880
        6.620000          -25.24041           28.64782           17.93106           53.61554
        6.640000          -24.62809           24.67163           22.01919           54.97672
        6.660000          -24.55932           20.78347           27.17788           56.06483
        6.680000          -25.05437           16.95596           33.64658           56.48735
        6.700001          -26.16879           13.17255           41.57676           55.58479
        6.720001          -27.99804           9.438269           50.80026           52.37251
        6.740001          -30.68498           5.794534           60.44339           45.68510
        6.760001          -34.42575           2.349711           68.59119           34.80260
        6.780001          -39.46713          -0.671148           72.68690           20.50871
        6.800001          -46.07499          -2.847162           71.09760           5.488347
        6.820001          -54.42992          -3.456520           64.50964          -7.092968
        6.840001          -64.37777          -1.400019           55.31072          -15.56482
        6.860001          -74.99113           4.663895           45.82010          -20.11518
        6.880001          -84.15420           15.65210           37.35183          -21.82641
        6.900001          -88.91557           30.84601           30.32932          -21.80245
        6.920001          -87.20757           47.29535           24.70318          -20.84481
        6.940001          -79.57866           61.28986           20.25461          -19.45193
        6.960001          -68.68886           70.70265           16.74255          -17.90794
        6.980000          -57.27757           75.59790           13.95701          -16.36499
        7.000000          -46.96075           77.17970           11.73063          -14.89908
        7.020000          -38.29232           76.73875           9.934967          -13.54398
        7.040000          -31.24236           75.23109           8.472883          -12.31067
        7.060000          -25.56308           73.25808           7.271168          -11.19837
        7.080000          -20.97087           71.16617           6.274473          -10.20049
        7.100000          -17.21419           69.14329           5.440706          -9.307969
        7.120000          -14.08936           67.28614           4.737598          -8.511012
        7.140000          -11.43686           65.64087           4.140196          -7.800016
        7.160000          -9.132431           64.22677           3.629039          -7.166013
        7.180000          -7.078000           63.04961           3.188802          -6.600821
        7.200000          -5.193993           62.10907           2.807319          -6.097108
        7.220000          -3.413040           61.40273           2.474856          -5.648355
        7.240002          -1.674707           60.92806           2.183529          -5.248787
        7.260000           0.078291           60.68361           1.927013          -4.893421
        7.280002           1.905854           60.66866           1.699990          -4.577690
        7.300000           3.872720           60.88265           1.498217          -4.297765
        7.320002           6.055870           61.32327           1.318047          -4.050110
        7.340000           8.547941           61.98232           1.156547          -3.831765
        7.360002           11.46749           62.83947           1.011149          -3.639980
        7.380000           14.96429           63.84884           0.879780          -3.472443
        7.400002           19.23185           64.91782           0.760592          -3.327016
        7.420000           24.50647           65.86756           0.652088          -3.201901
        7.440001           31.05874           66.37108           0.552912          -3.095405
        7.460000           39.12378           65.86087           0.461961          -3.006109
        7.480001           48.74003           63.43360           0.378219          -2.932690
        7.500000           59.39526           57.86555           0.300860          -2.874029
        7.520001           69.58345           47.99685           0.229111          -2.829078
        7.539999           76.71684           33.72836           0.162341          -2.796944
        7.560001           78.25019           17.02075           0.099952          -2.776804
        7.579999           73.60335           1.378288           0.041453          -2.767951
        7.600001           64.68842          -10.37832          -0.013627          -2.769742
        7.619999           54.29968          -17.52633          -0.065675          -2.781606
        7.640001           44.45501          -20.92129          -0.115068          -2.803056
        7.659999           36.04986          -21.83833          -0.162118          -2.833627
        7.680001           29.23086          -21.33369          -0.207133          -2.872952
        7.699999           23.82385          -20.10764          -0.250368          -2.920683
        7.720001           19.56396          -18.57473          -0.292080          -2.976532
        7.739999           16.20308          -16.96459          -0.332481          -3.040233
        7.760001           13.53428          -15.39583          -0.371793          -3.111598
        7.779999           11.39818          -13.92586          -0.410194          -3.190419
        7.800001           9.672325          -12.57715          -0.447880          -3.276581
        7.820002           8.265273          -11.35489          -0.485013          -3.369962
        7.840000           7.107970          -10.25500          -0.521749          -3.470464
        7.860002           6.147619          -9.268656          -0.558255          -3.578063
        7.880000           5.344543          -8.386070          -0.594668          -3.692708
        7.900002           4.667728          -7.596607          -0.631145          -3.814432
        7.920000           4.093534          -6.890635          -0.667814          -3.943225
        7.940002           3.603091          -6.258806          -0.704828          -4.079191
        7.960000           3.181819          -5.693114          -0.742313          -4.222361
        7.980001           2.817836          -5.186036          -0.780421          -4.372890
        8.000000           2.501838          -4.731254          -0.819279          -4.530866
        8.020001           2.226102          -4.322904          -0.859045          -4.696494
        8.040000           1.984510          -3.956088          -0.899851          -4.869916
        8.060001           1.771889          -3.626261          -0.941863          -5.051394
        8.080000           1.584108          -3.329651          -0.985224          -5.241123
        8.100001           1.417614          -3.062736          -1.030113          -5.439427
        8.120000           1.269542          -2.822583          -1.076690          -5.646555
        8.140001           1.137398          -2.606457          -1.125151          -5.862911
        8.160000           1.019154          -2.412070          -1.175677          -6.088799
        8.180001           0.913018          -2.237278          -1.228491          -6.324700
        8.200000           0.817530          -2.080286          -1.283799          -6.570994
        8.220001           0.731379          -1.939391          -1.341858          -6.828247
        8.240000           0.653493          -1.813176          -1.402909          -7.096917
        8.260001           0.582897          -1.700290          -1.467250          -7.377679
        8.280000           0.518794          -1.599596          -1.535169          -7.671080
        8.300001           0.460449          -1.510009          -1.607018          -7.977922
        8.320000           0.407257          -1.430616          -1.683140          -8.298862
        8.340001           0.358657          -1.360541          -1.763959          -8.634836
        8.360000           0.314187          -1.299042          -1.849888          -8.986643
        8.380001           0.273413          -1.245409          -1.941442          -9.355384
        8.399999           0.235976          -1.199036          -2.039129          -9.742013
        8.420001           0.201537          -1.159338          -2.143577          -10.14785
        8.439999           0.169815          -1.125822          -2.255416          -10.57404
        8.460001           0.140543          -1.098007          -2.375420          -11.02214
        8.479999           0.113498          -1.075479          -2.504381          -11.49355
        8.500001           0.088467          -1.057848          -2.643267          -11.99012
        8.519999           0.065273          -1.044766          -2.793077          -12.51356
        8.540000           0.043743          -1.035912          -2.955039          -13.06609
        8.560002           0.023734          -1.030990          -3.130462          -13.64989
        8.580000           0.005115          -1.029737          -3.320824          -14.26737
        8.600002          -0.012242          -1.031908          -3.527910          -14.92148
        8.620000          -0.028440          -1.037274          -3.753617          -15.61508
        8.640002          -0.043581          -1.045634          -4.000269          -16.35180
        8.660000          -0.057751          -1.056796          -4.270379          -17.13518
        8.680001          -0.071036          -1.070590          -4.567023          -17.96969
        8.700000          -0.083504          -1.086851          -4.893571          -18.85976
        8.720001          -0.095228          -1.105444          -5.254161          -19.81096
        8.740000          -0.106265          -1.126223          -5.653392          -20.82890
        8.760001          -0.116674          -1.149072          -6.096925          -21.92054
        8.780000          -0.126504          -1.173872          -6.591147          -23.09300
        8.800001          -0.135804          -1.200526          -7.143963          -24.35512
        8.820000          -0.144616          -1.228924          -7.764426          -25.71602
        8.840001          -0.152981          -1.258996          -8.463802          -27.18697
        8.860000          -0.160934          -1.290642          -9.255218          -28.77972
        8.880001          -0.168510          -1.323803          -10.15514          -30.50872
        8.900000          -0.175740          -1.358398          -11.18308          -32.38919
        8.920001          -0.182652          -1.394374          -12.36377          -34.43961
        8.940000          -0.189274          -1.431666          -13.72705          -36.67956
        8.960001          -0.195630          -1.470225          -15.31116          -39.13251
        8.980000          -0.201743          -1.509997          -17.16324          -41.82303
        9.000001          -0.207635          -1.550944          -19.34445          -44.77982
        9.020000          -0.213325          -1.593021          -21.93176          -48.03159
        9.040001          -0.218832          -1.636200          -25.02655          -51.60966
        9.059999          -0.224174          -1.680431          -28.75896          -55.54075
        9.080001          -0.229369          -1.725702          -33.30281          -59.84624
        9.099999          -0.234428          -1.771973          -38.88495          -64.52667
        9.120001          -0.239370          -1.819228          -45.81028          -69.54853
        9.139999          -0.244206          -1.867436          -54.47741          -74.80400
        9.160001          -0.248951          -1.916592          -65.41164          -80.05637
        9.179999          -0.253615          -1.966665          -79.26500          -84.82771
        9.200001          -0.258211          -2.017653          -96.79509          -88.23035
        9.219999          -0.262750          -2.069531          -118.6797          -88.70458
        9.240001          -0.267243          -2.122304          -145.0809          -83.74364
        9.260002          -0.271700          -2.175956          -174.6732          -69.89265
        9.280001          -0.276130          -2.230474          -203.3456          -43.76649
        9.300002          -0.280545          -2.285869          -223.8544          -4.757722
        9.320001          -0.284951          -2.342119          -228.7178           41.91104
        9.340002          -0.289359          -2.399247          -215.7736           86.35921
        9.360001          -0.293777          -2.457231          -190.1189           120.1698
        9.380002          -0.298214          -2.516096          -159.7399           140.8948
        9.400001          -0.302678          -2.575823          -130.6369           150.7785
        9.420002          -0.307178          -2.636442          -105.5352           153.4751
        9.440000          -0.311722          -2.697937          -84.96096           152.0718
        9.460002          -0.316319          -2.760337          -68.42874           148.6397
        9.480000          -0.320976          -2.823638          -55.18509           144.4174
        9.500002          -0.325702          -2.887866          -44.49284           140.0941
        9.520000          -0.330505          -2.953019          -35.74326           136.0365
        9.540002          -0.335396          -3.019130          -28.44946           132.4256
        9.559999          -0.340380          -3.086195          -22.23780           129.3453
        9.580001          -0.345469          -3.154260          -16.81277           126.8255
        9.599999          -0.350671          -3.223317          -11.94235           124.8725
        9.620001          -0.355997          -3.293414          -7.431957           123.4803
        9.639999          -0.361456          -3.364552          -3.115595           122.6405
        9.660001          -0.367059          -3.436780           1.163063           122.3441
        9.679999          -0.372817          -3.510102           5.556602           122.5827
        9.700001          -0.378743          -3.584573           10.23110           123.3455
        9.719999          -0.384848          -3.660202           15.37272           124.6135
        9.740001          -0.391148          -3.737046           21.20768           126.3480
        9.759999          -0.397655          -3.815118           28.01038           128.4677
        9.780001          -0.404388          -3.894484           36.12395           130.8133
        9.799999          -0.411361          -3.975159           45.95193           133.0806
        9.820001          -0.418598          -4.057219           57.93209           134.7249
        9.839999          -0.426117          -4.140683           72.39604           134.8356
        9.860001          -0.433945          -4.225628           89.29153           132.0682
        9.879999          -0.442107          -4.312088           107.7013           124.8538
        9.900001          -0.450637          -4.400150           125.5761           112.1612
        9.919999          -0.459569          -4.489846           140.3787           94.53787
        9.940001          -0.468947          -4.581279           150.7480           73.96651
        9.959999          -0.478820          -4.674491           157.0486           52.00659
        9.980000          -0.489252          -4.769594           159.5707           28.62498
        10.00000          -0.500312          -4.866650           156.9046           3.857897
        10.02000          -0.512091          -4.965736           147.3065          -20.04350
        10.04000          -0.524703          -5.066968           131.3907          -39.40260
        10.06000          -0.538287          -5.170402           112.3142          -51.95172
        10.08000          -0.553027          -5.276146           93.47024          -58.01011
        10.10000          -0.569152          -5.384217           76.87912          -59.33581
        10.12000          -0.586961          -5.494652           63.15723          -57.77999
        10.14000          -0.606821          -5.607318           52.15480          -54.70917
        10.16000          -0.629179          -5.721984           43.43479          -50.97639
        10.18000          -0.654487          -5.838049           36.53779          -47.06712
        10.20000          -0.683061          -5.954536           31.06230          -43.23463
        10.22000          -0.714653          -6.069850           26.69296          -39.60196
        10.24000          -0.747823          -6.182165           23.18549          -36.21628
        10.26000          -0.779311          -6.290360           20.35835          -33.08779
        10.28000          -0.804759          -6.396010           18.07430          -30.20453
        10.30000          -0.821384          -6.503960           16.23318          -27.54708
        10.32000          -0.830490          -6.620032           14.76065          -25.09049
        10.34000          -0.836414          -6.747388           13.60481          -22.81110
        10.36000          -0.843421          -6.885992           12.73042          -20.68521
        10.38000          -0.854014          -7.034150           12.11811          -18.69360
        10.40000          -0.869138          -7.190248           11.76220          -16.82045
        10.42000          -0.888921          -7.353150           11.67152          -15.05876
        10.44000          -0.913243          -7.522404           11.86946          -13.41259
        10.46000          -0.941979          -7.697868           12.39385          -11.90751
        10.48000          -0.975137          -7.879799           13.29352          -10.60176
        10.50000          -1.012854          -8.068525           14.61395          -9.606883
        10.52000          -1.055446          -8.264628           16.36437          -9.104619
        10.54000          -1.103368          -8.468672           18.45205          -9.345398
        10.56000          -1.157284          -8.681447           20.60498          -10.58485
        10.58000          -1.218028          -8.903708           22.33842          -12.93428
        10.60000          -1.286711          -9.136451           23.06895          -16.17707
        10.62000          -1.364703          -9.380629           22.40140          -19.69971
        10.64000          -1.453794          -9.637456           20.42807          -22.73399
        10.66000          -1.556206          -9.908098           17.68976          -24.78612
        10.68000          -1.674854          -10.19397           14.79688          -25.82383
        10.70000          -1.813417          -10.49637           12.14218          -26.09708
        10.72000          -1.976771          -10.81673           9.873056          -25.90269
        10.74000          -2.171227          -11.15612           7.992362          -25.47026
        10.76000          -2.405086          -11.51504           6.443956          -24.94777
        10.78000          -2.689464          -11.89300           5.158741          -24.42142
        10.80000          -3.038860          -12.28694           4.074636          -23.93884
        10.82000          -3.472472          -12.68976           3.139599          -23.52481
        10.84000          -4.014396          -13.08625           2.312525          -23.19198
        10.86000          -4.693526          -13.44768           1.559888          -22.94633
        10.88000          -5.538262          -13.72230           0.854584          -22.79092
        10.90000          -6.563584          -13.82465           0.172905          -22.72748
        10.92000          -7.739128          -13.63053          -0.506254          -22.75763
        10.94000          -8.941769          -13.00180          -1.203825          -22.88338
        10.96000          -9.922257          -11.87356          -1.941131          -23.10721
        10.98000          -10.37865          -10.37962          -2.742322          -23.43233
        11.00000          -10.15815          -8.868697          -3.635149          -23.86193
        11.02000          -9.394005          -7.699360          -4.654164          -24.39893
        11.04000          -8.388630          -7.022305          -5.842255          -25.04388
        11.06000          -7.399658          -6.773370          -7.255526          -25.79293
        11.08000          -6.548899          -6.803283          -8.966148          -26.63195
        11.10000          -5.846440          -6.982033          -11.06933          -27.52850
        11.12000          -5.253051          -7.239978          -13.68549          -28.41477
        11.14000          -4.733181          -7.560023          -16.96274          -29.16150
        11.16000          -4.277818          -7.942872          -21.05769          -29.53361
        11.18000          -3.892410          -8.381677          -26.08514          -29.13269
        11.20000          -3.580131          -8.860238          -31.97956          -27.35138
        11.22000          -3.336344          -9.362250          -38.26206          -23.43652
        11.24000          -3.152038          -9.875787          -43.79252          -16.84331
        11.26000          -3.017193          -10.39439          -46.93499          -7.898586
        11.28000          -2.922977          -10.91502          -46.47549           1.809740
        11.30000          -2.862165          -11.43735          -42.63362           10.19847
        11.32000          -2.829219          -11.96202          -36.86335           16.00533
        11.34000          -2.819950          -12.49074          -30.72187           19.21172
        11.36000          -2.831290          -13.02525          -25.15728           20.47439
        11.38000          -2.861030          -13.56784          -20.50690           20.52364
        11.40000          -2.907629          -14.12051          -16.76987           19.90691
        11.42000          -2.970112          -14.68572          -13.81227           18.97033
        11.44000          -3.047914          -15.26559          -11.47904           17.91381
        11.46000          -3.140889          -15.86268          -9.630602           16.84500
        11.48000          -3.249184          -16.47938          -8.155762           15.81873
        11.50000          -3.373245          -17.11814          -6.968704           14.86014
        11.52000          -3.513870          -17.78187          -6.003940           13.97778
        11.54000          -3.672070          -18.47322          -5.212729           13.17238
        11.56000          -3.849261          -19.19552          -4.557749           12.43995
        11.58000          -4.047092          -19.95186          -4.011064           11.77516
        11.60000          -4.267706          -20.74610          -3.550942           11.17160
        11.62000          -4.513543          -21.58197          -3.160897           10.62332
        11.64000          -4.787696          -22.46409          -2.827842           10.12435
        11.66000          -5.093684          -23.39702          -2.541702           9.669566
        11.68000          -5.435922          -24.38645          -2.294312           9.254066
        11.70000          -5.819473          -25.43808          -2.079303           8.873749
        11.72000          -6.250685          -26.55896          -1.891407           8.524741
        11.74000          -6.736936          -27.75628          -1.726470           8.203856
        11.76000          -7.287507          -29.03898          -1.580988           7.908073
        11.78000          -7.913367          -30.41619          -1.452170           7.634924
        11.80000          -8.628412          -31.89921          -1.337625           7.382061
        11.82000          -9.449365          -33.49973          -1.235430           7.147569
        11.84000          -10.39763          -35.23192          -1.143909           6.929603
        11.86000          -11.49949          -37.11041          -1.061710           6.726676
        11.88000          -12.78901          -39.15255          -0.987634           6.537337
        11.90000          -14.30890          -41.37558          -0.920708           6.360410
        11.92000          -16.11531          -43.79873          -0.860058           6.194744
        11.94000          -18.28014          -46.43879          -0.804972           6.039411
        11.96000          -20.89922          -49.31051          -0.754802           5.893480
        11.98000          -24.09740          -52.41780          -0.709018           5.756216
        12.00000          -28.04241          -55.74762          -0.667131           5.626865
        12.02000          -32.95357          -59.24826          -0.628741           5.504832
        12.04000          -39.12094          -62.80174          -0.593476           5.389504
        12.06000          -46.90745          -66.16369          -0.561029           5.280403
        12.08000          -56.74348          -68.87500          -0.531112           5.177018
        12.10000          -69.03798          -70.11760          -0.503487           5.078959
        12.12000          -83.96375          -68.55318          -0.477929           4.985807
        12.14000          -100.9479          -62.27568          -0.454253           4.897239
        12.16000          -117.9476          -49.25620          -0.432279           4.812906
        12.18000          -131.0449          -28.75948          -0.411861           4.732538
        12.20000          -135.7729          -3.177524          -0.392856           4.655844
        12.22000          -130.2170           22.05003          -0.375145           4.582590
        12.24000          -116.7259           41.70360          -0.358621           4.512561
        12.26000          -99.84371           53.79411          -0.343179           4.445528
        12.28000          -83.30597           59.29509          -0.328736           4.381319
        12.30000          -68.95988           60.26803          -0.315206           4.319739
        12.32000          -57.26788           58.56086          -0.302522           4.260647
        12.34000          -48.01831           55.44357          -0.290612           4.203872
        12.36000          -40.80009           51.68282          -0.279422           4.149295
        12.38000          -35.19621           47.70320          -0.268894           4.096769
        12.40000          -30.86181           43.72676          -0.258981           4.046192
        12.42000          -27.52698           39.85582          -0.249635           3.997440
        12.44000          -24.99345           36.13047          -0.240819           3.950426
        12.46000          -23.11710           32.55336          -0.232491           3.905035
        12.48000          -21.79993           29.11153          -0.224621           3.861195
        12.50000          -20.97915           25.78132          -0.217173           3.818813
        12.52000          -20.62357           22.53863          -0.210122           3.777821
        12.54000          -20.73006           19.35904          -0.203439           3.738135
        12.56000          -21.32415           16.22646          -0.197101           3.699702
        12.58000          -22.46263           13.13538          -0.191083           3.662443
        12.60000          -24.23727           10.10571          -0.185368           3.626315
        12.62000          -26.78125           7.197224          -0.179933           3.591251
        12.64000          -30.26795           4.545562          -0.174763           3.557209
        12.66000          -34.90032           2.410788          -0.169840           3.524130
        12.68000          -40.85101           1.255878          -0.165150           3.491978
        12.70000          -48.12336           1.820001          -0.160677           3.460702
        12.72000          -56.25566           5.097905          -0.156411           3.430271
        12.74000          -63.96230           12.00125          -0.152336           3.400635
        12.76000          -69.09933           22.52698          -0.148445           3.371772
        12.78000          -69.63794           34.97635          -0.144724           3.343635
        12.80000          -65.21980           46.46999          -0.141165           3.316203
        12.82000          -57.48033           54.78434          -0.137758           3.289438
        12.84000          -48.68404           59.41898          -0.134495           3.263319
        12.86000          -40.41977           61.10812          -0.131368           3.237811
        12.88000          -33.37064           60.88657          -0.128370           3.212897
        12.90000          -27.63084           59.59571          -0.125493           3.188547
        12.92000          -23.04765           57.78806          -0.122731           3.164737
        12.94000          -19.40415           55.78866          -0.120079           3.141455
        12.96000          -16.49563           53.77453          -0.117530           3.118670
        12.98000          -14.15590           51.83714          -0.115079           3.096372
        13.00000          -12.25419           50.01796          -0.112721           3.074532
        13.02000          -10.69228           48.33314          -0.110451           3.053144
        13.04000          -9.395002           46.78376          -0.108266           3.032181
        13.06000          -8.306346           45.36498          -0.106160           3.011636
        13.08000          -7.383071           44.06783          -0.104130           2.991488
        13.10000          -6.592625           42.88319          -0.102173           2.971726
        13.12000          -5.909362           41.80107          -0.100284           2.952332
        13.14000          -5.313697           40.81279          -0.098460           2.933300
        13.16000          -4.789825           39.90971          -0.096699           2.914611
        13.18000          -4.325503           39.08467          -0.094998           2.896260
        13.20000          -3.910605           38.33079          -0.093353           2.878229
        13.22000          -3.537178           37.64246          -0.091763           2.860512
        13.24000          -3.198475           37.01433          -0.090224           2.843096
        13.26000          -2.889133           36.44212          -0.088735           2.825975
        13.28000          -2.604482           35.92174          -0.087293           2.809132
        13.30000          -2.340763           35.44999          -0.085897           2.792566
        13.32000          -2.094608           35.02378          -0.084543           2.776265
        13.34000          -1.863273           34.64076          -0.083231           2.760224
        13.36000          -1.644219           34.29866          -0.081959           2.744429
        13.38000          -1.435345           33.99580          -0.080725           2.728878
        13.40000          -1.234637           33.73059          -0.079526           2.713561
        13.42000          -1.040392           33.50193          -0.078363           2.698472
        13.44000          -0.850913           33.30882          -0.077233           2.683604
        13.46000          -0.664724           33.15062          -0.076136           2.668953
        13.48000          -0.480291           33.02686          -0.075069           2.654508
        13.50000          -0.296233           32.93737          -0.074032           2.640270
        13.52000          -0.111051           32.88217          -0.073023           2.626226
        13.54000           0.076659           32.86155          -0.072041           2.612375
        13.56000           0.268481           32.87601          -0.071086           2.598711
        13.58000           0.465961           32.92630          -0.070156           2.585231
        13.60000           0.670898           33.01350          -0.069250           2.571926
        13.62000           0.885126           33.13887          -0.068367           2.558795
        13.64000           1.110822           33.30408          -0.067507           2.545831
        13.66000           1.350334           33.51105          -0.066669           2.533030
        13.68000           1.606327           33.76208          -0.065851           2.520391
        13.70000           1.882012           34.05996          -0.065054           2.507905
        13.72000           2.180943           34.40780          -0.064276           2.495575
        13.74000           2.507506           34.80941          -0.063517           2.483391
        13.76000           2.866684           35.26893          -0.062776           2.471353
        13.78000           3.264696           35.79147          -0.062052           2.459455
        13.80000           3.708785           36.38249          -0.061345           2.447695
        13.82000           4.208082           37.04873          -0.060654           2.436069
        13.84000           4.773481           37.79734          -0.059979           2.424577
        13.86000           5.418875           38.63699          -0.059319           2.413211
        13.88000           6.161218           39.57685          -0.058674           2.401974
        13.90000           7.022429           40.62771          -0.058042           2.390858
        13.92000           8.029863           41.80058          -0.057425           2.379864
        13.94000           9.219419           43.10771          -0.056821           2.368987
        13.96000           10.63688           44.56020          -0.056229           2.358225
        13.98000           12.34318           46.16805          -0.055650           2.347574
        14.00000           14.41752           47.93516          -0.055083           2.337037
        14.02000           16.96624           49.85565          -0.054528           2.326605
        14.04000           20.12848           51.90105          -0.053984           2.316283
        14.06000           24.08901           54.00404          -0.053450           2.306061
        14.08000           29.08145           56.02264          -0.052928           2.295943
        14.10000           35.38968           57.68701          -0.052415           2.285923
        14.12000           43.30266           58.50954          -0.051913           2.276002
        14.14000           53.00012           57.67494          -0.051420           2.266176
        14.16000           64.25737           53.97152          -0.050937           2.256444
        14.18000           75.97838           45.97744          -0.050462           2.246805
        14.20000           85.78616           32.84963          -0.049997           2.237257
        14.22000           90.56014           15.60751          -0.049540           2.227797
        14.24000           88.36519          -2.412482          -0.049091           2.218424
        14.26000           80.11893          -17.36616          -0.048651           2.209137
        14.28000           68.77182          -27.27188          -0.048218           2.199934
        14.30000           57.13414          -32.41204          -0.047793           2.190814
        14.32000           46.78246          -34.12305          -0.047375           2.181775
        14.34000           38.20808          -33.75056          -0.046965           2.172813
        14.36000           31.34233          -32.26491          -0.046562           2.163933
        14.38000           25.91148          -30.26678          -0.046165           2.155128
        14.40000           21.62126          -28.09805          -0.045776           2.146399
        14.42000           18.21591          -25.94134          -0.045392           2.137745
        14.44000           15.49054          -23.88647          -0.045015           2.129163
        14.46000           13.28982          -21.97385          -0.044644           2.120655
        14.48000           11.49495          -20.21527          -0.044279           2.112216
        14.50000           10.01756          -18.60963          -0.043920           2.103848
        14.52000           8.789910          -17.14783          -0.043567           2.095547
        14.54000           7.761264          -15.81888          -0.043219           2.087314
        14.56000           6.892076          -14.61005          -0.042877           2.079147
        14.58000           6.152313          -13.50974          -0.042540           2.071047
        14.60000           5.518076          -12.50634          -0.042208           2.063009
        14.62000           4.970950          -11.58999          -0.041881           2.055038
        14.64000           4.495969          -10.75121          -0.041559           2.047126
        14.66000           4.081448          -9.982129          -0.041242           2.039276
        14.68000           3.717692          -9.275278          -0.040929           2.031487
        14.70000           3.397049          -8.624511          -0.040621           2.023758
        14.72000           3.113046          -8.023989          -0.040317           2.016087
        14.74000           2.860527          -7.468943          -0.040018           2.008474
        14.76000           2.635049          -6.954810          -0.039723           2.000918
        14.78000           2.433048          -6.477878          -0.039432           1.993420
        14.80000           2.251401          -6.034548          -0.039145           1.985976
        14.82000           2.087585          -5.621915          -0.038862           1.978588
        14.84000           1.939357          -5.237124          -0.038583           1.971253
        14.86000           1.804898          -4.877880          -0.038308           1.963971
        14.88000           1.682562          -4.541901          -0.038037           1.956742
        14.90000           1.571012          -4.227351          -0.037769           1.949565
        14.92000           1.469023          -3.932389          -0.037504           1.942439
        14.94000           1.375595          -3.655543          -0.037243           1.935363
        14.96000           1.289800          -3.395314          -0.036986           1.928337
        14.98000           1.210879          -3.150505          -0.036732           1.921360
        15.00000           1.138120          -2.919883          -0.036481           1.914431
        15.02000           1.070940          -2.702473          -0.036233           1.907551
        15.04000           1.008784          -2.497255          -0.035989           1.900718
        15.06000           0.951200          -2.303426          -0.035747           1.893932
        15.08000           0.897751          -2.120131          -0.035509           1.887190
        15.10000           0.848081          -1.946709          -0.035273           1.880497
        15.12000           0.801841          -1.782440          -0.035040           1.873846
        15.14000           0.758742          -1.626746          -0.034810           1.867241
        15.16000           0.718526          -1.479097          -0.034583           1.860680
        15.18000           0.680939          -1.338928          -0.034359           1.854162
        15.20000           0.645779          -1.205814          -0.034137           1.847686
        15.22000           0.612840          -1.079277          -0.033918           1.841252
        15.24000           0.581959          -0.958959          -0.033701           1.834862
        15.26000           0.552965          -0.844446          -0.033487           1.828511
        15.28000           0.525725          -0.735431          -0.033276           1.822202
        15.30000           0.500099          -0.631562          -0.033066           1.815933
        15.32000           0.475977          -0.532576          -0.032859           1.809705
        15.34000           0.453241          -0.438162          -0.032655           1.803515
        15.36000           0.431801          -0.348101          -0.032453           1.797366
        15.38000           0.411559          -0.262120          -0.032253           1.791254
        15.40000           0.392439          -0.180029          -0.032055           1.785181
        15.42000           0.374357          -0.101591          -0.031859           1.779145
        15.44000           0.357251          -0.026637          -0.031666           1.773146
        15.46000           0.341051           0.045037          -0.031474           1.767184
        15.48000           0.325702           0.113579          -0.031285           1.761260
        15.50000           0.311146           0.179168          -0.031098           1.755371
        15.52000           0.297336           0.241934          -0.030912           1.749519
        15.54000           0.284221           0.302034          -0.030729           1.743700
        15.56000           0.271764           0.359584          -0.030547           1.737917
        15.58000           0.259919           0.414724          -0.030368           1.732170
        15.60000           0.248654           0.467553          -0.030190           1.726456
        15.62000           0.237932           0.518195          -0.030014           1.720776
        15.64000           0.227722           0.566741          -0.029840           1.715130
        15.66000           0.217993           0.613301          -0.029667           1.709517
        15.68000           0.208721           0.657952          -0.029497           1.703938
        15.70000           0.199876           0.700797          -0.029328           1.698389
        15.72000           0.191437           0.741902          -0.029160           1.692874
        15.74000           0.183380           0.781358          -0.028995           1.687391
        15.76000           0.175685           0.819226          -0.028831           1.681940
        15.78000           0.168332           0.855588          -0.028668           1.676519
        15.80000           0.161304           0.890496          -0.028508           1.671130
        15.82000           0.154581           0.924026          -0.028348           1.665771
        15.84000           0.148150           0.956224          -0.028190           1.660443
        15.86000           0.141995           0.987157          -0.028034           1.655144
        15.88000           0.136100           1.016874          -0.027879           1.649874
        15.90000           0.130456           1.045421          -0.027726           1.644636
        15.92000           0.125046           1.072852          -0.027574           1.639427
        15.94000           0.119861           1.099210          -0.027424           1.634246
        15.96000           0.114889           1.124540          -0.027275           1.629094
        15.98000           0.110120           1.148880          -0.027127           1.623971
        16.00000           0.105544           1.172274          -0.026980           1.618875
        16.02000           0.101152           1.194754          -0.026835           1.613809
        16.04000           0.096935           1.216363          -0.026692           1.608768
        16.06000           0.092885           1.237128          -0.026549           1.603756
        16.08000           0.088994           1.257087          -0.026408           1.598771
        16.10000           0.085255           1.276265          -0.026268           1.593813
        16.12000           0.081660           1.294699          -0.026130           1.588881
        16.14000           0.078204           1.312410          -0.025992           1.583977
        16.16000           0.074880           1.329431          -0.025856           1.579097
        16.18000           0.071683           1.345783          -0.025721           1.574246
        16.20000           0.068606           1.361496          -0.025587           1.569418
        16.22000           0.065644           1.376588          -0.025454           1.564617
        16.24000           0.062793           1.391086          -0.025323           1.559840
        16.26000           0.060048           1.405009          -0.025192           1.555089
        16.28000           0.057403           1.418381          -0.025063           1.550363
        16.30000           0.054856           1.431216          -0.024935           1.545662
        16.32000           0.052400           1.443539          -0.024808           1.540985
        16.34000           0.050034           1.455365          -0.024681           1.536333
        16.36000           0.047753           1.466714          -0.024556           1.531704
        16.38000           0.045554           1.477599          -0.024432           1.527099
        16.40000           0.043433           1.488040          -0.024309           1.522517
        16.42000           0.041388           1.498049          -0.024187           1.517961
        16.44000           0.039414           1.507645          -0.024066           1.513425
        16.46000           0.037510           1.516838          -0.023946           1.508915
        16.48000           0.035672           1.525645          -0.023827           1.504426
        16.50000           0.033898           1.534077          -0.023709           1.499961
        16.52000           0.032185           1.542149          -0.023592           1.495517
        16.54000           0.030532           1.549869          -0.023476           1.491097
        16.56000           0.028935           1.557253          -0.023361           1.486698
        16.58000           0.027393           1.564311          -0.023247           1.482321
        16.60000           0.025903           1.571053          -0.023133           1.477966
        16.62000           0.024463           1.577489          -0.023021           1.473633
        16.64000           0.023073           1.583630          -0.022909           1.469321
        16.66000           0.021729           1.589488          -0.022798           1.465030
        16.68000           0.020430           1.595067          -0.022688           1.460762
        16.70000           0.019174           1.600379          -0.022579           1.456512
        16.72000           0.017960           1.605435          -0.022471           1.452285
        16.74000           0.016786           1.610239          -0.022364           1.448078
        16.76000           0.015652           1.614802          -0.022257           1.443892
        16.78000           0.014554           1.619129          -0.022151           1.439725
        16.80000           0.013493           1.623230          -0.022046           1.435580
        16.82000           0.012466           1.627112          -0.021942           1.431454
        16.84000           0.011473           1.630780          -0.021839           1.427348
        16.86000           0.010512           1.634243          -0.021736           1.423262
        16.88000           0.009582           1.637506          -0.021635           1.419195
        16.90000           0.008682           1.640576          -0.021533           1.415148
        16.92000           0.007812           1.643458          -0.021433           1.411120
        16.94000           0.006969           1.646159          -0.021334           1.407111
        16.96000           0.006154           1.648685          -0.021235           1.403121
        16.98000           0.005365           1.651040          -0.021137           1.399149
        17.00000           0.004601           1.653231          -0.021039           1.395198
        17.02000           0.003862           1.655262          -0.020942           1.391264
        17.04000           0.003146           1.657137          -0.020846           1.387349
        17.06000           0.002453           1.658862          -0.020751           1.383452
        17.08000           0.001782           1.660441          -0.020657           1.379572
        17.10000           0.001132           1.661880          -0.020563           1.375712
        17.12000           0.503159E-3        1.663181          -0.020469           1.371869
        17.14000          -0.105974E-3        1.664350          -0.020377           1.368044
        17.16000          -0.695716E-3        1.665390          -0.020285           1.364237
        17.18000          -0.001267           1.666306          -0.020193           1.360447
        17.20000          -0.001820           1.667101          -0.020103           1.356674
        17.22000          -0.002356           1.667777          -0.020013           1.352920
        17.24000          -0.002874           1.668340          -0.019923           1.349181
        17.26000          -0.003376           1.668793          -0.019834           1.345460
        17.28000          -0.003863           1.669139          -0.019746           1.341757
        17.30000          -0.004334           1.669381          -0.019659           1.338070
        17.32000          -0.004790           1.669523          -0.019572           1.334399
        17.34000          -0.005232           1.669566          -0.019485           1.330745
        17.36000          -0.005660           1.669515          -0.019400           1.327108
        17.38000          -0.006074           1.669372          -0.019315           1.323487
        17.40000          -0.006476           1.669140          -0.019230           1.319882
        17.42000          -0.006864           1.668821          -0.019146           1.316294
        17.44000          -0.007241           1.668419          -0.019062           1.312721
        17.46000          -0.007605           1.667934          -0.018980           1.309165
        17.48000          -0.007958           1.667371          -0.018897           1.305624
        17.50000          -0.008299           1.666732          -0.018815           1.302099
        17.52000          -0.008630           1.666018          -0.018734           1.298589
        17.54000          -0.008950           1.665233          -0.018653           1.295095
        17.56000          -0.009260           1.664377          -0.018573           1.291616
        17.58000          -0.009560           1.663453          -0.018494           1.288152
        17.60000          -0.009851           1.662464          -0.018415           1.284704
        17.62000          -0.010132           1.661411          -0.018336           1.281271
        17.64000          -0.010404           1.660295          -0.018258           1.277854
        17.66000          -0.010668           1.659120          -0.018180           1.274451
        17.68000          -0.010922           1.657887          -0.018103           1.271062
        17.70000          -0.011169           1.656597          -0.018027           1.267688
        17.72000          -0.011408           1.655252          -0.017951           1.264329
        17.74000          -0.011638           1.653855          -0.017875           1.260984
        17.76000          -0.011861           1.652405          -0.017800           1.257655
        17.78000          -0.012077           1.650906          -0.017725           1.254339
        17.80000          -0.012286           1.649358          -0.017651           1.251037
        17.82000          -0.012488           1.647763          -0.017577           1.247749
        17.84000          -0.012683           1.646123          -0.017504           1.244476
        17.86000          -0.012871           1.644438          -0.017432           1.241217
        17.88000          -0.013054           1.642711          -0.017359           1.237971
        17.90000          -0.013230           1.640943          -0.017287           1.234739
        17.92000          -0.013400           1.639133          -0.017216           1.231521
        17.94000          -0.013564           1.637285          -0.017145           1.228317
        17.96000          -0.013722           1.635399          -0.017075           1.225125
        17.98000          -0.013875           1.633477          -0.017005           1.221948
        18.00000          -0.014023           1.631519          -0.016935           1.218783
        18.02000          -0.014166           1.629528          -0.016866           1.215632
        18.04000          -0.014303           1.627502          -0.016797           1.212495
        18.06000          -0.014436           1.625444          -0.016729           1.209370
        18.08000          -0.014564           1.623356          -0.016661           1.206258
        18.10000          -0.014687           1.621237          -0.016593           1.203160
        18.12000          -0.014806           1.619089          -0.016526           1.200074
        18.14000          -0.014920           1.616912          -0.016460           1.197001
        18.16000          -0.015030           1.614708          -0.016393           1.193940
        18.18000          -0.015136           1.612478          -0.016328           1.190893
        18.20000          -0.015238           1.610222          -0.016262           1.187858
        18.22000          -0.015336           1.607941          -0.016197           1.184835
        18.24000          -0.015430           1.605637          -0.016132           1.181825
        18.26000          -0.015521           1.603309          -0.016068           1.178827
        18.28000          -0.015608           1.600959          -0.016004           1.175841
        18.30000          -0.015691           1.598587          -0.015941           1.172868
        18.32000          -0.015771           1.596195          -0.015878           1.169907
        18.34000          -0.015848           1.593781          -0.015815           1.166957
        18.36000          -0.015922           1.591349          -0.015752           1.164020
        18.38000          -0.015992           1.588898          -0.015690           1.161094
        18.40000          -0.016060           1.586429          -0.015629           1.158181
        18.42000          -0.016124           1.583942          -0.015567           1.155278
        18.44000          -0.016185           1.581439          -0.015507           1.152388
        18.46000          -0.016244           1.578919          -0.015446           1.149510
        18.48000          -0.016300           1.576384          -0.015386           1.146643
        18.50000          -0.016354           1.573833          -0.015326           1.143787
        18.52000          -0.016404           1.571268          -0.015266           1.140943
        18.54000          -0.016453           1.568689          -0.015207           1.138110
        18.56000          -0.016498           1.566097          -0.015148           1.135289
        18.58000          -0.016542           1.563492          -0.015090           1.132478
        18.60000          -0.016583           1.560874          -0.015032           1.129679
        18.62000          -0.016622           1.558245          -0.014974           1.126891
        18.64000          -0.016658           1.555604          -0.014916           1.124115
        18.66000          -0.016693           1.552951          -0.014859           1.121348
        18.68000          -0.016725           1.550289          -0.014802           1.118593
        18.70000          -0.016756           1.547617          -0.014746           1.115849
        18.72000          -0.016784           1.544935          -0.014690           1.113115
        18.74000          -0.016811           1.542244          -0.014634           1.110392
        18.76000          -0.016836           1.539544          -0.014578           1.107680
        18.78000          -0.016859           1.536836          -0.014523           1.104978
        18.80000          -0.016880           1.534119          -0.014468           1.102287
        18.82000          -0.016899           1.531396          -0.014413           1.099606
        18.84000          -0.016917           1.528664          -0.014359           1.096935
        18.86000          -0.016933           1.525927          -0.014305           1.094276
        18.88000          -0.016948           1.523182          -0.014251           1.091626
        18.90000          -0.016961           1.520432          -0.014198           1.088986
        18.92000          -0.016972           1.517675          -0.014145           1.086357
        18.94000          -0.016982           1.514913          -0.014092           1.083739
        18.96000          -0.016991           1.512146          -0.014039           1.081129
        18.98000          -0.016998           1.509374          -0.013987           1.078530
        19.00000          -0.017004           1.506597          -0.013935           1.075941
        19.02000          -0.017009           1.503817          -0.013884           1.073362
        19.04000          -0.017012           1.501032          -0.013832           1.070792
        19.06000          -0.017014           1.498243          -0.013781           1.068233
        19.08000          -0.017015           1.495451          -0.013730           1.065683
        19.10000          -0.017015           1.492656          -0.013680           1.063144
        19.12000          -0.017014           1.489858          -0.013629           1.060613
        19.14000          -0.017011           1.487057          -0.013579           1.058092
        19.16000          -0.017008           1.484254          -0.013530           1.055580
        19.18000          -0.017003           1.481449          -0.013480           1.053079
        19.20000          -0.016997           1.478641          -0.013431           1.050586
        19.22000          -0.016991           1.475832          -0.013382           1.048104
        19.24000          -0.016983           1.473022          -0.013333           1.045629
        19.26000          -0.016975           1.470210          -0.013285           1.043165
        19.28000          -0.016965           1.467397          -0.013237           1.040709
        19.30000          -0.016955           1.464583          -0.013189           1.038263
        19.32000          -0.016944           1.461769          -0.013141           1.035826
        19.34000          -0.016932           1.458954          -0.013094           1.033399
        19.36000          -0.016919           1.456139          -0.013047           1.030980
        19.38000          -0.016905           1.453323          -0.013000           1.028570
        19.40000          -0.016891           1.450508          -0.012953           1.026169
        19.42000          -0.016876           1.447693          -0.012907           1.023777
        19.44000          -0.016860           1.444878          -0.012861           1.021393
        19.46000          -0.016843           1.442065          -0.012815           1.019019
        19.48000          -0.016826           1.439251          -0.012769           1.016653
        19.50000          -0.016808           1.436439          -0.012724           1.014296
        19.52000          -0.016789           1.433628          -0.012679           1.011948
        19.54000          -0.016770           1.430818          -0.012634           1.009607
        19.56000          -0.016750           1.428009          -0.012589           1.007276
        19.58000          -0.016730           1.425202          -0.012544           1.004954
        19.60000          -0.016709           1.422396          -0.012500           1.002640
        19.62000          -0.016687           1.419592          -0.012456           1.000334
        19.64000          -0.016665           1.416790          -0.012412           0.998036
        19.66000          -0.016643           1.413990          -0.012369           0.995747
        19.68000          -0.016620           1.411193          -0.012325           0.993467
        19.70000          -0.016596           1.408397          -0.012282           0.991194
        19.72000          -0.016572           1.405605          -0.012239           0.988930
        19.74000          -0.016547           1.402814          -0.012197           0.986673
        19.76000          -0.016522           1.400026          -0.012154           0.984426
        19.78000          -0.016497           1.397240          -0.012112           0.982185
        19.80000          -0.016471           1.394459          -0.012070           0.979953
        19.82000          -0.016444           1.391678          -0.012028           0.977730
        19.84000          -0.016418           1.388903          -0.011986           0.975514
        19.86000          -0.016391           1.386129          -0.011945           0.973306
        19.88000          -0.016363           1.383360          -0.011904           0.971106
        19.90000          -0.016335           1.380592          -0.011863           0.968914
        19.92000          -0.016307           1.377830          -0.011822           0.966729
        19.94000          -0.016278           1.375069          -0.011781           0.964553
        19.96000          -0.016249           1.372313          -0.011741           0.962384
        19.98000          -0.016220           1.369561          -0.011701           0.960222
        20.00000          -0.016191           1.366812          -0.011661           0.958069
# 
# 02/11/2024 at 10:30 yambo @ unimi-XPS-8930 [start]
# 02/11/2024 at 10:30                        [end]
#  
# Timing   [Min/Max/Average]: 04s/04s/04s
#
# .-Input file  yambo.in
# | rim_cut                          # [R] Coulomb potential
# | optics                           # [R] Linear Response optical properties
# | dipoles                          # [R] Oscillator strenghts (or dipoles)
# | bss                              # [R] BSE solver
# | bse                              # [R][BSE] Bethe Salpeter Equation.
# | ElecTemp= 0.025861         eV    # Electronic Temperature
# | BoseTemp= 0.025861         eV    # Bosonic Temperature
# | DIP_Threads= 1                   # [OPENMP/X] Number of threads for dipoles
# | BS_nCPU_LinAlg_INV= 1            # [PARALLEL] CPUs for Linear Algebra (if -1 it is automatically set)
# | BS_nCPU_LinAlg_DIAGO= 1          # [PARALLEL] CPUs for Linear Algebra (if -1 it is automatically set)
# | X_Threads= 1                     # [OPENMP/X] Number of threads for response functions
# | K_Threads= 1                     # [OPENMP/BSK] Number of threads for response functions
# | RandQpts=0                       # [RIM] Number of random q-points in the BZ
# | RandGvec= 1                RL    # [RIM] Coulomb interaction RS components
# | CUTGeo= "ws xyz"                 # [CUT] Coulomb Cutoff geometry: box/cylinder/sphere/ws/slab X/Y/Z/XY..
# | % CUTBox
# |  0.000000 | 0.000000 | 0.000000 |        # [CUT] [au] Box sides
# | %
# | CUTRadius= 0.000000              # [CUT] [au] Sphere/Cylinder radius
# | CUTCylLen= 0.000000              # [CUT] [au] Cylinder length
# | CUTwsGvec= 0.700000              # [CUT] WS cutoff: number of G to be modified
# | BSKmod= "HARTREE"                # [BSE] IP/Hartree/HF/ALDA/SEX/BSfxc
# | BSEmod= "retarded"               # [BSE] resonant/retarded/coupling
# | BSSmod= "hd"                     # [BSS] (h)aydock/(d)iagonalization/(s)lepc/(i)nversion/(t)ddft`
# | % DipBands
# |   2 |  7 |                           # [DIP] Bands range for dipoles
# | %
# | DipComputed= "R V P"             # [DIP] [default R P V; extra P2 Spin Orb]
# | BSENGexx=  4015            RL    # [BSK] Exchange components
# | % BSEQptR
# |  1 | 1 |                             # [BSK] Transferred momenta range
# | %
# | % BSEBands
# |   2 |  7 |                           # [BSK] Bands range
# | %
# | % BEnRange
# | -20.00000 | 20.00000 |         eV    # [BSS] Energy range
# | %
# | % BDmRange
# |  0.100000 | 0.100000 |         eV    # [BSS] Damping range
# | %
# | BEnSteps= 2001                   # [BSS] Energy steps
# | % BLongDir
# |  1.000000 | 0.000000 | 0.000000 |        # [BSS] [cc] Electric Field versor
# | %
# | BSEprop= " abs jdos dich kerr esrt" # [BSS] Can be any among abs/jdos/kerr/asymm/anHAll/magn/dich/photolum/esrt
# | BSEdips= "none"                  # [BSS] Can be "trace/none" or "xy/xz/yz" to define off-diagonal rotation plane
# | #WRbsWF                        # [BSS] Write to disk excitonic the WFs
# | BSHayTrs= 0.100000E-2            # [BSS] Relative [o/o] Haydock threshold. Strict(>0)/Average(<0)
# | BSHayItrMAX= 200                 # [BSS] MaX number of Haydock iterations.
