#                                                                     
#  **    **    **     ****     ****  ******     *******               
# //**  **    ****   /**/**   **/** /*////**   **/////**              
#  //****    **//**  /**//** ** /** /*   /**  **     //**             
#   //**    **  //** /** //***  /** /******  /**      /**             
#    /**   **********/**  //*   /** /*//// **/**      /**             
#    /**  /**//////**/**   /    /** /*    /**//**     **              
#    /**  /**     /**/**        /** /*******  //*******               
#    //   //      // //         //  ///////    ///////                
#                                                                     
# Version 5.2.0 Revision 23236 Hash (prev commit) fef8b788e7          
#                Branch is phys-dichroism                             
#         MPI+OpenMP+SLK+SLEPC+HDF5_MPI_IO Build                      
#                http://www.yambo-code.org                            
#
# Polarizability  ( -<<X>> ) @ Q(1):   1.00000000      0.00000000      0.00000000    [q->0 direction]
#
# Polarizability units: volume
#
# [GEN] GF Energies                               : Perdew, Burke & Ernzerhof(X)+Perdew, Burke & Ernzerhof(C)
# [GEN] Green`s Function                          : Retarded
#
# [GEN] Gauge                                     : Length
# [GEN] [r,Vnl] included                          : yes
#
# DIP band range                                  :   2   7
# DIP band range limits                           :   7   2
# DIP e/h energy range                            :  -1.00000000     -1.00000000    [eV]
# RL vectors in the sum                           :  2637
# [r,Vnl] included                                : yes
# Bands ordered                                   : no
# Direct v evaluation                             : no
# Approach used                                   : R-space x
# Dipoles computed                                : R V P
# Wavefunctions                                   : Perdew, Burke & Ernzerhof(X)+Perdew, Burke & Ernzerhof(C)
#
#
# [K] Identifier                                  :   6548
# [K] Dimension                                   :   9
# [K] Bands                                       :   2   7
# [K] Exchange res                                : yes
# [K] Correlation res                             : no
# [K] Kernel`s coupling                           : no
# [K] Exchange cpl                                : no
# [K] Correlation cpl                             : no
# [K] W interaction is bare                       : no
# [K] ALDA kernel in R-space                      : yes
# [K] RL vectors exchange                         :   4015
# [K] E/h energy range                            :  -1.00000000     -1.00000000    [eV]
# [K] Coupling range                              :   100.000000      100.000000    [o/o]
# [X] Response Kind                               : BAR
#
#
#    E[1] [eV]          Im(alpha)          Re(alpha)          Im(alpha_o)        Re(alpha_o)
#
       -20.00000          -0.075933          -4.728038          -0.037886          -2.952074
       -19.98000          -0.076352          -4.743261          -0.038044          -2.959665
       -19.96000          -0.076775          -4.758568          -0.038202          -2.967288
       -19.94000          -0.077200          -4.773960          -0.038362          -2.974942
       -19.92000          -0.077629          -4.789436          -0.038523          -2.982629
       -19.90000          -0.078062          -4.804999          -0.038684          -2.990348
       -19.88000          -0.078498          -4.820649          -0.038846          -2.998100
       -19.86000          -0.078938          -4.836387          -0.039010          -3.005884
       -19.84000          -0.079382          -4.852212          -0.039174          -3.013700
       -19.82000          -0.079829          -4.868128          -0.039340          -3.021550
       -19.80000          -0.080280          -4.884132          -0.039506          -3.029433
       -19.78000          -0.080735          -4.900227          -0.039674          -3.037349
       -19.76000          -0.081193          -4.916413          -0.039842          -3.045299
       -19.74000          -0.081655          -4.932692          -0.040011          -3.053282
       -19.72000          -0.082122          -4.949063          -0.040182          -3.061300
       -19.70000          -0.082592          -4.965528          -0.040353          -3.069352
       -19.68000          -0.083066          -4.982087          -0.040526          -3.077438
       -19.66000          -0.083544          -4.998740          -0.040699          -3.085559
       -19.64000          -0.084026          -5.015492          -0.040874          -3.093715
       -19.62000          -0.084512          -5.032339          -0.041050          -3.101906
       -19.60000          -0.085003          -5.049284          -0.041227          -3.110132
       -19.58000          -0.085498          -5.066326          -0.041405          -3.118393
       -19.56000          -0.085997          -5.083468          -0.041584          -3.126690
       -19.54000          -0.086500          -5.100711          -0.041764          -3.135023
       -19.52000          -0.087007          -5.118054          -0.041945          -3.143392
       -19.50000          -0.087519          -5.135499          -0.042127          -3.151797
       -19.48000          -0.088036          -5.153047          -0.042311          -3.160239
       -19.46000          -0.088557          -5.170698          -0.042495          -3.168717
       -19.44000          -0.089083          -5.188455          -0.042681          -3.177233
       -19.42000          -0.089613          -5.206317          -0.042868          -3.185786
       -19.40000          -0.090148          -5.224285          -0.043056          -3.194376
       -19.38000          -0.090687          -5.242360          -0.043245          -3.203004
       -19.36000          -0.091232          -5.260543          -0.043436          -3.211670
       -19.34000          -0.091781          -5.278837          -0.043627          -3.220375
       -19.32000          -0.092335          -5.297240          -0.043820          -3.229117
       -19.30000          -0.092894          -5.315755          -0.044014          -3.237898
       -19.28000          -0.093458          -5.334381          -0.044209          -3.246719
       -19.26000          -0.094027          -5.353121          -0.044406          -3.255578
       -19.24000          -0.094602          -5.371975          -0.044604          -3.264477
       -19.22000          -0.095181          -5.390944          -0.044803          -3.273415
       -19.20000          -0.095766          -5.410030          -0.045003          -3.282394
       -19.18000          -0.096356          -5.429234          -0.045205          -3.291413
       -19.16000          -0.096952          -5.448555          -0.045407          -3.300471
       -19.14000          -0.097553          -5.467996          -0.045612          -3.309571
       -19.12000          -0.098159          -5.487558          -0.045817          -3.318712
       -19.10000          -0.098771          -5.507242          -0.046024          -3.327893
       -19.08000          -0.099389          -5.527047          -0.046232          -3.337117
       -19.06000          -0.100013          -5.546978          -0.046442          -3.346382
       -19.04000          -0.100642          -5.567034          -0.046652          -3.355690
       -19.02000          -0.101277          -5.587216          -0.046865          -3.365039
       -19.00000          -0.101918          -5.607525          -0.047078          -3.374430
       -18.98000          -0.102566          -5.627962          -0.047293          -3.383865
       -18.96000          -0.103219          -5.648531          -0.047510          -3.393343
       -18.94000          -0.103879          -5.669230          -0.047728          -3.402864
       -18.92000          -0.104545          -5.690062          -0.047947          -3.412429
       -18.90000          -0.105217          -5.711030          -0.048168          -3.422039
       -18.88000          -0.105895          -5.732128          -0.048390          -3.431692
       -18.86000          -0.106581          -5.753366          -0.048613          -3.441390
       -18.84000          -0.107272          -5.774740          -0.048839          -3.451133
       -18.82000          -0.107971          -5.796253          -0.049065          -3.460921
       -18.80000          -0.108676          -5.817906          -0.049293          -3.470754
       -18.78000          -0.109388          -5.839700          -0.049523          -3.480633
       -18.76000          -0.110107          -5.861639          -0.049754          -3.490558
       -18.74000          -0.110833          -5.883720          -0.049987          -3.500530
       -18.72000          -0.111566          -5.905948          -0.050221          -3.510547
       -18.70000          -0.112307          -5.928323          -0.050457          -3.520613
       -18.68000          -0.113055          -5.950847          -0.050694          -3.530725
       -18.66000          -0.113810          -5.973521          -0.050934          -3.540885
       -18.64000          -0.114573          -5.996346          -0.051174          -3.551093
       -18.62000          -0.115343          -6.019325          -0.051417          -3.561350
       -18.60000          -0.116121          -6.042458          -0.051660          -3.571655
       -18.58000          -0.116907          -6.065748          -0.051906          -3.582009
       -18.56000          -0.117701          -6.089194          -0.052153          -3.592411
       -18.54000          -0.118503          -6.112802          -0.052402          -3.602865
       -18.52000          -0.119313          -6.136570          -0.052653          -3.613367
       -18.50000          -0.120132          -6.160500          -0.052906          -3.623920
       -18.48000          -0.120958          -6.184595          -0.053160          -3.634523
       -18.46000          -0.121794          -6.208856          -0.053416          -3.645178
       -18.44000          -0.122638          -6.233284          -0.053673          -3.655884
       -18.42000          -0.123490          -6.257881          -0.053933          -3.666642
       -18.40000          -0.124352          -6.282651          -0.054194          -3.677451
       -18.38000          -0.125223          -6.307593          -0.054457          -3.688313
       -18.36000          -0.126102          -6.332710          -0.054722          -3.699228
       -18.34000          -0.126991          -6.358003          -0.054989          -3.710196
       -18.32000          -0.127890          -6.383475          -0.055258          -3.721217
       -18.30000          -0.128797          -6.409128          -0.055528          -3.732292
       -18.28000          -0.129715          -6.434963          -0.055801          -3.743423
       -18.26000          -0.130642          -6.460982          -0.056075          -3.754607
       -18.24000          -0.131579          -6.487188          -0.056351          -3.765846
       -18.22000          -0.132527          -6.513581          -0.056630          -3.777140
       -18.20000          -0.133484          -6.540166          -0.056910          -3.788492
       -18.18000          -0.134452          -6.566939          -0.057192          -3.799898
       -18.16000          -0.135431          -6.593912          -0.057477          -3.811363
       -18.14000          -0.136420          -6.621078          -0.057763          -3.822882
       -18.12000          -0.137420          -6.648445          -0.058051          -3.834460
       -18.10000          -0.138431          -6.676012          -0.058342          -3.846096
       -18.08000          -0.139453          -6.703781          -0.058635          -3.857791
       -18.06000          -0.140486          -6.731756          -0.058929          -3.869544
       -18.04000          -0.141531          -6.759937          -0.059226          -3.881355
       -18.02000          -0.142588          -6.788331          -0.059525          -3.893227
       -18.00000          -0.143656          -6.816934          -0.059826          -3.905158
       -17.98000          -0.144737          -6.845753          -0.060130          -3.917150
       -17.96000          -0.145830          -6.874788          -0.060435          -3.929203
       -17.94000          -0.146935          -6.904045          -0.060743          -3.941317
       -17.92000          -0.148053          -6.933522          -0.061053          -3.953492
       -17.90000          -0.149183          -6.963223          -0.061365          -3.965730
       -17.88000          -0.150327          -6.993152          -0.061680          -3.978031
       -17.86000          -0.151484          -7.023311          -0.061997          -3.990395
       -17.84000          -0.152654          -7.053701          -0.062317          -4.002822
       -17.82000          -0.153838          -7.084328          -0.062638          -4.015314
       -17.80000          -0.155035          -7.115190          -0.062962          -4.027870
       -17.78000          -0.156247          -7.146296          -0.063289          -4.040490
       -17.76000          -0.157473          -7.177643          -0.063618          -4.053177
       -17.74000          -0.158713          -7.209237          -0.063950          -4.065929
       -17.72000          -0.159968          -7.241079          -0.064284          -4.078749
       -17.70000          -0.161239          -7.273176          -0.064620          -4.091635
       -17.68000          -0.162524          -7.305525          -0.064959          -4.104588
       -17.66000          -0.163825          -7.338134          -0.065301          -4.117610
       -17.64000          -0.165141          -7.371004          -0.065645          -4.130701
       -17.62000          -0.166474          -7.404138          -0.065992          -4.143860
       -17.60000          -0.167822          -7.437540          -0.066342          -4.157089
       -17.58000          -0.169188          -7.471212          -0.066694          -4.170387
       -17.56000          -0.170570          -7.505161          -0.067049          -4.183757
       -17.54000          -0.171969          -7.539385          -0.067406          -4.197198
       -17.52000          -0.173385          -7.573891          -0.067767          -4.210711
       -17.50000          -0.174819          -7.608681          -0.068130          -4.224296
       -17.48000          -0.176271          -7.643759          -0.068496          -4.237954
       -17.46000          -0.177741          -7.679133          -0.068865          -4.251686
       -17.44000          -0.179230          -7.714796          -0.069237          -4.265490
       -17.42000          -0.180738          -7.750762          -0.069612          -4.279371
       -17.40000          -0.182264          -7.787028          -0.069989          -4.293324
       -17.38000          -0.183811          -7.823605          -0.070370          -4.307357
       -17.36000          -0.185377          -7.860489          -0.070753          -4.321464
       -17.34000          -0.186963          -7.897689          -0.071140          -4.335648
       -17.32000          -0.188570          -7.935208          -0.071530          -4.349910
       -17.30000          -0.190198          -7.973050          -0.071923          -4.364250
       -17.28000          -0.191848          -8.011216          -0.072319          -4.378669
       -17.26000          -0.193519          -8.049716          -0.072718          -4.393167
       -17.24000          -0.195212          -8.088552          -0.073120          -4.407745
       -17.22000          -0.196927          -8.127728          -0.073526          -4.422404
       -17.20000          -0.198665          -8.167249          -0.073935          -4.437145
       -17.18000          -0.200427          -8.207118          -0.074347          -4.451967
       -17.16000          -0.202212          -8.247341          -0.074762          -4.466873
       -17.14000          -0.204022          -8.287923          -0.075181          -4.481861
       -17.12000          -0.205856          -8.328869          -0.075603          -4.496933
       -17.10000          -0.207715          -8.370184          -0.076029          -4.512092
       -17.08000          -0.209599          -8.411873          -0.076458          -4.527334
       -17.06000          -0.211510          -8.453939          -0.076891          -4.542663
       -17.04000          -0.213447          -8.496389          -0.077327          -4.558079
       -17.02000          -0.215411          -8.539228          -0.077767          -4.573582
       -17.00000          -0.217403          -8.582463          -0.078211          -4.589173
       -16.98000          -0.219422          -8.626099          -0.078658          -4.604855
       -16.96000          -0.221471          -8.670138          -0.079109          -4.620625
       -16.94000          -0.223548          -8.714591          -0.079564          -4.636485
       -16.92000          -0.225655          -8.759461          -0.080022          -4.652438
       -16.90000          -0.227792          -8.804754          -0.080485          -4.668482
       -16.88000          -0.229960          -8.850476          -0.080951          -4.684618
       -16.86000          -0.232159          -8.896635          -0.081422          -4.700849
       -16.84000          -0.234391          -8.943235          -0.081896          -4.717175
       -16.82000          -0.236655          -8.990284          -0.082374          -4.733594
       -16.80000          -0.238953          -9.037787          -0.082856          -4.750110
       -16.78000          -0.241284          -9.085753          -0.083343          -4.766723
       -16.76000          -0.243651          -9.134188          -0.083834          -4.783434
       -16.74000          -0.246052          -9.183098          -0.084329          -4.800243
       -16.72000          -0.248490          -9.232494          -0.084828          -4.817153
       -16.70000          -0.250965          -9.282372          -0.085331          -4.834160
       -16.68000          -0.253478          -9.332757          -0.085839          -4.851271
       -16.66000          -0.256029          -9.383643          -0.086351          -4.868482
       -16.64000          -0.258619          -9.435040          -0.086868          -4.885796
       -16.62000          -0.261249          -9.486958          -0.087389          -4.903215
       -16.60000          -0.263920          -9.539406          -0.087915          -4.920738
       -16.58000          -0.266633          -9.592389          -0.088446          -4.938365
       -16.56000          -0.269388          -9.645919          -0.088981          -4.956100
       -16.54000          -0.272187          -9.700003          -0.089521          -4.973943
       -16.52000          -0.275031          -9.754647          -0.090065          -4.991892
       -16.50000          -0.277920          -9.809866          -0.090615          -5.009953
       -16.48000          -0.280856          -9.865663          -0.091169          -5.028123
       -16.46000          -0.283839          -9.922052          -0.091729          -5.046404
       -16.44000          -0.286871          -9.979040          -0.092293          -5.064797
       -16.42000          -0.289952          -10.03664          -0.092863          -5.083304
       -16.40000          -0.293084          -10.09485          -0.093438          -5.101925
       -16.38000          -0.296268          -10.15370          -0.094018          -5.120662
       -16.36000          -0.299505          -10.21319          -0.094603          -5.139515
       -16.34000          -0.302797          -10.27332          -0.095193          -5.158486
       -16.32000          -0.306143          -10.33413          -0.095789          -5.177575
       -16.30000          -0.309547          -10.39560          -0.096391          -5.196783
       -16.28000          -0.313009          -10.45775          -0.096998          -5.216112
       -16.26000          -0.316530          -10.52061          -0.097611          -5.235565
       -16.24000          -0.320113          -10.58417          -0.098229          -5.255138
       -16.22000          -0.323757          -10.64845          -0.098853          -5.274837
       -16.20000          -0.327465          -10.71346          -0.099483          -5.294661
       -16.18000          -0.331239          -10.77922          -0.100119          -5.314611
       -16.16000          -0.335080          -10.84574          -0.100761          -5.334689
       -16.14000          -0.338989          -10.91303          -0.101409          -5.354895
       -16.12000          -0.342968          -10.98110          -0.102063          -5.375231
       -16.10000          -0.347019          -11.04998          -0.102723          -5.395700
       -16.08000          -0.351145          -11.11967          -0.103389          -5.416300
       -16.06000          -0.355345          -11.19019          -0.104062          -5.437036
       -16.04000          -0.359623          -11.26155          -0.104742          -5.457904
       -16.02000          -0.363981          -11.33378          -0.105427          -5.478911
       -16.00000          -0.368419          -11.40688          -0.106120          -5.500053
       -15.98000          -0.372942          -11.48088          -0.106819          -5.521337
       -15.96000          -0.377550          -11.55577          -0.107525          -5.542758
       -15.94000          -0.382246          -11.63161          -0.108238          -5.564326
       -15.92000          -0.387032          -11.70838          -0.108958          -5.586031
       -15.90000          -0.391911          -11.78612          -0.109685          -5.607885
       -15.88000          -0.396884          -11.86484          -0.110419          -5.629883
       -15.86000          -0.401956          -11.94455          -0.111160          -5.652029
       -15.84000          -0.407127          -12.02529          -0.111909          -5.674324
       -15.82000          -0.412401          -12.10707          -0.112665          -5.696769
       -15.80000          -0.417781          -12.18991          -0.113429          -5.719365
       -15.78000          -0.423270          -12.27382          -0.114201          -5.742114
       -15.76000          -0.428870          -12.35885          -0.114980          -5.765019
       -15.74000          -0.434584          -12.44500          -0.115767          -5.788081
       -15.72000          -0.440417          -12.53230          -0.116562          -5.811301
       -15.70000          -0.446371          -12.62077          -0.117365          -5.834679
       -15.68000          -0.452450          -12.71043          -0.118176          -5.858220
       -15.66000          -0.458657          -12.80133          -0.118996          -5.881922
       -15.64000          -0.464995          -12.89347          -0.119824          -5.905789
       -15.62000          -0.471470          -12.98688          -0.120661          -5.929824
       -15.60000          -0.478085          -13.08159          -0.121506          -5.954026
       -15.58000          -0.484843          -13.17764          -0.122360          -5.978397
       -15.56000          -0.491750          -13.27505          -0.123223          -6.002941
       -15.54000          -0.498810          -13.37384          -0.124095          -6.027657
       -15.52000          -0.506027          -13.47406          -0.124976          -6.052548
       -15.50000          -0.513406          -13.57572          -0.125867          -6.077616
       -15.48000          -0.520953          -13.67887          -0.126767          -6.102864
       -15.46000          -0.528672          -13.78354          -0.127676          -6.128292
       -15.44000          -0.536568          -13.88976          -0.128595          -6.153903
       -15.42000          -0.544648          -13.99756          -0.129525          -6.179698
       -15.40000          -0.552918          -14.10699          -0.130464          -6.205680
       -15.38000          -0.561382          -14.21809          -0.131413          -6.231850
       -15.36000          -0.570049          -14.33089          -0.132372          -6.258212
       -15.34000          -0.578924          -14.44543          -0.133342          -6.284765
       -15.32000          -0.588014          -14.56176          -0.134323          -6.311516
       -15.30000          -0.597326          -14.67990          -0.135314          -6.338459
       -15.28000          -0.606869          -14.79994          -0.136316          -6.365605
       -15.26000          -0.616648          -14.92187          -0.137330          -6.392949
       -15.24000          -0.626674          -15.04579          -0.138354          -6.420500
       -15.22000          -0.636952          -15.17171          -0.139390          -6.448254
       -15.20000          -0.647496          -15.29971          -0.140438          -6.476219
       -15.18000          -0.658310          -15.42981          -0.141497          -6.504390
       -15.16000          -0.669408          -15.56211          -0.142568          -6.532778
       -15.14000          -0.680797          -15.69663          -0.143652          -6.561379
       -15.12000          -0.692488          -15.83344          -0.144748          -6.590198
       -15.10000          -0.704493          -15.97260          -0.145856          -6.619237
       -15.08000          -0.716823          -16.11417          -0.146977          -6.648499
       -15.06000          -0.729491          -16.25822          -0.148111          -6.677986
       -15.04000          -0.742508          -16.40482          -0.149258          -6.707701
       -15.02000          -0.755889          -16.55403          -0.150418          -6.737646
       -15.00000          -0.769647          -16.70593          -0.151592          -6.767823
       -14.98000          -0.783797          -16.86061          -0.152780          -6.798237
       -14.96000          -0.798354          -17.01812          -0.153981          -6.828890
       -14.94000          -0.813334          -17.17856          -0.155197          -6.859783
       -14.92000          -0.828754          -17.34201          -0.156427          -6.890921
       -14.90000          -0.844633          -17.50856          -0.157672          -6.922306
       -14.88000          -0.860987          -17.67830          -0.158932          -6.953942
       -14.86000          -0.877838          -17.85133          -0.160207          -6.985828
       -14.84000          -0.895206          -18.02774          -0.161497          -7.017972
       -14.82000          -0.913112          -18.20764          -0.162803          -7.050376
       -14.80000          -0.931580          -18.39114          -0.164125          -7.083043
       -14.78000          -0.950634          -18.57835          -0.165463          -7.115974
       -14.76000          -0.970300          -18.76939          -0.166818          -7.149173
       -14.74000          -0.990604          -18.96438          -0.168189          -7.182645
       -14.72000          -1.011574          -19.16344          -0.169578          -7.216394
       -14.70000          -1.033242          -19.36672          -0.170984          -7.250420
       -14.68000          -1.055638          -19.57435          -0.172407          -7.284729
       -14.66000          -1.078797          -19.78647          -0.173848          -7.319324
       -14.64000          -1.102754          -20.00324          -0.175308          -7.354209
       -14.62000          -1.127547          -20.22482          -0.176786          -7.389386
       -14.60000          -1.153216          -20.45139          -0.178283          -7.424862
       -14.58000          -1.179805          -20.68311          -0.179799          -7.460639
       -14.56000          -1.207354          -20.92014          -0.181335          -7.496716
       -14.54000          -1.235919          -21.16273          -0.182890          -7.533108
       -14.52000          -1.265542          -21.41102          -0.184466          -7.569806
       -14.50000          -1.296287          -21.66528          -0.186063          -7.606828
       -14.48000          -1.328202          -21.92567          -0.187680          -7.644162
       -14.46000          -1.361359          -22.19250          -0.189319          -7.681828
       -14.44000          -1.395813          -22.46593          -0.190980          -7.719818
       -14.42000          -1.431646          -22.74631          -0.192663          -7.758149
       -14.40000          -1.468924          -23.03385          -0.194369          -7.796813
       -14.38000          -1.507730          -23.32885          -0.196097          -7.835820
       -14.36000          -1.548151          -23.63163          -0.197849          -7.875174
       -14.34000          -1.590279          -23.94249          -0.199625          -7.914881
       -14.32000          -1.634212          -24.26179          -0.201425          -7.954945
       -14.30000          -1.680058          -24.58988          -0.203251          -7.995371
       -14.28000          -1.727931          -24.92714          -0.205101          -8.036161
       -14.26000          -1.777953          -25.27397          -0.206977          -8.077327
       -14.24000          -1.830257          -25.63080          -0.208880          -8.118867
       -14.22000          -1.884987          -25.99809          -0.210809          -8.160790
       -14.20000          -1.942296          -26.37629          -0.212766          -8.203101
       -14.18000          -2.002352          -26.76595          -0.214750          -8.245805
       -14.16000          -2.065336          -27.16758          -0.216763          -8.288908
       -14.14000          -2.131444          -27.58177          -0.218805          -8.332416
       -14.12000          -2.200888          -28.00914          -0.220877          -8.376334
       -14.10000          -2.273901          -28.45035          -0.222979          -8.420668
       -14.08000          -2.350732          -28.90609          -0.225112          -8.465424
       -14.06000          -2.431658          -29.37712          -0.227276          -8.510609
       -14.04000          -2.516978          -29.86423          -0.229472          -8.556230
       -14.02000          -2.607018          -30.36829          -0.231701          -8.602289
       -14.00000          -2.702139          -30.89023          -0.233964          -8.648800
       -13.98000          -2.802734          -31.43103          -0.236261          -8.695765
       -13.96000          -2.909235          -31.99176          -0.238592          -8.743189
       -13.94000          -3.022118          -32.57357          -0.240960          -8.791083
       -13.92000          -3.141909          -33.17770          -0.243363          -8.839454
       -13.90000          -3.269188          -33.80550          -0.245805          -8.888307
       -13.88000          -3.404598          -34.45839          -0.248284          -8.937651
       -13.86000          -3.548852          -35.13795          -0.250802          -8.987494
       -13.84000          -3.702756          -35.84594          -0.253360          -9.037846
       -13.82000          -3.867157          -36.58404          -0.255958          -9.088703
       -13.80000          -4.043092          -37.35448          -0.258598          -9.140093
       -13.78000          -4.231615          -38.15923          -0.261281          -9.192003
       -13.76000          -4.434026          -39.00090          -0.264007          -9.244462
       -13.74000          -4.651659          -39.88187          -0.266778          -9.297461
       -13.72000          -4.886161          -40.80527          -0.269594          -9.351024
       -13.70000          -5.139249          -41.77398          -0.272457          -9.405146
       -13.68000          -5.413032          -42.79174          -0.275368          -9.459850
       -13.66000          -5.709761          -43.86215          -0.278328          -9.515138
       -13.64000          -6.032103          -44.98950          -0.281337          -9.571018
       -13.62000          -6.383094          -46.17848          -0.284398          -9.627503
       -13.60000          -6.766229          -47.43424          -0.287512          -9.684604
       -13.58000          -7.185552          -48.76257          -0.290679          -9.742332
       -13.56000          -7.645758          -50.16988          -0.293902          -9.800696
       -13.54000          -8.152315          -51.66335          -0.297181          -9.859708
       -13.52000          -8.711637          -53.25100          -0.300518          -9.919376
       -13.50000          -9.331269          -54.94186          -0.303915          -9.979720
       -13.48000          -10.02014          -56.74604          -0.307373          -10.04074
       -13.46000          -10.78886          -58.67498          -0.310893          -10.10246
       -13.44000          -11.65015          -60.74156          -0.314478          -10.16489
       -13.42000          -12.61928          -62.96034          -0.318129          -10.22804
       -13.40000          -13.71480          -65.34784          -0.321847          -10.29192
       -13.38000          -14.95928          -67.92272          -0.325636          -10.35655
       -13.36000          -16.38047          -70.70609          -0.329495          -10.42194
       -13.34000          -18.01272          -73.72181          -0.333429          -10.48811
       -13.32000          -19.89888          -76.99668          -0.337437          -10.55506
       -13.30000          -22.09285          -80.56052          -0.341524          -10.62283
       -13.28000          -24.66302          -84.44618          -0.345690          -10.69141
       -13.26000          -27.69695          -88.68880          -0.349939          -10.76083
       -13.24000          -31.30776          -93.32448          -0.354272          -10.83111
       -13.22000          -35.64283          -98.38717          -0.358693          -10.90226
       -13.20000          -40.89580          -103.9028          -0.363203          -10.97429
       -13.18000          -47.32289          -109.8785          -0.367806          -11.04724
       -13.16000          -55.26312          -116.2811          -0.372504          -11.12111
       -13.14000          -65.16602          -123.0016          -0.377300          -11.19592
       -13.12000          -77.61836          -129.7883          -0.382197          -11.27169
       -13.10000          -93.36052          -136.1315          -0.387199          -11.34845
       -13.08000          -113.2543          -141.0725          -0.392308          -11.42622
       -13.06000          -138.1138          -142.9163          -0.397529          -11.50501
       -13.04000          -168.2234          -138.9049          -0.402864          -11.58485
       -13.02000          -202.3115          -125.1543          -0.408318          -11.66577
       -13.00000          -236.0502          -97.64447          -0.413895          -11.74778
       -12.98000          -261.3986          -55.15863          -0.419599          -11.83091
       -12.96000          -269.4874          -2.931633          -0.425434          -11.91519
       -12.94000          -256.9424           47.92931          -0.431405          -12.00064
       -12.92000          -228.8966           87.21247          -0.437516          -12.08729
       -12.90000          -194.5279           111.3307          -0.443773          -12.17517
       -12.88000          -161.1236           122.4840          -0.450181          -12.26430
       -12.86000          -132.1955           124.8423          -0.456746          -12.35473
       -12.84000          -108.5440           122.0671          -0.463473          -12.44647
       -12.82000          -89.69695           116.6529          -0.470369          -12.53957
       -12.80000          -74.80233           110.0993          -0.477439          -12.63405
       -12.78000          -63.01796           103.2418          -0.484692          -12.72995
       -12.76000          -53.63810           96.51821          -0.492134          -12.82730
       -12.74000          -46.10927           90.13990          -0.499773          -12.92615
       -12.72000          -40.00954           84.19421          -0.507616          -13.02654
       -12.70000          -35.02050           78.70222          -0.515674          -13.12850
       -12.68000          -30.90206           73.65125          -0.523953          -13.23207
       -12.66000          -27.47240           69.01254          -0.532466          -13.33732
       -12.64000          -24.59293           64.75101          -0.541220          -13.44427
       -12.62000          -22.15715           60.83029          -0.550228          -13.55297
       -12.60000          -20.08247           57.21535          -0.559501          -13.66349
       -12.58000          -18.30433           53.87367          -0.569051          -13.77586
       -12.56000          -16.77180           50.77570          -0.578891          -13.89015
       -12.54000          -15.44440           47.89490          -0.589036          -14.00642
       -12.52000          -14.28969           45.20760          -0.599500          -14.12472
       -12.50000          -13.28146           42.69262          -0.610300          -14.24512
       -12.48000          -12.39855           40.33145          -0.621452          -14.36768
       -12.46000          -11.62357           38.10731          -0.632975          -14.49248
       -12.44000          -10.94230           36.00531          -0.644888          -14.61959
       -12.42000          -10.34304           34.01214          -0.657214          -14.74908
       -12.40000          -9.816176           32.11585          -0.669974          -14.88104
       -12.38000          -9.353758           30.30560          -0.683194          -15.01556
       -12.36000          -8.949283           28.57154          -0.696901          -15.15272
       -12.34000          -8.597451           26.90467          -0.711123          -15.29262
       -12.32000          -8.294009           25.29666          -0.725892          -15.43536
       -12.30000          -8.035638           23.73977          -0.741241          -15.58106
       -12.28000          -7.819854           22.22671          -0.757209          -15.72982
       -12.26000          -7.644979           20.75057          -0.773836          -15.88176
       -12.24000          -7.510108           19.30469          -0.791165          -16.03703
       -12.22000          -7.415128           17.88261          -0.809246          -16.19575
       -12.20000          -7.360775           16.47793          -0.828132          -16.35807
       -12.18000          -7.348723           15.08434          -0.847881          -16.52415
       -12.16000          -7.381734           13.69544          -0.868557          -16.69415
       -12.14000          -7.463871           12.30478          -0.890232          -16.86826
       -12.12000          -7.600811           10.90574          -0.912986          -17.04667
       -12.10000          -7.800244           9.491846          -0.936904          -17.22959
       -12.08000          -8.072483           8.056527          -0.962085          -17.41724
       -12.06000          -8.431239           6.593757          -0.988638          -17.60986
       -12.04000          -8.894663           5.098626          -1.016684          -17.80772
       -12.02000          -9.486667           3.568743          -1.046361          -18.01110
       -12.00000          -10.23839           2.006615          -1.077823          -18.22031
       -11.98000          -11.18940           0.424010          -1.111244          -18.43568
       -11.96000          -12.38721          -1.150899          -1.146822          -18.65759
       -11.94000          -13.88190          -2.662755          -1.184783          -18.88642
       -11.92000          -15.70956          -4.017189          -1.225384          -19.12263
       -11.90000          -17.85685          -5.079428          -1.268920          -19.36670
       -11.88000          -20.21238          -5.712248          -1.315731          -19.61916
       -11.86000          -22.55783          -5.879562          -1.366212          -19.88059
       -11.84000          -24.69093          -5.755252          -1.420821          -20.15166
       -11.82000          -26.64852          -5.657195          -1.480093          -20.43307
       -11.80000          -28.77616          -5.770624          -1.544655          -20.72565
       -11.78000          -31.52837          -5.928789          -1.615252          -21.03030
       -11.76000          -35.20389          -5.610399          -1.692765          -21.34802
       -11.74000          -39.73988          -4.051499          -1.778243          -21.67993
       -11.72000          -44.51212          -0.457436          -1.872953          -22.02731
       -11.70000          -48.24020           5.533387          -1.978427          -22.39158
       -11.68000          -49.40909           13.24032          -2.096533          -22.77436
       -11.66000          -47.29445           20.93156          -2.229562          -23.17745
       -11.64000          -42.58053           26.86871          -2.380352          -23.60287
       -11.62000          -36.73618           30.34078          -2.552446          -24.05290
       -11.60000          -31.00342           31.63742          -2.750300          -24.53004
       -11.58000          -26.01034           31.43294          -2.979574          -25.03704
       -11.56000          -21.91542           30.34435          -3.247524          -25.57681
       -11.54000          -18.64923           28.79907          -3.563529          -26.15229
       -11.52000          -16.07017           27.05573          -3.939830          -26.76620
       -11.50000          -14.03520           25.25844          -4.392518          -27.42047
       -11.48000          -12.42337           23.48219          -4.942880          -28.11525
       -11.46000          -11.13951           21.76251          -5.619136          -28.84709
       -11.44000          -10.11097           20.11322          -6.458541          -29.60566
       -11.42000          -9.282982           18.53656          -7.509449          -30.36782
       -11.40000          -8.614298           17.02876          -8.832064          -31.08752
       -11.38000          -8.073915           15.58335          -10.49396          -31.67910
       -11.36000          -7.638297           14.19252          -12.55292          -31.99369
       -11.34000          -7.289577           12.84820          -15.01060          -31.79553
       -11.32000          -7.014152           11.54245          -17.72144          -30.76989
       -11.30000          -6.801651           10.26763          -20.27784          -28.63274
       -11.28000          -6.644208           9.016480          -22.00727          -25.39239
       -11.26000          -6.535931           7.782103          -22.28213          -21.59211
       -11.24000          -6.472502           6.557896          -21.00635          -18.13285
       -11.22000          -6.450920           5.337496          -18.70280          -15.70049
       -11.20000          -6.469282           4.114689          -16.07850          -14.43914
       -11.18000          -6.526671           2.883322          -13.62566          -14.11495
       -11.16000          -6.623070           1.637220          -11.55306          -14.40460
       -11.14000          -6.759328           0.370095          -9.889521          -15.04714
       -11.12000          -6.937173          -0.924554          -8.587323          -15.87180
       -11.10000          -7.159250          -2.253534          -7.579694          -16.77857
       -11.08000          -7.429221          -3.624068          -6.804486          -17.71308
       -11.06000          -7.751892          -5.043894          -6.211035          -18.64787
       -11.04000          -8.133416          -6.521397          -5.760381          -19.57076
       -11.02000          -8.581566          -8.065771          -5.423429          -20.47797
       -11.00000          -9.106023          -9.686917          -5.178908          -21.37013
       -10.98000          -9.718946          -11.39593          -5.011522          -22.25032
       -10.96000          -10.43551          -13.20490          -4.910662          -23.12278
       -10.94000          -11.27473          -15.12708          -4.869465          -23.99228
       -10.92000          -12.26047          -17.17675          -4.884212          -24.86382
       -10.90000          -13.42268          -19.36899          -4.954019          -25.74237
       -10.88000          -14.79883          -21.71921          -5.080786          -26.63273
       -10.86000          -16.43538          -24.24243          -5.269387          -27.53926
       -10.84000          -18.38941          -26.95320          -5.528141          -28.46553
       -10.82000          -20.73159          -29.86662          -5.869550          -29.41357
       -10.80000          -23.55399          -33.00030          -6.311371          -30.38254
       -10.78000          -26.98598          -36.37096          -6.877895          -31.36631
       -10.76000          -31.21296          -39.97750          -7.601117          -32.34919
       -10.74000          -36.48865          -43.77124          -8.520656          -33.29853
       -10.72000          -43.14165          -47.61795          -9.679612          -34.15300
       -10.70000          -51.57941          -51.24024          -11.10999          -34.80648
       -10.68000          -62.27204          -54.11903          -12.79687          -35.09513
       -10.66000          -75.66557          -55.34072          -14.61314          -34.81307
       -10.64000          -91.92492          -53.41855          -16.25116          -33.80578
       -10.62000          -110.3878          -46.25089          -17.25973          -32.15332
       -10.60000          -128.7488          -31.63788          -17.29178          -30.28440
       -10.58000          -142.6747          -8.853614          -16.39005          -28.78106
       -10.56000          -147.3131           19.35241          -14.94827          -28.00997
       -10.54000          -140.7183           46.98184          -13.40360          -27.99388
       -10.52000          -125.5842           68.41772          -12.02920          -28.55914
       -10.50000          -106.8935           81.61203          -10.92839          -29.50594
       -10.48000          -88.65733           87.70857          -10.10672          -30.68310
       -10.46000          -72.83313           88.97001          -9.531565          -31.99580
       -10.44000          -59.88115           87.40176          -9.163334          -33.39121
       -10.42000          -49.55517           84.37574          -8.967607          -34.84314
       -10.40000          -41.39373           80.71830          -8.918479          -36.34123
       -10.38000          -34.93784           76.89063          -8.998507          -37.88428
       -10.36000          -29.80210           73.13451          -9.197761          -39.47635
       -10.34000          -25.68426           69.56687          -9.512956          -41.12464
       -10.32000          -22.35429           66.23617          -9.946952          -42.83825
       -10.30000          -19.63905           63.15416          -10.50875          -44.62750
       -10.28000          -17.40913           60.31444          -11.21393          -46.50307
       -10.26000          -15.56737           57.70162          -12.08588          -48.47570
       -10.24000          -14.04122           55.29748          -13.15755          -50.55484
       -10.22000          -12.77682           53.08409          -14.47413          -52.74671
       -10.20000          -11.73463           51.04614          -16.09665          -55.05070
       -10.18000          -10.88607           49.17296          -18.10651          -57.45291
       -10.16000          -10.21004           47.46103          -20.61013          -59.91436
       -10.14000          -9.687854           45.91669          -23.74128          -62.35097
       -10.12000          -9.294559           44.55726          -27.65410          -64.60049
       -10.10000          -8.986100           43.40528          -32.49104          -66.37511
       -10.08000          -8.690405           42.46754          -38.29609          -67.21368
       -10.06000          -8.323387           41.70397          -44.84357          -66.49355
       -10.04000          -7.837452           41.02246          -51.42662          -63.63194
       -10.02000          -7.255736           40.32683          -56.86324          -58.55729
       -10.00000          -6.645328           39.57056          -60.06614          -52.10430
       -9.980000          -6.065979           38.75949          -60.84728          -45.61827
       -9.960000          -5.547804           37.92176          -59.88520          -39.95678
       -9.939999          -5.097088           37.08434          -57.81292          -35.17328
       -9.919999          -4.708394           36.26552          -54.70908          -31.18917
       -9.899999          -4.372546           35.47533          -50.53932          -28.34983
       -9.879999          -4.080419           34.71832          -45.70620          -27.14764
       -9.859999          -3.824184           33.99573          -40.92149          -27.69599
       -9.839999          -3.597508           33.30703          -36.75846          -29.68652
       -9.819999          -3.395369           32.65083          -33.47048          -32.67334
       -9.799999          -3.213806           32.02531          -31.07509          -36.28504
       -9.780000          -3.049679           31.42852          -29.48584          -40.28036
       -9.759999          -2.900477           30.85855          -28.59577          -44.52684
       -9.740000          -2.764173           30.31359          -28.31396          -48.96508
       -9.719999          -2.639110           29.79191          -28.57693          -53.58047
       -9.700000          -2.523920           29.29192          -29.34992          -58.38525
       -9.679999          -2.417460           28.81217          -30.62556          -63.40783
       -9.660000          -2.318769           28.35134          -32.42276          -68.68689
       -9.639999          -2.227028           27.90818          -34.78738          -74.26792
       -9.620000          -2.141535           27.48158          -37.79481          -80.20090
       -9.599999          -2.061684           27.07053          -41.55522          -86.53787
       -9.580000          -1.986949           26.67405          -46.22200          -93.32954
       -9.559999          -1.916865           26.29130          -52.00433          -100.6194
       -9.539999          -1.851033           25.92147          -59.18379          -108.4311
       -9.520000          -1.789093           25.56385          -68.13947          -116.7492
       -9.499999          -1.730724           25.21773          -79.37746          -125.4804
       -9.480000          -1.675644           24.88249          -93.56592          -134.3853
       -9.459999          -1.623599           24.55754          -111.5626          -142.9581
       -9.440000          -1.574360           24.24236          -134.4028          -150.2229
       -9.419999          -1.527722           23.93642          -163.1625          -154.4145
       -9.400000          -1.483499           23.63927          -198.5171          -152.5659
       -9.379999          -1.441522           23.35046          -239.7092          -140.2456
       -9.360000          -1.401640           23.06958          -282.7938          -112.2117
       -9.339999          -1.363711           22.79626          -319.1411          -65.23595
       -9.320000          -1.327609           22.53013          -337.2415          -2.867036
       -9.299999          -1.293219           22.27086          -329.7618           62.79314
       -9.280000          -1.260432           22.01814          -299.8129           117.4995
       -9.259999          -1.229152           21.77166          -258.1491           153.7496
       -9.240000          -1.199289           21.53115          -215.2023           172.4011
       -9.219999          -1.170759           21.29634          -176.8768           178.3274
       -9.199999          -1.143486           21.06698          -145.0703           176.4935
       -9.179999          -1.117401           20.84285          -119.5594           170.5024
       -9.159999          -1.092437           20.62371          -99.35667           162.5934
       -9.139999          -1.068534           20.40937          -83.37638           154.0420
       -9.119999          -1.045636           20.19961          -70.67331           145.5304
       -9.099999          -1.023691           19.99425          -60.49408           137.3985
       -9.079999          -1.002651           19.79311          -52.26045           129.7964
       -9.059999          -0.982471           19.59602          -45.53510           122.7719
       -9.039999          -0.963109           19.40281          -39.98832           116.3200
       -9.020000          -0.944525           19.21333          -35.37082           110.4094
       -8.999999          -0.926685           19.02744          -31.49297           104.9982
       -8.980000          -0.909554           18.84499          -28.20932           100.0411
       -8.959999          -0.893101           18.66585          -25.40740           95.49352
       -8.940000          -0.877295           18.48988          -22.99939           91.31394
       -8.919999          -0.862109           18.31697          -20.91617           87.46449
       -8.900000          -0.847519           18.14699          -19.10282           83.91103
       -8.880000          -0.833499           17.97984          -17.51534           80.62323
       -8.860000          -0.820027           17.81539          -16.11820           77.57417
       -8.839999          -0.807083           17.65355          -14.88246           74.73995
       -8.819999          -0.794646           17.49422          -13.78453           72.09978
       -8.799999          -0.782699           17.33730          -12.80480           69.63494
       -8.779999          -0.771224           17.18269          -11.92706           67.32901
       -8.759999          -0.760206           17.03030          -11.13772           65.16740
       -8.739999          -0.749629           16.88005          -10.42540           63.13720
       -8.719999          -0.739480           16.73186          -9.780468           61.22688
       -8.699999          -0.729747           16.58563          -9.194734           59.42621
       -8.679999          -0.720416           16.44128          -8.661219           57.72601
       -8.659999          -0.711477           16.29874          -8.173936           56.11808
       -8.639999          -0.702921           16.15794          -7.727732           54.59507
       -8.620000          -0.694737           16.01880          -7.318145           53.15035
       -8.599999          -0.686917           15.88124          -6.941307           51.77795
       -8.580000          -0.679453           15.74520          -6.593843           50.47245
       -8.559999          -0.672340           15.61061          -6.272805           49.22900
       -8.540000          -0.665569           15.47739          -5.975603           48.04313
       -8.520000          -0.659135           15.34549          -5.699959           46.91084
       -8.500000          -0.653035           15.21483          -5.443861           45.82843
       -8.479999          -0.647263           15.08535          -5.205520           44.79253
       -8.459999          -0.641816           14.95699          -4.983367           43.80011
       -8.439999          -0.636691           14.82968          -4.775989           42.84837
       -8.419999          -0.631887           14.70336          -4.582126           41.93469
       -8.399999          -0.627402           14.57797          -4.400651           41.05670
       -8.379999          -0.623235           14.45344          -4.230556           40.21222
       -8.360000          -0.619387           14.32972          -4.070935           39.39925
       -8.339999          -0.615858           14.20674          -3.920968           38.61588
       -8.320000          -0.612650           14.08443          -3.779917           37.86042
       -8.299999          -0.609765           13.96274          -3.647116           37.13124
       -8.280000          -0.607208           13.84160          -3.521960           36.42688
       -8.259999          -0.604982           13.72095          -3.403900           35.74594
       -8.240000          -0.603093           13.60071          -3.292435           35.08715
       -8.219999          -0.601547           13.48084          -3.187114           34.44928
       -8.200000          -0.600352           13.36125          -3.087520           33.83123
       -8.179999          -0.599515           13.24188          -2.993276           33.23194
       -8.160000          -0.599048           13.12266          -2.904035           32.65044
       -8.139999          -0.598962           13.00351          -2.819481           32.08580
       -8.120000          -0.599269           12.88437          -2.739323           31.53716
       -8.099999          -0.599985           12.76515          -2.663291           31.00367
       -8.079999          -0.601127           12.64578          -2.591148           30.48463
       -8.059999          -0.602712           12.52616          -2.522664           29.97928
       -8.039999          -0.604763           12.40623          -2.457632           29.48694
       -8.020000          -0.607304           12.28588          -2.395862           29.00697
       -7.999999          -0.610360           12.16501          -2.337179           28.53876
       -7.979999          -0.613964           12.04354          -2.281421           28.08174
       -7.959999          -0.618149           11.92136          -2.228439           27.63533
       -7.939999          -0.622954           11.79835          -2.178095           27.19904
       -7.920000          -0.628425           11.67439          -2.130263           26.77237
       -7.900000          -0.634610           11.54936          -2.084826           26.35482
       -7.880000          -0.641569           11.42312          -2.041679           25.94597
       -7.860000          -0.649366           11.29553          -2.000721           25.54536
       -7.840000          -0.658079           11.16644          -1.961864           25.15258
       -7.820000          -0.667793           11.03567          -1.925025           24.76725
       -7.800000          -0.678612           10.90304          -1.890128           24.38896
       -7.780000          -0.690655           10.76836          -1.857104           24.01736
       -7.760000          -0.704061           10.63141          -1.825893           23.65208
       -7.739999          -0.718996           10.49194          -1.796437           23.29276
       -7.719999          -0.735656           10.34972          -1.768690           22.93910
       -7.699999          -0.754278           10.20444          -1.742606           22.59076
       -7.679999          -0.775147           10.05581          -1.718147           22.24740
       -7.659999          -0.798612           9.903469          -1.695283           21.90874
       -7.639999          -0.825102           9.747050          -1.673986           21.57445
       -7.619999          -0.855151           9.586144          -1.654236           21.24423
       -7.599999          -0.889427           9.420307          -1.636018           20.91780
       -7.579999          -0.928779           9.249072          -1.619324           20.59484
       -7.559999          -0.974295           9.071961          -1.604152           20.27508
       -7.539999          -1.027381           8.888517          -1.590506           19.95821
       -7.520000          -1.089873           8.698366          -1.578397           19.64395
       -7.500000          -1.164179           8.501346          -1.567845           19.33200
       -7.480000          -1.253472           8.297703          -1.558878           19.02204
       -7.460000          -1.361895           8.088501          -1.551530           18.71380
       -7.440000          -1.494754           7.876304          -1.545851           18.40695
       -7.420000          -1.658479           7.666356          -1.541899           18.10118
       -7.400000          -1.859910           7.468453          -1.539743           17.79616
       -7.379999          -2.103873           7.299418          -1.539471           17.49154
       -7.359999          -2.387286           7.184960          -1.541186           17.18699
       -7.339999          -2.688873           7.156497          -1.545013           16.88211
       -7.319999          -2.959230           7.235539          -1.551098           16.57654
       -7.299999          -3.128903           7.404986          -1.559618           16.26985
       -7.279999          -3.148925           7.594579          -1.570782           15.96161
       -7.259999          -3.032340           7.715286          -1.584842           15.65134
       -7.239999          -2.842906           7.715165          -1.602098           15.33854
       -7.219999          -2.646845           7.594407          -1.622913           15.02266
       -7.199999          -2.483869           7.380507          -1.647727           14.70311
       -7.179999          -2.368451           7.103044          -1.677075           14.37926
       -7.159999          -2.301250           6.783475          -1.711615           14.05040
       -7.139999          -2.277916           6.434599          -1.752160           13.71577
       -7.119999          -2.293525           6.062894          -1.799724           13.37454
       -7.099999          -2.344282           5.670799          -1.855582           13.02582
       -7.079999          -2.427993           5.258293          -1.921355           12.66865
       -7.059999          -2.544096           4.823827          -1.999118           12.30206
       -7.039999          -2.693605           4.364857          -2.091558           11.92509
       -7.020000          -2.879100           3.878123          -2.202182           11.53691
       -6.999999          -3.104817           3.359771          -2.335602           11.13697
       -6.979999          -3.376830           2.805514          -2.497885           10.72550
       -6.959999          -3.703464           2.210574          -2.697036           10.30398
       -6.939999          -4.095825           1.569868          -2.943440           9.876454
       -6.919999          -4.568604           0.878181          -3.250093           9.451515
       -6.899999          -5.141220           0.130574          -3.631918           9.045722
       -6.879999          -5.839389          -0.676834          -4.102523           8.688548
       -6.859999          -6.697273          -1.545417          -4.665303           8.427775
       -6.839999          -7.760325          -2.471342          -5.295065           8.329441
       -6.819999          -9.088826          -3.440702          -5.912713           8.458196
       -6.799999          -10.76168          -4.420771          -6.378319           8.824411
       -6.779999          -12.87884          -5.344786          -6.547898           9.325757
       -6.760000          -15.55751          -6.086464          -6.380650           9.769200
       -6.740000          -18.91076          -6.421539          -5.976415           9.990698
       -6.720000          -22.98509          -5.982708          -5.491169           9.941242
       -6.700000          -27.62527          -4.246387          -5.042170           9.662764
       -6.680000          -32.27030          -0.655049          -4.683845           9.223981
       -6.660000          -35.84639           4.997375          -4.428021           8.682455
       -6.639999          -37.12359           12.05660          -4.267592           8.075753
       -6.619999          -35.57141           19.03051          -4.190481           7.425066
       -6.599999          -31.82980           24.48360          -4.185616           6.740571
       -6.579999          -27.14789           27.86373          -4.244916           6.025768
       -6.559999          -22.55268           29.43798          -4.363593           5.280155
       -6.539999          -18.55462           29.77308          -4.539973           4.500781
       -6.519999          -15.27970           29.37870          -4.775277           3.683104
       -6.500000          -12.66999           28.60571          -5.073548           2.821456
       -6.480000          -10.61026           27.66615          -5.441777           1.909267
       -6.460000          -8.984706           26.67854          -5.890258           0.939208
       -6.440000          -7.695791           25.70506          -6.433236          -0.096657
       -6.420000          -6.666968           24.77577          -7.089884          -1.206691
       -6.400000          -5.840037           23.90305          -7.885727          -2.399228
       -6.379999          -5.171302           23.08979          -8.854711          -3.681822
       -6.359999          -4.628247           22.33410          -10.04182          -5.059430
       -6.339999          -4.186636           21.63165          -11.50712          -6.531813
       -6.319999          -3.828614           20.97724          -13.33046          -8.087928
       -6.299999          -3.541231           20.36543          -15.61743          -9.696301
       -6.279999          -3.315458           19.79108          -18.50486          -11.28779
       -6.259999          -3.145563           19.24961          -22.16200          -12.72591
       -6.239999          -3.028776           18.73731          -26.77635          -13.75887
       -6.219999          -2.965182           18.25181          -32.49950          -13.95217
       -6.199999          -2.957763           17.79284          -39.30851          -12.62643
       -6.179999          -3.012421           17.36362          -46.74068          -8.897343
       -6.159999          -3.137533           16.97317          -53.58267          -2.019670
       -6.139999          -3.342016           16.63992          -57.92795           7.855822
       -6.119999          -3.629738           16.39607          -58.12848           19.07673
       -6.099999          -3.987159           16.28970          -54.10872           29.13127
       -6.079999          -4.363655           16.37504          -47.43457           36.25459
       -6.059999          -4.658100           16.67800          -40.04026           40.18901
       -6.039999          -4.746625           17.14501          -33.20609           41.64030
       -6.020000          -4.563673           17.63514          -27.44476           41.49954
       -6.000000          -4.158563           18.00014          -22.80363           40.46572
       -5.980000          -3.650966           18.17305          -19.13945           38.99027
       -5.960000          -3.146564           18.17217          -16.26609           37.33604
       -5.940000          -2.700889           18.05133          -14.01354           35.64568
       -5.920000          -2.329326           17.86158          -12.24416           33.99129
       -5.900000          -2.027173           17.63869          -10.85232           32.40532
       -5.880000          -1.783063           17.40441          -9.759126           30.89857
       -5.860000          -1.585189           17.17082          -8.906673           29.47032
       -5.840000          -1.423453           16.94416          -8.253287           28.11399
       -5.820000          -1.289846           16.72731          -7.769969           26.82032
       -5.800000          -1.178216           16.52132          -7.437945           25.57910
       -5.780000          -1.083889           16.32628          -7.247195           24.38030
       -5.760000          -1.003320           16.14178          -7.195757           23.21495
       -5.740000          -0.933805           15.96721          -7.289796           22.07623
       -5.719998          -0.873264           15.80183          -7.544341           20.96097
       -5.699999          -0.820098           15.64497          -7.984474           19.87294
       -5.679999          -0.773041           15.49591          -8.646897           18.82737
       -5.659999          -0.731097           15.35404          -9.580356           17.86010
       -5.639999          -0.693472           15.21876          -10.84209           17.04209
       -5.619999          -0.659525           15.08955          -12.48312           16.50056
       -5.599999          -0.628734           14.96593          -14.50883           16.44124
       -5.579999          -0.600672           14.84749          -16.79919           17.14544
       -5.559999          -0.574985           14.73383          -19.00258           18.88070
       -5.539999          -0.551378           14.62461          -20.51660           21.67156
       -5.519999          -0.529603           14.51952          -20.74435           25.06254
       -5.499999          -0.509450           14.41828          -19.54400           28.23805
       -5.479999          -0.490740           14.32063          -17.35573           30.53504
       -5.459999          -0.473321           14.22634          -14.82836           31.78023
       -5.439999          -0.457061           14.13520          -12.43358           32.16865
       -5.419999          -0.441845           14.04702          -10.38019           31.99594
       -5.399999          -0.427574           13.96162          -8.703219           31.50726
       -5.379999          -0.414161           13.87886          -7.361336           30.86507
       -5.359999          -0.401529           13.79857          -6.292767           30.16537
       -5.340000          -0.389612           13.72063          -5.438852           29.46085
       -5.320000          -0.378348           13.64490          -4.751139           28.77853
       -5.300000          -0.367684           13.57129          -4.191837           28.13095
       -5.280000          -0.357574           13.49967          -3.732167           27.52280
       -5.260000          -0.347975           13.42995          -3.350384           26.95456
       -5.240000          -0.338847           13.36204          -3.030047           26.42466
       -5.220000          -0.330158           13.29586          -2.758662           25.93056
       -5.200000          -0.321875           13.23133          -2.526664           25.46939
       -5.180000          -0.313970           13.16837          -2.326663           25.03826
       -5.160000          -0.306419           13.10691          -2.152901           24.63441
       -5.140000          -0.299196           13.04688          -2.000846           24.25532
       -5.120000          -0.292282           12.98824          -1.866901           23.89866
       -5.100000          -0.285656           12.93093          -1.748182           23.56239
       -5.080000          -0.279300           12.87488          -1.642362           23.24465
       -5.060000          -0.273199           12.82004          -1.547544           22.94379
       -5.040000          -0.267336           12.76638          -1.462172           22.65836
       -5.020000          -0.261699           12.71385          -1.384958           22.38705
       -4.999999          -0.256273           12.66240          -1.314825           22.12868
       -4.979999          -0.251048           12.61200          -1.250887           21.88226
       -4.959999          -0.246012           12.56260          -1.192382           21.64683
       -4.939999          -0.241156           12.51418          -1.138666           21.42158
       -4.919999          -0.236469           12.46670          -1.089192           21.20574
       -4.899999          -0.231942           12.42012          -1.043491           20.99864
       -4.879999          -0.227568           12.37442          -1.001160           20.79969
       -4.859999          -0.223338           12.32957          -0.961847           20.60834
       -4.839999          -0.219246           12.28554          -0.925249           20.42407
       -4.819999          -0.215285           12.24230          -0.891100           20.24644
       -4.799999          -0.211448           12.19983          -0.859168           20.07505
       -4.779999          -0.207729           12.15811          -0.829248           19.90950
       -4.759999          -0.204124           12.11712          -0.801159           19.74945
       -4.739999          -0.200627           12.07682          -0.774741           19.59461
       -4.719999          -0.197232           12.03720          -0.749852           19.44465
       -4.699999          -0.193937           11.99825          -0.726364           19.29933
       -4.679999          -0.190735           11.95994          -0.704166           19.15839
       -4.659999          -0.187623           11.92225          -0.683153           19.02160
       -4.639999          -0.184597           11.88517          -0.663237           18.88876
       -4.619999          -0.181654           11.84868          -0.644333           18.75966
       -4.599999          -0.178789           11.81277          -0.626367           18.63414
       -4.579999          -0.176001           11.77742          -0.609273           18.51200
       -4.559999          -0.173285           11.74261          -0.592988           18.39310
       -4.539999          -0.170639           11.70833          -0.577457           18.27730
       -4.520000          -0.168061           11.67457          -0.562630           18.16445
       -4.500000          -0.165547           11.64132          -0.548460           18.05442
       -4.480000          -0.163094           11.60856          -0.534904           17.94709
       -4.460000          -0.160702           11.57627          -0.521923           17.84236
       -4.440000          -0.158366           11.54446          -0.509483           17.74010
       -4.420000          -0.156086           11.51311          -0.497550           17.64024
       -4.400000          -0.153860           11.48220          -0.486093           17.54266
       -4.380000          -0.151684           11.45174          -0.475085           17.44728
       -4.360000          -0.149558           11.42169          -0.464500           17.35402
       -4.340000          -0.147480           11.39207          -0.454315           17.26279
       -4.320000          -0.145448           11.36285          -0.444506           17.17353
       -4.300000          -0.143460           11.33403          -0.435053           17.08616
       -4.280000          -0.141515           11.30561          -0.425938           17.00062
       -4.259999          -0.139611           11.27756          -0.417141           16.91683
       -4.239999          -0.137748           11.24989          -0.408648           16.83475
       -4.219999          -0.135923           11.22259          -0.400443           16.75432
       -4.199999          -0.134136           11.19564          -0.392510           16.67547
       -4.179999          -0.132385           11.16905          -0.384837           16.59817
       -4.159999          -0.130669           11.14281          -0.377411           16.52235
       -4.139999          -0.128987           11.11690          -0.370220           16.44798
       -4.119999          -0.127338           11.09132          -0.363253           16.37500
       -4.099999          -0.125721           11.06607          -0.356499           16.30338
       -4.079999          -0.124135           11.04113          -0.349950           16.23307
       -4.059999          -0.122579           11.01651          -0.343594           16.16404
       -4.039999          -0.121051           10.99220          -0.337425           16.09624
       -4.019999          -0.119552           10.96818          -0.331433           16.02965
       -3.999999          -0.118080           10.94447          -0.325612           15.96423
       -3.979999          -0.116635           10.92104          -0.319953           15.89994
       -3.959999          -0.115215           10.89790          -0.314450           15.83676
       -3.939999          -0.113821           10.87503          -0.309097           15.77465
       -3.919999          -0.112451           10.85245          -0.303887           15.71359
       -3.899999          -0.111104           10.83013          -0.298814           15.65355
       -3.879999          -0.109780           10.80808          -0.293874           15.59449
       -3.859999          -0.108479           10.78629          -0.289060           15.53641
       -3.839999          -0.107199           10.76476          -0.284368           15.47927
       -3.820000          -0.105940           10.74348          -0.279794           15.42305
       -3.800000          -0.104702           10.72245          -0.275332           15.36772
       -3.780000          -0.103484           10.70166          -0.270978           15.31327
       -3.760000          -0.102285           10.68112          -0.266729           15.25967
       -3.740000          -0.101105           10.66081          -0.262581           15.20691
       -3.720000          -0.099943           10.64074          -0.258529           15.15496
       -3.700000          -0.098800           10.62090          -0.254571           15.10380
       -3.680000          -0.097674           10.60128          -0.250704           15.05343
       -3.660000          -0.096564           10.58188          -0.246923           15.00381
       -3.640000          -0.095472           10.56270          -0.243226           14.95494
       -3.620000          -0.094396           10.54375          -0.239611           14.90679
       -3.600000          -0.093335           10.52500          -0.236073           14.85935
       -3.580000          -0.092290           10.50646          -0.232612           14.81260
       -3.560000          -0.091259           10.48813          -0.229224           14.76654
       -3.539999          -0.090244           10.47001          -0.225906           14.72114
       -3.519999          -0.089242           10.45208          -0.222657           14.67640
       -3.499999          -0.088255           10.43435          -0.219474           14.63230
       -3.479999          -0.087281           10.41682          -0.216356           14.58882
       -3.459999          -0.086321           10.39948          -0.213299           14.54596
       -3.439999          -0.085373           10.38234          -0.210303           14.50370
       -3.419999          -0.084438           10.36538          -0.207365           14.46203
       -3.399999          -0.083515           10.34860          -0.204484           14.42094
       -3.379999          -0.082605           10.33201          -0.201658           14.38041
       -3.359999          -0.081706           10.31560          -0.198885           14.34045
       -3.339999          -0.080819           10.29937          -0.196163           14.30103
       -3.319999          -0.079943           10.28331          -0.193492           14.26215
       -3.299999          -0.079078           10.26743          -0.190869           14.22379
       -3.279999          -0.078224           10.25171          -0.188293           14.18596
       -3.259999          -0.077380           10.23617          -0.185763           14.14863
       -3.239999          -0.076547           10.22079          -0.183278           14.11180
       -3.219999          -0.075723           10.20558          -0.180836           14.07546
       -3.199999          -0.074910           10.19054          -0.178436           14.03960
       -3.179999          -0.074106           10.17565          -0.176077           14.00422
       -3.159999          -0.073312           10.16092          -0.173758           13.96930
       -3.139999          -0.072527           10.14636          -0.171478           13.93484
       -3.120000          -0.071750           10.13195          -0.169235           13.90083
       -3.100000          -0.070983           10.11769          -0.167028           13.86727
       -3.080000          -0.070225           10.10358          -0.164858           13.83414
       -3.060000          -0.069474           10.08962          -0.162722           13.80144
       -3.040000          -0.068733           10.07582          -0.160620           13.76916
       -3.020000          -0.067999           10.06216          -0.158551           13.73730
       -3.000000          -0.067273           10.04864          -0.156514           13.70584
       -2.980000          -0.066555           10.03527          -0.154508           13.67479
       -2.960000          -0.065845           10.02205          -0.152532           13.64414
       -2.940000          -0.065142           10.00896          -0.150586           13.61388
       -2.920000          -0.064446           9.996013          -0.148670           13.58400
       -2.900000          -0.063758           9.983205          -0.146781           13.55450
       -2.880000          -0.063077           9.970533          -0.144920           13.52538
       -2.860000          -0.062402           9.957996          -0.143086           13.49662
       -2.840000          -0.061735           9.945596          -0.141278           13.46823
       -2.820000          -0.061074           9.933325          -0.139495           13.44019
       -2.799999          -0.060419           9.921186          -0.137737           13.41251
       -2.779999          -0.059771           9.909178          -0.136004           13.38518
       -2.759999          -0.059129           9.897297          -0.134295           13.35819
       -2.739999          -0.058493           9.885545          -0.132608           13.33154
       -2.719999          -0.057864           9.873920          -0.130944           13.30522
       -2.699999          -0.057240           9.862420          -0.129303           13.27923
       -2.679999          -0.056622           9.851043          -0.127683           13.25357
       -2.659999          -0.056009           9.839788          -0.126084           13.22823
       -2.639999          -0.055403           9.828657          -0.124506           13.20320
       -2.619999          -0.054801           9.817647          -0.122948           13.17849
       -2.599999          -0.054205           9.806753          -0.121409           13.15409
       -2.579999          -0.053615           9.795982          -0.119890           13.12999
       -2.559999          -0.053029           9.785326          -0.118390           13.10619
       -2.539999          -0.052449           9.774787          -0.116908           13.08269
       -2.519999          -0.051873           9.764361          -0.115444           13.05949
       -2.499999          -0.051303           9.754052          -0.113997           13.03658
       -2.479999          -0.050737           9.743857          -0.112568           13.01394
       -2.459999          -0.050176           9.733774          -0.111156           12.99160
       -2.439999          -0.049619           9.723803          -0.109760           12.96954
       -2.419999          -0.049067           9.713942          -0.108380           12.94775
       -2.400000          -0.048520           9.704190          -0.107016           12.92624
       -2.380000          -0.047977           9.694547          -0.105667           12.90499
       -2.360000          -0.047438           9.685014          -0.104334           12.88402
       -2.340000          -0.046903           9.675585          -0.103015           12.86331
       -2.320000          -0.046373           9.666266          -0.101710           12.84286
       -2.300000          -0.045847           9.657048          -0.100420           12.82267
       -2.280000          -0.045324           9.647941          -0.099144           12.80274
       -2.260000          -0.044806           9.638933          -0.097881           12.78306
       -2.240000          -0.044291           9.630030          -0.096631           12.76363
       -2.220000          -0.043780           9.621228          -0.095395           12.74445
       -2.200000          -0.043273           9.612529          -0.094171           12.72551
       -2.180000          -0.042770           9.603930          -0.092960           12.70682
       -2.160000          -0.042270           9.595433          -0.091760           12.68837
       -2.140000          -0.041773           9.587034          -0.090573           12.67016
       -2.120000          -0.041281           9.578736          -0.089398           12.65218
       -2.100000          -0.040791           9.570536          -0.088234           12.63443
       -2.080000          -0.040305           9.562431          -0.087081           12.61692
       -2.059999          -0.039822           9.554423          -0.085939           12.59964
       -2.039999          -0.039342           9.546512          -0.084808           12.58258
       -2.019999          -0.038866           9.538695          -0.083688           12.56575
       -1.999999          -0.038392           9.530975          -0.082578           12.54914
       -1.979999          -0.037922           9.523350          -0.081478           12.53275
       -1.959999          -0.037455           9.515815          -0.080388           12.51658
       -1.939999          -0.036990           9.508376          -0.079307           12.50063
       -1.919999          -0.036529           9.501030          -0.078237           12.48489
       -1.899999          -0.036070           9.493775          -0.077175           12.46936
       -1.879999          -0.035614           9.486611          -0.076123           12.45405
       -1.859999          -0.035161           9.479539          -0.075080           12.43894
       -1.839999          -0.034711           9.472555          -0.074045           12.42405
       -1.819999          -0.034263           9.465664          -0.073019           12.40936
       -1.799999          -0.033818           9.458858          -0.072002           12.39487
       -1.779999          -0.033375           9.452145          -0.070993           12.38058
       -1.759999          -0.032935           9.445517          -0.069992           12.36650
       -1.739999          -0.032497           9.438977          -0.068999           12.35261
       -1.719999          -0.032062           9.432527          -0.068014           12.33892
       -1.699999          -0.031629           9.426161          -0.067036           12.32543
       -1.679999          -0.031199           9.419883          -0.066066           12.31213
       -1.659999          -0.030770           9.413689          -0.065103           12.29903
       -1.640000          -0.030344           9.407582          -0.064148           12.28611
       -1.620000          -0.029921           9.401559          -0.063199           12.27339
       -1.600000          -0.029499           9.395620          -0.062257           12.26086
       -1.580000          -0.029079           9.389766          -0.061323           12.24851
       -1.560000          -0.028662           9.383996          -0.060394           12.23635
       -1.540000          -0.028247           9.378307          -0.059473           12.22437
       -1.520000          -0.027833           9.372704          -0.058557           12.21258
       -1.500000          -0.027422           9.367181          -0.057648           12.20097
       -1.480000          -0.027013           9.361740          -0.056745           12.18954
       -1.460000          -0.026605           9.356382          -0.055848           12.17829
       -1.440000          -0.026199           9.351105          -0.054957           12.16722
       -1.420000          -0.025796           9.345908          -0.054071           12.15633
       -1.400000          -0.025394           9.340793          -0.053191           12.14561
       -1.380000          -0.024993           9.335757          -0.052317           12.13507
       -1.360000          -0.024595           9.330801          -0.051448           12.12470
       -1.339999          -0.024198           9.325925          -0.050584           12.11451
       -1.319999          -0.023803           9.321126          -0.049726           12.10449
       -1.299999          -0.023409           9.316409          -0.048872           12.09463
       -1.279999          -0.023017           9.311769          -0.048024           12.08495
       -1.259999          -0.022627           9.307207          -0.047180           12.07544
       -1.239999          -0.022238           9.302723          -0.046341           12.06610
       -1.219999          -0.021851           9.298317          -0.045507           12.05692
       -1.199999          -0.021465           9.293987          -0.044677           12.04791
       -1.179999          -0.021080           9.289735          -0.043852           12.03906
       -1.159999          -0.020697           9.285560          -0.043031           12.03038
       -1.139999          -0.020316           9.281461          -0.042214           12.02186
       -1.119999          -0.019935           9.277437          -0.041401           12.01351
       -1.099999          -0.019557           9.273492          -0.040593           12.00532
       -1.079999          -0.019179           9.269619          -0.039788           11.99729
       -1.059999          -0.018802           9.265823          -0.038987           11.98941
       -1.039999          -0.018427           9.262102          -0.038190           11.98170
       -1.019999          -0.018053           9.258457          -0.037397           11.97415
       -0.999999          -0.017681           9.254885          -0.036607           11.96676
       -0.979999          -0.017309           9.251389          -0.035821           11.95952
       -0.960000          -0.016938           9.247965          -0.035038           11.95244
       -0.940000          -0.016569           9.244617          -0.034258           11.94551
       -0.920000          -0.016201           9.241342          -0.033482           11.93875
       -0.900000          -0.015833           9.238138          -0.032709           11.93213
       -0.880000          -0.015467           9.235011          -0.031939           11.92567
       -0.860000          -0.015102           9.231957          -0.031172           11.91937
       -0.840000          -0.014738           9.228973          -0.030408           11.91322
       -0.820000          -0.014374           9.226064          -0.029647           11.90721
       -0.800000          -0.014012           9.223228          -0.028889           11.90137
       -0.780000          -0.013650           9.220462          -0.028133           11.89567
       -0.760000          -0.013290           9.217770          -0.027380           11.89012
       -0.740000          -0.012930           9.215150          -0.026629           11.88472
       -0.720000          -0.012571           9.212601          -0.025881           11.87948
       -0.700000          -0.012213           9.210123          -0.025135           11.87438
       -0.680000          -0.011855           9.207719          -0.024392           11.86943
       -0.660000          -0.011499           9.205383          -0.023651           11.86463
       -0.640000          -0.011143           9.203120          -0.022912           11.85998
       -0.620000          -0.010788           9.200930          -0.022175           11.85547
       -0.599999          -0.010433           9.198807          -0.021440           11.85111
       -0.579999          -0.010079           9.196758          -0.020707           11.84690
       -0.559999          -0.009726           9.194777          -0.019976           11.84284
       -0.539999          -0.009373           9.192869          -0.019247           11.83892
       -0.519999          -0.009021           9.191031          -0.018519           11.83514
       -0.499999          -0.008669           9.189262          -0.017793           11.83152
       -0.479999          -0.008318           9.187565          -0.017069           11.82803
       -0.459999          -0.007968           9.185937          -0.016347           11.82469
       -0.439999          -0.007618           9.184379          -0.015625           11.82150
       -0.419999          -0.007269           9.182893          -0.014906           11.81845
       -0.399999          -0.006920           9.181474          -0.014187           11.81554
       -0.379999          -0.006571           9.180125          -0.013470           11.81277
       -0.359999          -0.006223           9.178845          -0.012754           11.81015
       -0.339999          -0.005875           9.177637          -0.012039           11.80768
       -0.319999          -0.005527           9.176497          -0.011326           11.80534
       -0.299999          -0.005180           9.175428          -0.010613           11.80315
       -0.279999          -0.004834           9.174426          -0.009901           11.80110
       -0.259999          -0.004487           9.173494          -0.009190           11.79919
       -0.239999          -0.004141           9.172633          -0.008480           11.79743
       -0.220000          -0.003795           9.171840          -0.007771           11.79580
       -0.200000          -0.003449           9.171116          -0.007062           11.79432
       -0.180000          -0.003104           9.170461          -0.006354           11.79298
       -0.160000          -0.002758           9.169874          -0.005647           11.79178
       -0.140000          -0.002413           9.169357          -0.004940           11.79072
       -0.120000          -0.002068           9.168910          -0.004233           11.78981
       -0.100000          -0.001723           9.168530          -0.003527           11.78903
       -0.080000          -0.001378           9.168221          -0.002821           11.78840
       -0.060000          -0.001034           9.167979          -0.002116           11.78790
       -0.040000          -0.689147E-3        9.167809          -0.001410           11.78755
       -0.020000          -0.344561E-3        9.167706          -0.705177E-3        11.78734
        0.000000           0.000000           9.167669           0.000000           11.78727
        0.020000           0.344561E-3        9.167705           0.705177E-3        11.78734
        0.040000           0.689147E-3        9.167809           0.001410           11.78755
        0.060000           0.001034           9.167979           0.002116           11.78790
        0.080000           0.001378           9.168221           0.002821           11.78840
        0.100000           0.001723           9.168530           0.003527           11.78903
        0.120001           0.002068           9.168910           0.004233           11.78981
        0.140001           0.002413           9.169357           0.004940           11.79072
        0.160001           0.002758           9.169874           0.005647           11.79178
        0.180001           0.003104           9.170461           0.006354           11.79298
        0.200001           0.003449           9.171116           0.007062           11.79432
        0.220001           0.003795           9.171840           0.007771           11.79580
        0.240001           0.004141           9.172633           0.008480           11.79743
        0.260001           0.004487           9.173494           0.009190           11.79919
        0.280001           0.004834           9.174425           0.009901           11.80110
        0.300001           0.005180           9.175428           0.010613           11.80315
        0.320001           0.005527           9.176497           0.011326           11.80534
        0.340001           0.005875           9.177637           0.012039           11.80768
        0.360001           0.006223           9.178847           0.012754           11.81015
        0.380001           0.006571           9.180124           0.013470           11.81278
        0.400001           0.006920           9.181475           0.014187           11.81554
        0.420001           0.007269           9.182892           0.014906           11.81845
        0.440001           0.007618           9.184380           0.015625           11.82150
        0.460001           0.007968           9.185938           0.016347           11.82469
        0.480001           0.008319           9.187565           0.017069           11.82803
        0.500001           0.008669           9.189262           0.017793           11.83152
        0.520000           0.009021           9.191031           0.018519           11.83514
        0.540000           0.009373           9.192870           0.019247           11.83892
        0.560000           0.009726           9.194778           0.019976           11.84284
        0.580000           0.010079           9.196758           0.020707           11.84690
        0.600000           0.010433           9.198807           0.021440           11.85111
        0.620000           0.010788           9.200930           0.022175           11.85547
        0.640000           0.011143           9.203120           0.022912           11.85998
        0.660000           0.011499           9.205383           0.023651           11.86463
        0.680000           0.011855           9.207719           0.024392           11.86943
        0.700000           0.012213           9.210123           0.025135           11.87438
        0.720000           0.012571           9.212601           0.025881           11.87948
        0.740000           0.012930           9.215150           0.026629           11.88472
        0.760000           0.013290           9.217770           0.027380           11.89012
        0.780000           0.013650           9.220462           0.028133           11.89567
        0.800000           0.014012           9.223228           0.028889           11.90137
        0.820000           0.014374           9.226064           0.029647           11.90721
        0.840000           0.014738           9.228973           0.030408           11.91321
        0.860001           0.015102           9.231957           0.031172           11.91937
        0.880001           0.015467           9.235011           0.031939           11.92567
        0.900001           0.015833           9.238140           0.032709           11.93213
        0.920001           0.016201           9.241342           0.033482           11.93875
        0.940001           0.016569           9.244617           0.034259           11.94551
        0.960001           0.016938           9.247966           0.035038           11.95244
        0.980001           0.017309           9.251389           0.035821           11.95952
        1.000001           0.017681           9.254885           0.036607           11.96676
        1.020001           0.018053           9.258457           0.037397           11.97415
        1.040001           0.018427           9.262104           0.038190           11.98170
        1.060001           0.018802           9.265823           0.038987           11.98941
        1.080001           0.019179           9.269620           0.039788           11.99729
        1.100001           0.019557           9.273491           0.040593           12.00532
        1.120001           0.019935           9.277438           0.041401           12.01351
        1.140001           0.020316           9.281461           0.042214           12.02186
        1.160001           0.020697           9.285560           0.043031           12.03038
        1.180001           0.021080           9.289736           0.043852           12.03906
        1.200001           0.021465           9.293988           0.044677           12.04791
        1.220001           0.021851           9.298317           0.045507           12.05692
        1.240000           0.022238           9.302724           0.046341           12.06610
        1.260000           0.022627           9.307207           0.047180           12.07544
        1.280000           0.023017           9.311769           0.048024           12.08495
        1.300000           0.023409           9.316409           0.048872           12.09464
        1.320000           0.023803           9.321127           0.049726           12.10449
        1.340000           0.024198           9.325925           0.050584           12.11451
        1.360000           0.024595           9.330801           0.051448           12.12470
        1.380000           0.024993           9.335755           0.052317           12.13507
        1.400000           0.025394           9.340793           0.053191           12.14561
        1.420000           0.025796           9.345908           0.054071           12.15633
        1.440000           0.026199           9.351105           0.054957           12.16722
        1.460000           0.026605           9.356382           0.055848           12.17829
        1.480000           0.027013           9.361740           0.056745           12.18954
        1.500000           0.027422           9.367182           0.057648           12.20097
        1.520000           0.027833           9.372704           0.058557           12.21258
        1.540000           0.028247           9.378308           0.059473           12.22437
        1.560000           0.028662           9.383996           0.060394           12.23635
        1.580001           0.029079           9.389768           0.061323           12.24851
        1.600001           0.029499           9.395620           0.062258           12.26086
        1.620001           0.029921           9.401559           0.063199           12.27339
        1.640001           0.030344           9.407583           0.064148           12.28611
        1.660001           0.030770           9.413689           0.065103           12.29903
        1.680001           0.031199           9.419883           0.066066           12.31213
        1.700001           0.031629           9.426161           0.067036           12.32543
        1.720001           0.032062           9.432527           0.068014           12.33892
        1.740001           0.032497           9.438978           0.068999           12.35261
        1.760001           0.032935           9.445518           0.069992           12.36650
        1.780001           0.033375           9.452145           0.070993           12.38058
        1.800001           0.033818           9.458859           0.072002           12.39487
        1.820001           0.034263           9.465664           0.073019           12.40936
        1.840001           0.034711           9.472556           0.074045           12.42405
        1.860001           0.035161           9.479539           0.075080           12.43894
        1.880001           0.035614           9.486612           0.076123           12.45405
        1.900001           0.036070           9.493775           0.077175           12.46936
        1.920001           0.036529           9.501031           0.078237           12.48489
        1.940001           0.036990           9.508376           0.079307           12.50063
        1.960001           0.037455           9.515818           0.080388           12.51658
        1.980000           0.037922           9.523350           0.081478           12.53275
        2.000000           0.038392           9.530976           0.082578           12.54914
        2.020000           0.038866           9.538696           0.083688           12.56575
        2.040000           0.039342           9.546513           0.084808           12.58258
        2.060000           0.039822           9.554423           0.085939           12.59964
        2.080000           0.040305           9.562430           0.087081           12.61692
        2.100000           0.040791           9.570535           0.088234           12.63443
        2.120000           0.041281           9.578735           0.089398           12.65218
        2.140000           0.041773           9.587036           0.090573           12.67016
        2.160000           0.042270           9.595433           0.091760           12.68837
        2.180000           0.042770           9.603930           0.092960           12.70682
        2.200000           0.043273           9.612529           0.094171           12.72551
        2.220000           0.043780           9.621228           0.095395           12.74445
        2.240000           0.044291           9.630031           0.096631           12.76363
        2.260000           0.044806           9.638934           0.097881           12.78306
        2.280000           0.045324           9.647941           0.099144           12.80274
        2.300000           0.045847           9.657051           0.100420           12.82267
        2.320001           0.046373           9.666266           0.101710           12.84286
        2.340001           0.046904           9.675587           0.103015           12.86331
        2.360001           0.047438           9.685014           0.104334           12.88402
        2.380001           0.047977           9.694548           0.105667           12.90500
        2.400001           0.048520           9.704191           0.107016           12.92624
        2.420001           0.049068           9.713942           0.108380           12.94775
        2.440001           0.049619           9.723803           0.109760           12.96954
        2.460001           0.050176           9.733774           0.111156           12.99160
        2.480001           0.050737           9.743857           0.112568           13.01395
        2.500001           0.051303           9.754054           0.113997           13.03658
        2.520001           0.051873           9.764363           0.115444           13.05949
        2.540001           0.052449           9.774787           0.116908           13.08270
        2.560001           0.053029           9.785327           0.118390           13.10619
        2.580001           0.053615           9.795982           0.119890           13.12999
        2.600001           0.054206           9.806756           0.121409           13.15409
        2.620001           0.054801           9.817647           0.122948           13.17849
        2.640001           0.055403           9.828658           0.124506           13.20320
        2.660001           0.056010           9.839790           0.126084           13.22823
        2.680001           0.056622           9.851045           0.127683           13.25357
        2.700001           0.057240           9.862421           0.129303           13.27923
        2.720001           0.057864           9.873922           0.130945           13.30522
        2.740000           0.058493           9.885546           0.132608           13.33154
        2.760000           0.059129           9.897299           0.134295           13.35819
        2.780000           0.059771           9.909178           0.136004           13.38518
        2.800000           0.060419           9.921186           0.137737           13.41251
        2.820000           0.061074           9.933325           0.139495           13.44020
        2.840000           0.061735           9.945595           0.141278           13.46823
        2.860000           0.062402           9.957996           0.143086           13.49662
        2.880000           0.063077           9.970534           0.144920           13.52538
        2.900000           0.063758           9.983207           0.146781           13.55450
        2.920000           0.064446           9.996013           0.148670           13.58400
        2.940000           0.065142           10.00896           0.150586           13.61388
        2.960000           0.065845           10.02205           0.152532           13.64414
        2.980000           0.066555           10.03527           0.154508           13.67479
        3.000000           0.067273           10.04864           0.156514           13.70584
        3.020000           0.067999           10.06216           0.158551           13.73730
        3.040001           0.068733           10.07582           0.160620           13.76916
        3.060001           0.069474           10.08962           0.162722           13.80144
        3.080001           0.070225           10.10358           0.164858           13.83414
        3.100001           0.070983           10.11769           0.167029           13.86727
        3.120001           0.071751           10.13195           0.169235           13.90083
        3.140001           0.072527           10.14636           0.171478           13.93484
        3.160001           0.073312           10.16093           0.173758           13.96930
        3.180001           0.074106           10.17565           0.176077           14.00422
        3.200001           0.074910           10.19054           0.178436           14.03960
        3.220001           0.075723           10.20559           0.180836           14.07546
        3.240001           0.076547           10.22080           0.183278           14.11180
        3.260001           0.077380           10.23617           0.185764           14.14863
        3.280001           0.078224           10.25171           0.188293           14.18596
        3.300001           0.079078           10.26743           0.190869           14.22379
        3.320001           0.079943           10.28331           0.193492           14.26215
        3.340001           0.080819           10.29937           0.196163           14.30103
        3.360001           0.081706           10.31560           0.198885           14.34045
        3.380001           0.082605           10.33201           0.201658           14.38042
        3.400001           0.083515           10.34860           0.204484           14.42094
        3.420001           0.084438           10.36538           0.207366           14.46203
        3.440001           0.085373           10.38234           0.210303           14.50370
        3.460000           0.086321           10.39949           0.213299           14.54596
        3.480000           0.087281           10.41682           0.216356           14.58883
        3.500000           0.088255           10.43436           0.219474           14.63230
        3.520000           0.089242           10.45208           0.222657           14.67640
        3.540000           0.090244           10.47001           0.225906           14.72115
        3.560000           0.091259           10.48813           0.229224           14.76654
        3.580000           0.092290           10.50646           0.232612           14.81261
        3.600000           0.093335           10.52500           0.236073           14.85935
        3.620000           0.094396           10.54375           0.239611           14.90679
        3.640000           0.095472           10.56270           0.243226           14.95494
        3.660000           0.096564           10.58188           0.246923           15.00381
        3.680000           0.097674           10.60128           0.250704           15.05343
        3.700000           0.098800           10.62090           0.254571           15.10380
        3.720000           0.099943           10.64074           0.258529           15.15496
        3.740000           0.101105           10.66081           0.262581           15.20691
        3.760000           0.102285           10.68112           0.266729           15.25967
        3.780001           0.103484           10.70167           0.270978           15.31328
        3.800001           0.104702           10.72245           0.275332           15.36773
        3.820001           0.105940           10.74348           0.279794           15.42305
        3.840001           0.107199           10.76476           0.284369           15.47928
        3.860001           0.108479           10.78629           0.289060           15.53642
        3.880001           0.109780           10.80808           0.293874           15.59450
        3.900001           0.111104           10.83013           0.298815           15.65355
        3.920001           0.112451           10.85245           0.303887           15.71359
        3.940001           0.113821           10.87504           0.309097           15.77466
        3.960001           0.115216           10.89790           0.314451           15.83676
        3.980001           0.116635           10.92104           0.319954           15.89994
        4.000001           0.118080           10.94447           0.325612           15.96423
        4.020001           0.119552           10.96818           0.331434           16.02965
        4.040001           0.121051           10.99220           0.337426           16.09625
        4.060001           0.122579           11.01651           0.343595           16.16404
        4.080000           0.124135           11.04113           0.349950           16.23307
        4.100000           0.125721           11.06607           0.356500           16.30338
        4.120000           0.127338           11.09132           0.363254           16.37500
        4.140000           0.128987           11.11690           0.370221           16.44798
        4.160000           0.130669           11.14281           0.377412           16.52236
        4.180000           0.132385           11.16906           0.384838           16.59818
        4.200000           0.134136           11.19565           0.392511           16.67548
        4.220000           0.135923           11.22259           0.400444           16.75432
        4.240000           0.137748           11.24990           0.408649           16.83476
        4.260000           0.139611           11.27756           0.417142           16.91684
        4.280000           0.141515           11.30561           0.425938           17.00062
        4.300000           0.143460           11.33403           0.435053           17.08616
        4.320000           0.145448           11.36285           0.444506           17.17353
        4.340000           0.147480           11.39207           0.454315           17.26279
        4.360000           0.149558           11.42169           0.464500           17.35402
        4.380000           0.151684           11.45174           0.475085           17.44728
        4.400000           0.153860           11.48220           0.486093           17.54266
        4.420000           0.156086           11.51311           0.497550           17.64024
        4.440000           0.158366           11.54446           0.509483           17.74010
        4.460000           0.160702           11.57628           0.521924           17.84236
        4.480000           0.163094           11.60856           0.534904           17.94709
        4.500000           0.165547           11.64132           0.548460           18.05442
        4.520001           0.168061           11.67458           0.562631           18.16446
        4.540001           0.170640           11.70833           0.577459           18.27731
        4.560001           0.173285           11.74261           0.592989           18.39312
        4.580001           0.176001           11.77742           0.609274           18.51201
        4.600001           0.178790           11.81277           0.626369           18.63415
        4.620001           0.181654           11.84869           0.644334           18.75968
        4.640001           0.184597           11.88517           0.663238           18.88877
        4.660001           0.187623           11.92225           0.683155           19.02161
        4.680001           0.190735           11.95994           0.704167           19.15840
        4.700001           0.193937           11.99825           0.726366           19.29934
        4.720001           0.197233           12.03721           0.749854           19.44467
        4.740001           0.200627           12.07682           0.774743           19.59462
        4.760001           0.204125           12.11712           0.801161           19.74947
        4.780001           0.207730           12.15812           0.829250           19.90951
        4.800001           0.211448           12.19984           0.859171           20.07506
        4.820001           0.215285           12.24231           0.891103           20.24646
        4.840001           0.219246           12.28554           0.925252           20.42408
        4.860001           0.223338           12.32957           0.961850           20.60835
        4.880001           0.227568           12.37443           1.001163           20.79971
        4.900001           0.231942           12.42013           1.043495           20.99866
        4.920001           0.236469           12.46670           1.089196           21.20575
        4.940001           0.241156           12.51418           1.138670           21.42159
        4.960001           0.246013           12.56261           1.192386           21.64685
        4.980000           0.251049           12.61200           1.250892           21.88228
        5.000000           0.256274           12.66240           1.314830           22.12870
        5.020000           0.261699           12.71385           1.384958           22.38705
        5.040000           0.267336           12.76638           1.462172           22.65836
        5.060000           0.273199           12.82004           1.547544           22.94379
        5.080000           0.279300           12.87487           1.642362           23.24465
        5.100000           0.285655           12.93092           1.748182           23.56239
        5.120000           0.292282           12.98824           1.866901           23.89866
        5.140000           0.299196           13.04689           2.000846           24.25531
        5.160000           0.306419           13.10691           2.152901           24.63441
        5.180000           0.313970           13.16837           2.326664           25.03826
        5.200000           0.321875           13.23133           2.526664           25.46939
        5.220000           0.330158           13.29586           2.758662           25.93056
        5.240001           0.338848           13.36205           3.030071           26.42470
        5.260001           0.347975           13.42996           3.350411           26.95461
        5.280001           0.357575           13.49967           3.732200           27.52284
        5.300001           0.367685           13.57129           4.191878           28.13100
        5.320001           0.378348           13.64491           4.751189           28.77858
        5.340001           0.389612           13.72063           5.438913           29.46091
        5.360001           0.401530           13.79858           6.292844           30.16543
        5.380001           0.414162           13.87887           7.361433           30.86513
        5.400001           0.427575           13.96163           8.703341           31.50730
        5.420001           0.441846           14.04703           10.38034           31.99598
        5.440001           0.457062           14.13520           12.43376           32.16864
        5.460001           0.473323           14.22634           14.82856           31.78017
        5.480001           0.490742           14.32063           17.35593           30.53490
        5.500000           0.509451           14.41829           19.54415           28.23782
        5.520000           0.529605           14.51953           20.74439           25.06226
        5.540000           0.551380           14.62462           20.51652           21.67131
        5.560000           0.574987           14.73384           19.00242           18.88052
        5.580000           0.600674           14.84750           16.79900           17.14534
        5.600000           0.628736           14.96594           14.50866           16.44122
        5.620000           0.659527           15.08955           12.48298           16.50059
        5.640000           0.693475           15.21877           10.84198           17.04214
        5.660000           0.731100           15.35405           9.580268           17.86017
        5.680000           0.773044           15.49592           8.646833           18.82745
        5.700000           0.820102           15.64498           7.984430           19.87302
        5.720000           0.873269           15.80185           7.544312           20.96105
        5.740000           0.933805           15.96721           7.289797           22.07622
        5.760000           1.003320           16.14178           7.195756           23.21495
        5.780000           1.083889           16.32628           7.247195           24.38030
        5.800000           1.178216           16.52132           7.437945           25.57910
        5.820000           1.289846           16.72730           7.769969           26.82032
        5.840000           1.423453           16.94416           8.253287           28.11399
        5.860000           1.585189           17.17082           8.906673           29.47032
        5.880000           1.783063           17.40441           9.759126           30.89857
        5.900000           2.027173           17.63869           10.85232           32.40532
        5.920000           2.329326           17.86158           12.24416           33.99129
        5.940000           2.700889           18.05133           14.01354           35.64568
        5.960000           3.146564           18.17217           16.26609           37.33604
        5.980001           3.651007           18.17304           19.13972           38.99041
        6.000001           4.158602           18.00012           22.80396           40.46582
        6.020001           4.563699           17.63511           27.44518           41.49959
        6.040001           4.746629           17.14497           33.20660           41.64027
        6.060001           4.658082           16.67797           40.04086           40.18881
        6.080001           4.363626           16.37502           47.43517           36.25414
        6.100001           3.987128           16.28970           54.10918           29.13056
        6.120001           3.629711           16.39609           58.12864           19.07584
        6.140001           3.341996           16.63995           57.92775           7.854933
        6.160001           3.137520           16.97320           53.58219          -2.020365
        6.180001           3.012414           17.36365           46.74008          -8.897771
        6.200001           2.957762           17.79287           39.30793          -12.62663
        6.220001           2.965185           18.25185           32.49900          -13.95220
        6.240001           3.028784           18.73735           26.77593          -13.75881
        6.260001           3.145575           19.24965           22.16167          -12.72581
        6.280001           3.315474           19.79113           18.50459          -11.28766
        6.300001           3.541252           20.36548           15.61722          -9.696169
        6.320001           3.828640           20.97729           13.33030          -8.087797
        6.340001           4.186668           21.63171           11.50699          -6.531686
        6.360001           4.628286           22.33416           10.04172          -5.059316
        6.380001           5.171350           23.08985           8.854624          -3.681715
        6.400000           5.840067           23.90308           7.885691          -2.399179
        6.420000           6.667006           24.77580           7.089854          -1.206643
        6.440000           7.695837           25.70510           6.433212          -0.096613
        6.460000           8.984766           26.67858           5.890238           0.939251
        6.480000           10.61033           27.66619           5.441760           1.909304
        6.500000           12.67008           28.60575           5.073534           2.821489
        6.520000           15.27982           29.37872           4.775266           3.683138
        6.540000           18.55476           29.77308           4.539964           4.500813
        6.560000           22.55285           29.43794           4.363587           5.280186
        6.580000           27.14809           27.86363           4.244912           6.025799
        6.600000           31.82997           24.48342           4.185614           6.740598
        6.620000           35.57153           19.03025           4.190483           7.425093
        6.640000           37.12359           12.05630           4.267598           8.075780
        6.660000           35.84639           4.997375           4.428021           8.682455
        6.680000           32.27030          -0.655049           4.683844           9.223981
        6.700001           27.62488          -4.246598           5.042202           9.662791
        6.720001           22.98473          -5.982789           5.491208           9.941257
        6.740001           18.91045          -6.421540           5.976454           9.990690
        6.760001           15.55727          -6.086416           6.380675           9.769171
        6.780001           12.87865          -5.344716           6.547899           9.325714
        6.800001           10.76153          -4.420696           6.378292           8.824373
        6.820001           9.088706          -3.440621           5.912667           8.458177
        6.840001           7.760229          -2.471266           5.295012           8.329440
        6.860001           6.697196          -1.545345           4.665255           8.427791
        6.880001           5.839326          -0.676766           4.102482           8.688572
        6.900001           5.141169           0.130638           3.631884           9.045751
        6.920001           4.568562           0.878240           3.250067           9.451550
        6.940001           4.095789           1.569922           2.943418           9.876489
        6.960001           3.703435           2.210626           2.697019           10.30402
        6.980000           3.376805           2.805559           2.497870           10.72554
        7.000000           3.104797           3.359814           2.335589           11.13701
        7.020000           2.879092           3.878142           2.202177           11.53692
        7.040000           2.693599           4.364876           2.091554           11.92511
        7.060000           2.544090           4.823844           1.999114           12.30207
        7.080000           2.427989           5.258309           1.921352           12.66866
        7.100000           2.344280           5.670815           1.855580           13.02583
        7.120000           2.293524           6.062909           1.799722           13.37455
        7.140000           2.277917           6.434614           1.752158           13.71578
        7.160000           2.301252           6.783490           1.711614           14.05042
        7.180000           2.368455           7.103056           1.677074           14.37928
        7.200000           2.483875           7.380518           1.647726           14.70313
        7.220000           2.646853           7.594411           1.622912           15.02267
        7.240002           2.842931           7.715173           1.602096           15.33857
        7.260000           3.032346           7.715283           1.584841           15.65135
        7.280002           3.148932           7.594559           1.570781           15.96165
        7.300000           3.128898           7.404978           1.559618           16.26986
        7.320002           2.959201           7.235521           1.551097           16.57658
        7.340000           2.688860           7.156496           1.545013           16.88213
        7.360002           2.387250           7.184970           1.541186           17.18702
        7.380000           2.103863           7.299425           1.539471           17.49155
        7.400002           1.859892           7.468468           1.539743           17.79619
        7.420000           1.658479           7.666356           1.541899           18.10118
        7.440001           1.494742           7.876322           1.545852           18.40698
        7.460000           1.361895           8.088501           1.551530           18.71380
        7.480001           1.253464           8.297719           1.558878           19.02207
        7.500000           1.164179           8.501346           1.567845           19.33199
        7.520001           1.089867           8.698382           1.578398           19.64397
        7.539999           1.027381           8.888516           1.590506           19.95821
        7.560001           0.974291           9.071976           1.604153           20.27510
        7.579999           0.928779           9.249072           1.619324           20.59484
        7.600001           0.889424           9.420321           1.636019           20.91782
        7.619999           0.855151           9.586145           1.654236           21.24423
        7.640001           0.825100           9.747064           1.673987           21.57447
        7.659999           0.798612           9.903469           1.695283           21.90874
        7.680001           0.775145           10.05582           1.718149           22.24743
        7.699999           0.754278           10.20444           1.742606           22.59076
        7.720001           0.735654           10.34973           1.768692           22.93913
        7.739999           0.718996           10.49194           1.796437           23.29276
        7.760001           0.704060           10.63141           1.825894           23.65209
        7.779999           0.690655           10.76836           1.857103           24.01734
        7.800001           0.678612           10.90305           1.890129           24.38898
        7.820002           0.667792           11.03569           1.925030           24.76729
        7.840000           0.658078           11.16645           1.961866           25.15260
        7.860002           0.649365           11.29555           2.000727           25.54540
        7.880000           0.641569           11.42313           2.041681           25.94598
        7.900002           0.634610           11.54937           2.084832           26.35487
        7.920000           0.628425           11.67439           2.130265           26.77238
        7.940002           0.622954           11.79836           2.178101           27.19910
        7.960000           0.618149           11.92136           2.228441           27.63535
        7.980001           0.613963           12.04356           2.281428           28.08179
        8.000000           0.610360           12.16502           2.337182           28.53878
        8.020001           0.607303           12.28589           2.395869           29.00703
        8.040000           0.604763           12.40623           2.457635           29.48696
        8.060001           0.602712           12.52618           2.522672           29.97934
        8.080000           0.601127           12.64578           2.591150           30.48465
        8.100001           0.599985           12.76516           2.663300           31.00374
        8.120000           0.599269           12.88437           2.739323           31.53716
        8.140001           0.598962           13.00352           2.819488           32.08585
        8.160000           0.599048           13.12266           2.904035           32.65044
        8.180001           0.599515           13.24189           2.993283           33.23199
        8.200000           0.600352           13.36125           3.087520           33.83123
        8.220001           0.601547           13.48085           3.187122           34.44933
        8.240000           0.603093           13.60072           3.292435           35.08715
        8.260001           0.604982           13.72096           3.403908           35.74600
        8.280000           0.607208           13.84160           3.521960           36.42688
        8.300001           0.609766           13.96275           3.647127           37.13130
        8.320000           0.612650           14.08443           3.779917           37.86042
        8.340001           0.615858           14.20675           3.920980           38.61594
        8.360000           0.619387           14.32972           4.070935           39.39924
        8.380001           0.623235           14.45345           4.230570           40.21229
        8.399999           0.627402           14.57797           4.400651           41.05670
        8.420001           0.631887           14.70337           4.582140           41.93475
        8.439999           0.636691           14.82968           4.775989           42.84836
        8.460001           0.641816           14.95700           4.983384           43.80019
        8.479999           0.647263           15.08535           5.205519           44.79253
        8.500001           0.653035           15.21483           5.443871           45.82848
        8.519999           0.659135           15.34548           5.699948           46.91080
        8.540000           0.665569           15.47740           5.975614           48.04318
        8.560002           0.672340           15.61062           6.272842           49.22915
        8.580000           0.679454           15.74521           6.593857           50.47250
        8.600002           0.686918           15.88126           6.941351           51.77811
        8.620000           0.694737           16.01880           7.318161           53.15040
        8.640002           0.702922           16.15796           7.727784           54.59525
        8.660000           0.711478           16.29875           8.173955           56.11815
        8.680001           0.720417           16.44130           8.661281           57.72621
        8.700000           0.729747           16.58563           9.194757           59.42628
        8.720001           0.739482           16.73187           9.780543           61.22710
        8.740000           0.749630           16.88006           10.42543           63.13727
        8.760001           0.760207           17.03032           11.13781           65.16765
        8.780000           0.771225           17.18269           11.92709           67.32910
        8.800001           0.782700           17.33731           12.80491           69.63523
        8.820000           0.794647           17.49422           13.78457           72.09988
        8.840001           0.807084           17.65357           14.88260           74.74028
        8.860000           0.820027           17.81539           16.11820           77.57417
        8.880001           0.833500           17.97985           17.51546           80.62348
        8.900000           0.847519           18.14699           19.10282           83.91102
        8.920001           0.862111           18.31698           20.91633           87.46478
        8.940000           0.877295           18.48988           22.99939           91.31394
        8.960001           0.893102           18.66586           25.40761           95.49386
        8.980000           0.909554           18.84499           28.20932           100.0411
        9.000001           0.926687           19.02746           31.49326           104.9986
        9.020000           0.944525           19.21333           35.37082           110.4094
        9.040001           0.963110           19.40282           39.98872           116.3205
        9.059999           0.982471           19.59602           45.53510           122.7719
        9.080001           1.002652           19.79312           52.26105           129.7970
        9.099999           1.023691           19.99425           60.49408           137.3985
        9.120001           1.045638           20.19962           70.67422           145.5311
        9.139999           1.068534           20.40936           83.37638           154.0420
        9.160001           1.092439           20.62373           99.35812           162.5941
        9.179999           1.117401           20.84285           119.5594           170.5024
        9.200001           1.143488           21.06700           145.0726           176.4939
        9.219999           1.170758           21.29633           176.8754           178.3275
        9.240001           1.199290           21.53116           215.2040           172.4007
        9.260002           1.229156           21.77169           258.1544           153.7464
        9.280001           1.260434           22.01815           299.8144           117.4977
        9.300002           1.293223           22.27090           329.7643           62.78556
        9.320001           1.327611           22.53014           337.2413          -2.869736
        9.340002           1.363715           22.79629           319.1375          -65.24276
        9.360001           1.401641           23.06959           282.7921          -112.2132
        9.380002           1.441527           23.35049           239.7039          -140.2479
        9.400001           1.483501           23.63928           198.5155          -152.5661
        9.420002           1.527727           23.93645           163.1586          -154.4143
        9.440000           1.574362           24.24237           134.4018          -150.2227
        9.460002           1.623605           24.55758           111.5601          -142.9571
        9.480000           1.675646           24.88250           93.56526          -134.3849
        9.500002           1.730731           25.21777           79.37596          -125.4794
        9.520000           1.789095           25.56386           68.13906          -116.7489
        9.540002           1.851041           25.92152           59.18282          -108.4301
        9.559999           1.916868           26.29131           52.00407          -100.6191
        9.580001           1.986954           26.67408           46.22157          -93.32898
        9.599999           2.061684           27.07053           41.55522          -86.53787
        9.620001           2.141541           27.48162           37.79454          -80.20039
        9.639999           2.227028           27.90818           34.78738          -74.26793
        9.660001           2.318776           28.35137           32.42259          -68.68645
        9.679999           2.417460           28.81217           30.62556          -63.40782
        9.700001           2.523928           29.29196           29.34983          -58.38484
        9.719999           2.639110           29.79191           28.57693          -53.58046
        9.740001           2.764183           30.31363           28.31396          -48.96472
        9.759999           2.900477           30.85855           28.59577          -44.52684
        9.780001           3.049691           31.42857           29.48594          -40.28002
        9.799999           3.213806           32.02531           31.07509          -36.28504
        9.820001           3.395385           32.65089           33.47071          -32.67307
        9.839999           3.597508           33.30703           36.75847          -29.68652
        9.860001           3.824203           33.99579           40.92186          -27.69588
        9.879999           4.080419           34.71832           45.70620          -27.14764
        9.900001           4.372571           35.47540           50.53970          -28.35001
        9.919999           4.708394           36.26551           54.70908          -31.18917
        9.940001           5.097122           37.08441           57.81314          -35.17364
        9.959999           5.547785           37.92173           59.88514          -39.95658
        9.980000           6.066001           38.75952           60.84728          -45.61853
        10.00000           6.645401           39.57066           60.06590          -52.10511
        10.02000           7.255761           40.32686           56.86306          -58.55754
        10.04000           7.837518           41.02255           51.42585          -63.63242
        10.06000           8.323405           41.70399           44.84330          -66.49361
        10.08000           8.690444           42.46764           38.29533          -67.21368
        10.10000           8.986113           43.40533           32.49083          -66.37507
        10.12000           9.294600           44.55741           27.65358          -64.60023
        10.14000           9.687873           45.91674           23.74113          -62.35087
        10.16000           10.21011           47.46123           20.60979          -59.91405
        10.18000           10.88610           49.17303           18.10642          -57.45280
        10.20000           11.73474           51.04637           16.09643          -55.05042
        10.22000           12.77686           53.08418           14.47407          -52.74661
        10.24000           14.04139           55.29775           13.15740          -50.55458
        10.26000           15.56744           57.70171           12.08583          -48.47562
        10.28000           17.40938           60.31477           11.21383          -46.50283
        10.30000           19.63915           63.15429           10.50872          -44.62743
        10.32000           22.35453           66.23643           9.946910          -42.83811
        10.34000           25.68426           69.56687           9.512956          -41.12464
        10.36000           29.80247           73.13480           9.197738          -39.47622
        10.38000           34.93784           76.89063           8.998507          -37.88428
        10.40000           41.39431           80.71860           8.918477          -36.34111
        10.42000           49.55517           84.37574           8.967607          -34.84314
        10.44000           59.88208           87.40197           9.163357          -33.39109
        10.46000           72.83313           88.97001           9.531567          -31.99580
        10.48000           88.65872           87.70831           10.10677          -30.68299
        10.50000           106.8935           81.61201           10.92839          -29.50594
        10.52000           125.5856           68.41632           12.02930          -28.55908
        10.54000           140.7183           46.98184           13.40360          -27.99388
        10.56000           147.3132           19.35005           14.94840          -28.01000
        10.58000           142.6747          -8.853613           16.39005          -28.78106
        10.60000           128.7474          -31.63940           17.29182          -30.28455
        10.62000           110.3878          -46.25089           17.25973          -32.15332
        10.64000           91.92349          -53.41889           16.25105          -33.80589
        10.66000           75.66557          -55.34072           14.61314          -34.81307
        10.68000           62.27156          -54.11894           12.79680          -35.09513
        10.70000           51.57981          -51.24037           11.11006          -34.80650
        10.72000           43.14134          -47.61779           9.679561          -34.15297
        10.74000           36.48793          -43.77077           8.520530          -33.29842
        10.76000           31.21277          -39.97733           7.601083          -32.34915
        10.78000           26.98552          -36.37055           6.877818          -31.36619
        10.80000           23.55387          -33.00016           6.311351          -30.38250
        10.82000           20.73128          -29.86625           5.869503          -29.41345
        10.84000           18.38932          -26.95308           5.528129          -28.46550
        10.86000           16.43516          -24.24211           5.269361          -27.53915
        10.88000           14.79877          -21.71910           5.080780          -26.63269
        10.90000           13.42253          -19.36872           4.954007          -25.74226
        10.92000           12.26043          -17.17666           4.884210          -24.86378
        10.94000           11.27462          -15.12683           4.869466          -23.99217
        10.96000           10.43548          -13.20482           4.910665          -23.12275
        10.98000           9.718864          -11.39571           5.011539          -22.25021
        11.00000           9.106000          -9.686850           5.178916          -21.37010
        11.02000           8.581506          -8.065577           5.423463          -20.47787
        11.04000           8.133415          -6.521396           5.760381          -19.57076
        11.06000           7.751863          -5.043778           6.211076          -18.64779
        11.08000           7.429221          -3.624070           6.804487          -17.71308
        11.10000           7.159230          -2.253424           7.579766          -16.77850
        11.12000           6.937173          -0.924552           8.587322          -15.87180
        11.14000           6.759315           0.370198           9.889641          -15.04707
        11.16000           6.623070           1.637222           11.55306          -14.40460
        11.18000           6.526664           2.883426           13.62585          -14.11495
        11.20000           6.469283           4.114690           16.07850          -14.43914
        11.22000           6.450920           5.337595           18.70301          -15.70063
        11.24000           6.472502           6.557898           21.00635          -18.13285
        11.26000           6.535937           7.782201           22.28217          -21.59241
        11.28000           6.644208           9.016479           22.00727          -25.39239
        11.30000           6.801665           10.26773           20.27766          -28.63297
        11.32000           7.014151           11.54245           17.72144          -30.76989
        11.34000           7.289603           12.84831           15.01038          -31.79557
        11.36000           7.638298           14.19252           12.55292          -31.99370
        11.38000           8.073956           15.58346           10.49381          -31.67906
        11.40000           8.614298           17.02876           8.832064          -31.08752
        11.42000           9.283011           18.53663           7.509401          -30.36779
        11.44000           10.11094           20.11315           6.458580          -29.60569
        11.46000           11.13956           21.76257           5.619105          -28.84706
        11.48000           12.42355           23.48240           4.942806          -28.11516
        11.50000           14.03527           25.25851           4.392498          -27.42044
        11.52000           16.07045           27.05595           3.939780          -26.76612
        11.54000           18.64934           28.79914           3.563515          -26.15227
        11.56000           21.91587           30.34451           3.247488          -25.57674
        11.58000           26.01052           31.43298           2.979564          -25.03702
        11.60000           31.00408           31.63737           2.750274          -24.52998
        11.62000           36.73642           30.34068           2.552439          -24.05288
        11.64000           42.58121           26.86813           2.380333          -23.60281
        11.66000           47.29461           20.93127           2.229556          -23.17743
        11.68000           49.40914           13.23934           2.096518          -22.77431
        11.70000           48.24009           5.533103           1.978422          -22.39157
        11.72000           44.51157          -0.458022           1.872941          -22.02727
        11.74000           39.73969          -4.051597           1.778239          -21.67992
        11.76000           35.20338          -5.610497           1.692755          -21.34798
        11.78000           31.52837          -5.928789           1.615252          -21.03030
        11.80000           28.77597          -5.770612           1.544650          -20.72563
        11.82000           26.64852          -5.657196           1.480093          -20.43308
        11.84000           24.69077          -5.755267           1.420817          -20.15163
        11.86000           22.55783          -5.879562           1.366212          -19.88059
        11.88000           20.21218          -5.712217           1.315728          -19.61914
        11.90000           17.85685          -5.079427           1.268920          -19.36670
        11.92000           15.70940          -4.017089           1.225380          -19.12262
        11.94000           13.88190          -2.662755           1.184783          -18.88642
        11.96000           12.38709          -1.150774           1.146819          -18.65756
        11.98000           11.18940           0.424009           1.111244          -18.43568
        12.00000           10.23832           2.006745           1.077820          -18.22029
        12.02000           9.486667           3.568739           1.046361          -18.01110
        12.04000           8.894620           5.098748           1.016682          -17.80770
        12.06000           8.431238           6.593756           0.988638          -17.60986
        12.08000           8.072457           8.056646           0.962083          -17.41722
        12.10000           7.800244           9.491846           0.936904          -17.22959
        12.12000           7.600799           10.90585           0.912984          -17.04666
        12.14000           7.463876           12.30472           0.890233          -16.86826
        12.16000           7.381732           13.69550           0.868556          -16.69414
        12.18000           7.348725           15.08428           0.847882          -16.52415
        12.20000           7.360776           16.47799           0.828131          -16.35806
        12.22000           7.415137           17.88277           0.809244          -16.19573
        12.24000           7.510112           19.30475           0.791165          -16.03702
        12.26000           7.644999           20.75075           0.773834          -15.88175
        12.28000           7.819862           22.22677           0.757209          -15.72981
        12.30000           8.035666           23.73996           0.741239          -15.58104
        12.32000           8.294022           25.29672           0.725891          -15.43536
        12.34000           8.597490           26.90487           0.711121          -15.29260
        12.36000           8.949299           28.57162           0.696900          -15.15271
        12.38000           9.353811           30.30581           0.683193          -15.01554
        12.40000           9.816197           32.11593           0.669974          -14.88104
        12.42000           10.34311           34.01239           0.657212          -14.74906
        12.44000           10.94232           36.00539           0.644888          -14.61959
        12.46000           11.62366           38.10756           0.632973          -14.49247
        12.48000           12.39858           40.33154           0.621451          -14.36768
        12.50000           13.28158           42.69292           0.610299          -14.24510
        12.52000           14.28969           45.20760           0.599500          -14.12472
        12.54000           15.44450           47.89513           0.589035          -14.00641
        12.56000           16.77180           50.77570           0.578892          -13.89015
        12.58000           18.30446           53.87393           0.569050          -13.77585
        12.60000           20.08247           57.21534           0.559501          -13.66349
        12.62000           22.15733           60.83059           0.550227          -13.55296
        12.64000           24.59293           64.75100           0.541220          -13.44427
        12.66000           27.47265           69.01289           0.532465          -13.33731
        12.68000           30.90206           73.65125           0.523953          -13.23208
        12.70000           35.02087           78.70266           0.515673          -13.12849
        12.72000           40.00954           84.19421           0.507616          -13.02654
        12.74000           46.10981           90.14039           0.499772          -12.92614
        12.76000           53.63810           96.51821           0.492134          -12.82730
        12.78000           63.01881           103.2424           0.484691          -12.72994
        12.80000           74.80233           110.0993           0.477439          -12.63405
        12.82000           89.69830           116.6535           0.470368          -12.53956
        12.84000           108.5440           122.0671           0.463473          -12.44647
        12.86000           132.1976           124.8424           0.456746          -12.35472
        12.88000           161.1224           122.4843           0.450182          -12.26431
        12.90000           194.5293           111.3300           0.443773          -12.17516
        12.92000           228.9005           87.20863           0.437516          -12.08728
        12.94000           256.9432           47.92743           0.431405          -12.00063
        12.96000           269.4877          -2.938154           0.425433          -11.91518
        12.98000           261.3978          -55.16061           0.419599          -11.83091
        13.00000           236.0464          -97.64877           0.413895          -11.74777
        13.02000           202.3100          -125.1551           0.408318          -11.66576
        13.04000           168.2195          -138.9059           0.402864          -11.58484
        13.06000           138.1127          -142.9163           0.397528          -11.50501
        13.08000           113.2516          -141.0721           0.392307          -11.42621
        13.10000           93.35980          -136.1313           0.387198          -11.34845
        13.12000           77.61666          -129.7875           0.382196          -11.27168
        13.14000           65.16557          -123.0013           0.377300          -11.19591
        13.16000           55.26204          -116.2803           0.372503          -11.12110
        13.18000           47.32260          -109.8783           0.367806          -11.04723
        13.20000           40.89533          -103.9024           0.363203          -10.97429
        13.22000           35.64283          -98.38717           0.358693          -10.90226
        13.24000           31.30744          -93.32408           0.354272          -10.83110
        13.26000           27.69695          -88.68881           0.349939          -10.76083
        13.28000           24.66279          -84.44585           0.345690          -10.69141
        13.30000           22.09285          -80.56052           0.341524          -10.62283
        13.32000           19.89872          -76.99639           0.337437          -10.55506
        13.34000           18.01272          -73.72182           0.333429          -10.48811
        13.36000           16.38035          -70.70586           0.329495          -10.42193
        13.38000           14.95928          -67.92272           0.325636          -10.35655
        13.40000           13.71470          -65.34764           0.321847          -10.29191
        13.42000           12.61928          -62.96034           0.318129          -10.22804
        13.44000           11.65007          -60.74138           0.314478          -10.16489
        13.46000           10.78886          -58.67498           0.310893          -10.10246
        13.48000           10.02008          -56.74589           0.307372          -10.04074
        13.50000           9.331269          -54.94186           0.303915          -9.979720
        13.52000           8.711589          -53.25087           0.300518          -9.919372
        13.54000           8.152314          -51.66335           0.297181          -9.859708
        13.56000           7.645719          -50.16977           0.293902          -9.800691
        13.58000           7.185552          -48.76257           0.290679          -9.742332
        13.60000           6.766197          -47.43414           0.287511          -9.684601
        13.62000           6.383094          -46.17848           0.284398          -9.627503
        13.64000           6.032074          -44.98940           0.281337          -9.571012
        13.66000           5.709711          -43.86197           0.278327          -9.515126
        13.68000           5.413009          -42.79165           0.275368          -9.459846
        13.70000           5.139227          -41.77389           0.272457          -9.405140
        13.72000           4.886142          -40.80520           0.269594          -9.351020
        13.74000           4.651640          -39.88179           0.266778          -9.297456
        13.76000           4.434009          -39.00083           0.264007          -9.244458
        13.78000           4.231599          -38.15915           0.261281          -9.191999
        13.80000           4.043078          -37.35442           0.258598          -9.140088
        13.82000           3.867142          -36.58398           0.255958          -9.088699
        13.84000           3.702744          -35.84589           0.253360          -9.037841
        13.86000           3.548841          -35.13790           0.250802          -8.987489
        13.88000           3.404598          -34.45839           0.248284          -8.937651
        13.90000           3.269177          -33.80544           0.245804          -8.888303
        13.92000           3.141909          -33.17770           0.243363          -8.839454
        13.94000           3.022109          -32.57352           0.240959          -8.791080
        13.96000           2.909235          -31.99176           0.238592          -8.743190
        13.98000           2.802726          -31.43098           0.236260          -8.695761
        14.00000           2.702139          -30.89023           0.233964          -8.648800
        14.02000           2.607011          -30.36825           0.231701          -8.602286
        14.04000           2.516978          -29.86423           0.229472          -8.556231
        14.06000           2.431651          -29.37708           0.227276          -8.510606
        14.08000           2.350732          -28.90609           0.225112          -8.465424
        14.10000           2.273895          -28.45031           0.222979          -8.420664
        14.12000           2.200888          -28.00914           0.220877          -8.376334
        14.14000           2.131438          -27.58174           0.218805          -8.332412
        14.16000           2.065336          -27.16758           0.216763          -8.288908
        14.18000           2.002347          -26.76591           0.214750          -8.245801
        14.20000           1.942296          -26.37630           0.212766          -8.203100
        14.22000           1.884982          -25.99805           0.210809          -8.160788
        14.24000           1.830257          -25.63080           0.208880          -8.118867
        14.26000           1.777949          -25.27395           0.206977          -8.077322
        14.28000           1.727931          -24.92714           0.205101          -8.036161
        14.30000           1.680055          -24.58986           0.203250          -7.995368
        14.32000           1.634212          -24.26179           0.201425          -7.954945
        14.34000           1.590275          -23.94247           0.199625          -7.914878
        14.36000           1.548151          -23.63163           0.197849          -7.875174
        14.38000           1.507727          -23.32882           0.196097          -7.835816
        14.40000           1.468918          -23.03380           0.194368          -7.796806
        14.42000           1.431643          -22.74628           0.192663          -7.758145
        14.44000           1.395811          -22.46591           0.190980          -7.719816
        14.46000           1.361356          -22.19247           0.189319          -7.681825
        14.48000           1.328200          -21.92565           0.187680          -7.644160
        14.50000           1.296285          -21.66526           0.186063          -7.606824
        14.52000           1.265540          -21.41100           0.184466          -7.569803
        14.54000           1.235916          -21.16272           0.182890          -7.533105
        14.56000           1.207351          -20.92012           0.181334          -7.496713
        14.58000           1.179803          -20.68309           0.179799          -7.460637
        14.60000           1.153213          -20.45137           0.178283          -7.424859
        14.62000           1.127547          -20.22482           0.176786          -7.389387
        14.64000           1.102752          -20.00323           0.175308          -7.354206
        14.66000           1.078797          -19.78647           0.173848          -7.319324
        14.68000           1.055636          -19.57433           0.172407          -7.284726
        14.70000           1.033242          -19.36672           0.170984          -7.250420
        14.72000           1.011572          -19.16343           0.169578          -7.216392
        14.74000           0.990604          -18.96438           0.168189          -7.182645
        14.76000           0.970298          -18.76937           0.166818          -7.149171
        14.78000           0.950634          -18.57835           0.165463          -7.115974
        14.80000           0.931579          -18.39113           0.164125          -7.083040
        14.82000           0.913112          -18.20764           0.162803          -7.050376
        14.84000           0.895204          -18.02773           0.161497          -7.017971
        14.86000           0.877838          -17.85133           0.160207          -6.985828
        14.88000           0.860986          -17.67829           0.158932          -6.953939
        14.90000           0.844633          -17.50856           0.157672          -6.922306
        14.92000           0.828753          -17.34200           0.156427          -6.890918
        14.94000           0.813334          -17.17856           0.155197          -6.859783
        14.96000           0.798353          -17.01811           0.153981          -6.828887
        14.98000           0.783797          -16.86061           0.152780          -6.798237
        15.00000           0.769646          -16.70592           0.151592          -6.767820
        15.02000           0.755889          -16.55403           0.150418          -6.737646
        15.04000           0.742507          -16.40481           0.149258          -6.707698
        15.06000           0.729491          -16.25822           0.148111          -6.677986
        15.08000           0.716822          -16.11416           0.146977          -6.648497
        15.10000           0.704493          -15.97260           0.145856          -6.619237
        15.12000           0.692487          -15.83343           0.144748          -6.590196
        15.14000           0.680795          -15.69661           0.143652          -6.561376
        15.16000           0.669407          -15.56210           0.142568          -6.532776
        15.18000           0.658309          -15.42980           0.141497          -6.504388
        15.20000           0.647495          -15.29970           0.140438          -6.476216
        15.22000           0.636952          -15.17170           0.139390          -6.448251
        15.24000           0.626673          -15.04578           0.138354          -6.420498
        15.26000           0.616647          -14.92186           0.137330          -6.392946
        15.28000           0.606868          -14.79993           0.136316          -6.365602
        15.30000           0.597325          -14.67989           0.135314          -6.338457
        15.32000           0.588014          -14.56175           0.134323          -6.311513
        15.34000           0.578923          -14.44542           0.133342          -6.284763
        15.36000           0.570049          -14.33089           0.132372          -6.258212
        15.38000           0.561382          -14.21808           0.131413          -6.231849
        15.40000           0.552918          -14.10699           0.130464          -6.205680
        15.42000           0.544648          -13.99755           0.129524          -6.179696
        15.44000           0.536568          -13.88976           0.128595          -6.153903
        15.46000           0.528671          -13.78353           0.127676          -6.128290
        15.48000           0.520953          -13.67887           0.126767          -6.102864
        15.50000           0.513406          -13.57571           0.125867          -6.077615
        15.52000           0.506027          -13.47406           0.124976          -6.052548
        15.54000           0.498809          -13.37383           0.124095          -6.027655
        15.56000           0.491750          -13.27505           0.123223          -6.002941
        15.58000           0.484843          -13.17764           0.122360          -5.978395
        15.60000           0.478085          -13.08159           0.121506          -5.954026
        15.62000           0.471470          -12.98687           0.120661          -5.929821
        15.64000           0.464995          -12.89347           0.119824          -5.905789
        15.66000           0.458656          -12.80132           0.118996          -5.881920
        15.68000           0.452450          -12.71043           0.118176          -5.858220
        15.70000           0.446370          -12.62076           0.117365          -5.834677
        15.72000           0.440417          -12.53230           0.116562          -5.811301
        15.74000           0.434584          -12.44499           0.115767          -5.788079
        15.76000           0.428870          -12.35885           0.114980          -5.765019
        15.78000           0.423269          -12.27382           0.114201          -5.742113
        15.80000           0.417781          -12.18991           0.113429          -5.719365
        15.82000           0.412401          -12.10706           0.112665          -5.696766
        15.84000           0.407127          -12.02529           0.111909          -5.674324
        15.86000           0.401955          -11.94455           0.111160          -5.652027
        15.88000           0.396884          -11.86482           0.110419          -5.629879
        15.90000           0.391910          -11.78611           0.109685          -5.607883
        15.92000           0.387031          -11.70837           0.108958          -5.586029
        15.94000           0.382246          -11.63160           0.108238          -5.564323
        15.96000           0.377549          -11.55577           0.107525          -5.542757
        15.98000           0.372942          -11.48087           0.106819          -5.521336
        16.00000           0.368419          -11.40687           0.106120          -5.500052
        16.02000           0.363981          -11.33378           0.105427          -5.478909
        16.04000           0.359623          -11.26155           0.104741          -5.457902
        16.06000           0.355345          -11.19019           0.104062          -5.437035
        16.08000           0.351144          -11.11966           0.103389          -5.416299
        16.10000           0.347019          -11.04998           0.102723          -5.395700
        16.12000           0.342968          -10.98110           0.102063          -5.375230
        16.14000           0.338989          -10.91303           0.101409          -5.354895
        16.16000           0.335079          -10.84573           0.100761          -5.334687
        16.18000           0.331239          -10.77922           0.100119          -5.314611
        16.20000           0.327465          -10.71346           0.099483          -5.294659
        16.22000           0.323757          -10.64845           0.098853          -5.274837
        16.24000           0.320112          -10.58416           0.098229          -5.255137
        16.26000           0.316530          -10.52061           0.097611          -5.235565
        16.28000           0.313009          -10.45775           0.096998          -5.216111
        16.30000           0.309547          -10.39560           0.096391          -5.196784
        16.32000           0.306143          -10.33412           0.095789          -5.177574
        16.34000           0.302797          -10.27332           0.095193          -5.158486
        16.36000           0.299505          -10.21318           0.094603          -5.139514
        16.38000           0.296268          -10.15370           0.094018          -5.120662
        16.40000           0.293084          -10.09485           0.093438          -5.101923
        16.42000           0.289952          -10.03664           0.092863          -5.083304
        16.44000           0.286870          -9.979035           0.092293          -5.064795
        16.46000           0.283839          -9.922051           0.091729          -5.046404
        16.48000           0.280856          -9.865660           0.091169          -5.028121
        16.50000           0.277920          -9.809864           0.090615          -5.009953
        16.52000           0.275031          -9.754643           0.090065          -4.991890
        16.54000           0.272187          -9.700003           0.089521          -4.973942
        16.56000           0.269388          -9.645914           0.088981          -4.956099
        16.58000           0.266632          -9.592381           0.088446          -4.938362
        16.60000           0.263920          -9.539402           0.087915          -4.920736
        16.62000           0.261248          -9.486949           0.087389          -4.903212
        16.64000           0.258618          -9.435036           0.086868          -4.885795
        16.66000           0.256028          -9.383634           0.086351          -4.868479
        16.68000           0.253477          -9.332753           0.085839          -4.851270
        16.70000           0.250965          -9.282370           0.085331          -4.834158
        16.72000           0.248490          -9.232491           0.084828          -4.817151
        16.74000           0.246052          -9.183092           0.084328          -4.800241
        16.76000           0.243651          -9.134188           0.083834          -4.783434
        16.78000           0.241284          -9.085751           0.083343          -4.766721
        16.80000           0.238953          -9.037787           0.082856          -4.750110
        16.82000           0.236655          -8.990279           0.082374          -4.733593
        16.84000           0.234391          -8.943235           0.081896          -4.717175
        16.86000           0.232159          -8.896630           0.081421          -4.700848
        16.88000           0.229960          -8.850476           0.080951          -4.684619
        16.90000           0.227792          -8.804749           0.080485          -4.668480
        16.92000           0.225655          -8.759461           0.080022          -4.652438
        16.94000           0.223548          -8.714586           0.079564          -4.636484
        16.96000           0.221471          -8.670138           0.079109          -4.620624
        16.98000           0.219422          -8.626095           0.078658          -4.604852
        17.00000           0.217403          -8.582463           0.078211          -4.589173
        17.02000           0.215411          -8.539225           0.077767          -4.573580
        17.04000           0.213447          -8.496389           0.077327          -4.558079
        17.06000           0.211510          -8.453937           0.076891          -4.542662
        17.08000           0.209599          -8.411872           0.076458          -4.527334
        17.10000           0.207715          -8.370180           0.076029          -4.512090
        17.12000           0.205856          -8.328869           0.075603          -4.496934
        17.14000           0.204022          -8.287920           0.075181          -4.481859
        17.16000           0.202212          -8.247341           0.074762          -4.466873
        17.18000           0.200427          -8.207114           0.074347          -4.451967
        17.20000           0.198665          -8.167249           0.073935          -4.437145
        17.22000           0.196927          -8.127726           0.073526          -4.422403
        17.24000           0.195212          -8.088553           0.073120          -4.407745
        17.26000           0.193518          -8.049714           0.072718          -4.393166
        17.28000           0.191848          -8.011216           0.072319          -4.378669
        17.30000           0.190198          -7.973046           0.071923          -4.364249
        17.32000           0.188570          -7.935202           0.071530          -4.349907
        17.34000           0.186963          -7.897686           0.071140          -4.335647
        17.36000           0.185377          -7.860483           0.070753          -4.321462
        17.38000           0.183811          -7.823602           0.070370          -4.307355
        17.40000           0.182264          -7.787025           0.069989          -4.293324
        17.42000           0.180738          -7.750760           0.069612          -4.279370
        17.44000           0.179230          -7.714792           0.069237          -4.265489
        17.46000           0.177741          -7.679130           0.068865          -4.251685
        17.48000           0.176271          -7.643757           0.068496          -4.237953
        17.50000           0.174819          -7.608681           0.068130          -4.224296
        17.52000           0.173385          -7.573888           0.067767          -4.210709
        17.54000           0.171969          -7.539385           0.067406          -4.197198
        17.56000           0.170569          -7.505157           0.067049          -4.183755
        17.58000           0.169188          -7.471212           0.066694          -4.170387
        17.60000           0.167822          -7.437538           0.066342          -4.157088
        17.62000           0.166474          -7.404138           0.065992          -4.143860
        17.64000           0.165141          -7.371001           0.065645          -4.130700
        17.66000           0.163825          -7.338134           0.065301          -4.117610
        17.68000           0.162524          -7.305523           0.064959          -4.104588
        17.70000           0.161239          -7.273176           0.064620          -4.091634
        17.72000           0.159968          -7.241076           0.064284          -4.078748
        17.74000           0.158713          -7.209238           0.063950          -4.065929
        17.76000           0.157473          -7.177641           0.063618          -4.053176
        17.78000           0.156247          -7.146296           0.063289          -4.040490
        17.80000           0.155035          -7.115189           0.062962          -4.027869
        17.82000           0.153838          -7.084327           0.062638          -4.015314
        17.84000           0.152654          -7.053698           0.062317          -4.002820
        17.86000           0.151484          -7.023311           0.061997          -3.990395
        17.88000           0.150327          -6.993149           0.061680          -3.978030
        17.90000           0.149183          -6.963222           0.061365          -3.965730
        17.92000           0.148053          -6.933518           0.061053          -3.953492
        17.94000           0.146935          -6.904045           0.060743          -3.941317
        17.96000           0.145830          -6.874786           0.060435          -3.929202
        17.98000           0.144737          -6.845753           0.060130          -3.917150
        18.00000           0.143656          -6.816932           0.059826          -3.905157
        18.02000           0.142588          -6.788331           0.059525          -3.893227
        18.04000           0.141531          -6.759935           0.059226          -3.881355
        18.06000           0.140486          -6.731750           0.058929          -3.869542
        18.08000           0.139453          -6.703778           0.058635          -3.857790
        18.10000           0.138431          -6.676006           0.058342          -3.846094
        18.12000           0.137420          -6.648443           0.058051          -3.834460
        18.14000           0.136420          -6.621076           0.057763          -3.822881
        18.16000           0.135431          -6.593910           0.057477          -3.811361
        18.18000           0.134452          -6.566938           0.057192          -3.799897
        18.20000           0.133484          -6.540164           0.056910          -3.788491
        18.22000           0.132527          -6.513578           0.056630          -3.777140
        18.24000           0.131579          -6.487188           0.056351          -3.765846
        18.26000           0.130642          -6.460979           0.056075          -3.754606
        18.28000           0.129715          -6.434963           0.055801          -3.743423
        18.30000           0.128797          -6.409126           0.055528          -3.732292
        18.32000           0.127890          -6.383475           0.055258          -3.721217
        18.34000           0.126991          -6.358001           0.054989          -3.710195
        18.36000           0.126102          -6.332710           0.054722          -3.699228
        18.38000           0.125222          -6.307591           0.054457          -3.688312
        18.40000           0.124352          -6.282651           0.054194          -3.677451
        18.42000           0.123490          -6.257879           0.053933          -3.666640
        18.44000           0.122638          -6.233284           0.053673          -3.655884
        18.46000           0.121794          -6.208853           0.053416          -3.645177
        18.48000           0.120958          -6.184595           0.053160          -3.634523
        18.50000           0.120132          -6.160498           0.052906          -3.623919
        18.52000           0.119313          -6.136570           0.052653          -3.613367
        18.54000           0.118503          -6.112799           0.052402          -3.602864
        18.56000           0.117701          -6.089194           0.052153          -3.592411
        18.58000           0.116907          -6.065746           0.051906          -3.582008
        18.60000           0.116121          -6.042459           0.051660          -3.571655
        18.62000           0.115343          -6.019323           0.051417          -3.561349
        18.64000           0.114573          -5.996346           0.051174          -3.551093
        18.66000           0.113810          -5.973519           0.050934          -3.540884
        18.68000           0.113055          -5.950847           0.050694          -3.530725
        18.70000           0.112307          -5.928321           0.050457          -3.520612
        18.72000           0.111566          -5.905948           0.050221          -3.510547
        18.74000           0.110833          -5.883718           0.049987          -3.500528
        18.76000           0.110107          -5.861639           0.049754          -3.490558
        18.78000           0.109388          -5.839699           0.049523          -3.480632
        18.80000           0.108676          -5.817902           0.049293          -3.470752
        18.82000           0.107971          -5.796251           0.049065          -3.460920
        18.84000           0.107272          -5.774736           0.048839          -3.451131
        18.86000           0.106581          -5.753364           0.048613          -3.441389
        18.88000           0.105895          -5.732126           0.048390          -3.431691
        18.90000           0.105217          -5.711028           0.048168          -3.422038
        18.92000           0.104544          -5.690060           0.047947          -3.412429
        18.94000           0.103879          -5.669230           0.047728          -3.402864
        18.96000           0.103219          -5.648529           0.047510          -3.393342
        18.98000           0.102566          -5.627962           0.047293          -3.383865
        19.00000           0.101918          -5.607522           0.047078          -3.374430
        19.02000           0.101277          -5.587216           0.046865          -3.365038
        19.04000           0.100642          -5.567032           0.046652          -3.355689
        19.06000           0.100013          -5.546978           0.046442          -3.346382
        19.08000           0.099389          -5.527046           0.046232          -3.337116
        19.10000           0.098771          -5.507242           0.046024          -3.327893
        19.12000           0.098159          -5.487556           0.045817          -3.318711
        19.14000           0.097553          -5.467996           0.045612          -3.309571
        19.16000           0.096952          -5.448553           0.045407          -3.300471
        19.18000           0.096356          -5.429234           0.045205          -3.291412
        19.20000           0.095766          -5.410029           0.045003          -3.282393
        19.22000           0.095181          -5.390944           0.044803          -3.273415
        19.24000           0.094601          -5.371974           0.044604          -3.264476
        19.26000           0.094027          -5.353121           0.044406          -3.255579
        19.28000           0.093458          -5.334380           0.044209          -3.246718
        19.30000           0.092894          -5.315755           0.044014          -3.237898
        19.32000           0.092335          -5.297238           0.043820          -3.229116
        19.34000           0.091781          -5.278837           0.043627          -3.220375
        19.36000           0.091231          -5.260542           0.043436          -3.211670
        19.38000           0.090687          -5.242360           0.043245          -3.203004
        19.40000           0.090148          -5.224283           0.043056          -3.194376
        19.42000           0.089613          -5.206317           0.042868          -3.185786
        19.44000           0.089082          -5.188454           0.042681          -3.177232
        19.46000           0.088557          -5.170699           0.042495          -3.168717
        19.48000           0.088036          -5.153046           0.042311          -3.160238
        19.50000           0.087519          -5.135497           0.042127          -3.151795
        19.52000           0.087007          -5.118052           0.041945          -3.143391
        19.54000           0.086500          -5.100708           0.041764          -3.135021
        19.56000           0.085997          -5.083468           0.041583          -3.126689
        19.58000           0.085498          -5.066324           0.041405          -3.118392
        19.60000           0.085003          -5.049282           0.041227          -3.110131
        19.62000           0.084512          -5.032337           0.041050          -3.101904
        19.64000           0.084026          -5.015491           0.040874          -3.093714
        19.66000           0.083544          -4.998739           0.040699          -3.085558
        19.68000           0.083066          -4.982087           0.040526          -3.077438
        19.70000           0.082592          -4.965527           0.040353          -3.069352
        19.72000           0.082122          -4.949063           0.040182          -3.061301
        19.74000           0.081655          -4.932691           0.040011          -3.053282
        19.76000           0.081193          -4.916413           0.039842          -3.045299
        19.78000           0.080735          -4.900225           0.039674          -3.037349
        19.80000           0.080280          -4.884132           0.039506          -3.029433
        19.82000           0.079829          -4.868126           0.039340          -3.021549
        19.84000           0.079382          -4.852212           0.039174          -3.013700
        19.86000           0.078938          -4.836386           0.039010          -3.005883
        19.88000           0.078498          -4.820650           0.038846          -2.998100
        19.90000           0.078062          -4.804999           0.038684          -2.990347
        19.92000           0.077629          -4.789436           0.038523          -2.982630
        19.94000           0.077200          -4.773959           0.038362          -2.974941
        19.96000           0.076775          -4.758568           0.038202          -2.967288
        19.98000           0.076352          -4.743259           0.038044          -2.959664
        20.00000           0.075933          -4.728039           0.037886          -2.952074
# 
# 02/11/2024 at 10:30 yambo @ unimi-XPS-8930 [start]
# 02/11/2024 at 10:30                        [end]
#  
# Timing   [Min/Max/Average]: 04s/04s/04s
#
# .-Input file  yambo.in
# | rim_cut                          # [R] Coulomb potential
# | optics                           # [R] Linear Response optical properties
# | bss                              # [R] BSE solver
# | bse                              # [R][BSE] Bethe Salpeter Equation.
# | ElecTemp= 0.025861         eV    # Electronic Temperature
# | BoseTemp= 0.025861         eV    # Bosonic Temperature
# | DIP_Threads= 1                   # [OPENMP/X] Number of threads for dipoles
# | BS_nCPU_LinAlg_INV= 1            # [PARALLEL] CPUs for Linear Algebra (if -1 it is automatically set)
# | BS_nCPU_LinAlg_DIAGO= 1          # [PARALLEL] CPUs for Linear Algebra (if -1 it is automatically set)
# | X_Threads= 1                     # [OPENMP/X] Number of threads for response functions
# | K_Threads= 1                     # [OPENMP/BSK] Number of threads for response functions
# | RandQpts=0                       # [RIM] Number of random q-points in the BZ
# | RandGvec= 1                RL    # [RIM] Coulomb interaction RS components
# | CUTGeo= "ws xyz"                 # [CUT] Coulomb Cutoff geometry: box/cylinder/sphere/ws/slab X/Y/Z/XY..
# | % CUTBox
# |  0.000000 | 0.000000 | 0.000000 |        # [CUT] [au] Box sides
# | %
# | CUTRadius= 0.000000              # [CUT] [au] Sphere/Cylinder radius
# | CUTCylLen= 0.000000              # [CUT] [au] Cylinder length
# | CUTwsGvec= 0.700000              # [CUT] WS cutoff: number of G to be modified
# | BSKmod= "ALDA"                   # [BSE] IP/Hartree/HF/ALDA/SEX/BSfxc
# | BSEmod= "retarded"               # [BSE] resonant/retarded/coupling
# | BSSmod= "hd"                     # [BSS] (h)aydock/(d)iagonalization/(s)lepc/(i)nversion/(t)ddft`
# | % DipBands
# |   2 |  7 |                           # [DIP] Bands range for dipoles
# | %
# | DipApproach= "R-space x"         # [DIP] [G-space v/R-space x/Covariant/Shifted grids]
# | DipComputed= "R V P"             # [DIP] [default R P V; extra P2 Spin Orb]
# | BSENGexx=  4015            RL    # [BSK] Exchange components
# | FxcLibxc                       # [BSK] force computing Fxc via libxc
# | % BSEQptR
# |  1 | 1 |                             # [BSK] Transferred momenta range
# | %
# | % BSEBands
# |   2 |  7 |                           # [BSK] Bands range
# | %
# | % BEnRange
# | -20.00000 | 20.00000 |         eV    # [BSS] Energy range
# | %
# | % BDmRange
# |  0.100000 | 0.100000 |         eV    # [BSS] Damping range
# | %
# | BEnSteps= 2001                   # [BSS] Energy steps
# | % BLongDir
# |  1.000000 | 0.000000 | 0.000000 |        # [BSS] [cc] Electric Field versor
# | %
# | BSEprop= " abs jdos dich kerr esrt" # [BSS] Can be any among abs/jdos/kerr/asymm/anHAll/magn/dich/photolum/esrt
# | BSEdips= "none"                  # [BSS] Can be "trace/none" or "xy/xz/yz" to define off-diagonal rotation plane
# | #WRbsWF                        # [BSS] Write to disk excitonic the WFs
# | BSHayTrs= 0.100000E-2            # [BSS] Relative [o/o] Haydock threshold. Strict(>0)/Average(<0)
# | BSHayItrMAX= 200                 # [BSS] MaX number of Haydock iterations.
