#  __  __   ________   ___ __ __    _______   ______        
# /_/\/_/\ /_______/\ /__//_//_/\ /_______/\ /_____/\       
# \ \ \ \ \\::: _  \ \\::\| \| \ \\::: _  \ \\:::_ \ \      
#  \:\_\ \ \\::(_)  \ \\:.      \ \\::(_)  \/_\:\ \ \ \     
#   \::::_\/ \:: __  \ \\:.\-/\  \ \\::  _  \ \\:\ \ \ \    
#     \::\ \  \:.\ \  \ \\. \  \  \ \\::(_)  \ \\:\_\ \ \   
#      \__\/   \__\/\__\/ \__\/ \__\/ \_______\/ \_____\/   
#                                                           
#               Version 3.4.2 Revision 5424                 
#                http://www.yambo-code.org                  
#
#  E  [meV]   gF^2 sum   gF^2 Fan   gF^2  DW   gF^2 Cor   Gamma(G)   G   Bose   G F
#
  0.00      -.512E-04  0.202E-01  -.202E-01  -.183E-04  -.853E-08  0.493E-10  -.858E-08
 0.146      -.590E-04  0.232E-01  -.233E-01  -.211E-04  -.983E-08  0.570E-10  -.989E-08
 0.292      -.680E-04  0.267E-01  -.268E-01  -.243E-04  -.113E-07  0.660E-10  -.114E-07
 0.438      -.783E-04  0.308E-01  -.308E-01  -.279E-04  -.130E-07  0.763E-10  -.131E-07
 0.584      -.901E-04  0.353E-01  -.354E-01  -.321E-04  -.150E-07  0.883E-10  -.151E-07
 0.730      -.103E-03  0.406E-01  -.406E-01  -.368E-04  -.173E-07  0.102E-09  -.174E-07
 0.876      -.119E-03  0.465E-01  -.466E-01  -.422E-04  -.198E-07  0.118E-09  -.199E-07
  1.02      -.136E-03  0.532E-01  -.533E-01  -.483E-04  -.227E-07  0.137E-09  -.229E-07
  1.17      -.156E-03  0.608E-01  -.609E-01  -.552E-04  -.260E-07  0.158E-09  -.262E-07
  1.31      -.178E-03  0.694E-01  -.695E-01  -.630E-04  -.298E-07  0.183E-09  -.300E-07
  1.46      -.204E-03  0.790E-01  -.791E-01  -.717E-04  -.340E-07  0.212E-09  -.342E-07
  1.61      -.232E-03  0.897E-01  -.899E-01  -.814E-04  -.388E-07  0.245E-09  -.390E-07
  1.75      -.264E-03  0.102      -.102      -.922E-04  -.441E-07  0.284E-09  -.444E-07
  1.90      -.299E-03  0.115      -.115      -.104E-03  -.500E-07  0.328E-09  -.503E-07
  2.04      -.338E-03  0.129      -.129      -.117E-03  -.566E-07  0.380E-09  -.570E-07
  2.19      -.381E-03  0.145      -.145      -.131E-03  -.638E-07  0.439E-09  -.643E-07
  2.34      -.427E-03  0.161      -.162      -.146E-03  -.718E-07  0.508E-09  -.723E-07
  2.48      -.478E-03  0.179      -.179      -.163E-03  -.804E-07  0.588E-09  -.810E-07
  2.63      -.533E-03  0.198      -.198      -.179E-03  -.898E-07  0.680E-09  -.904E-07
  2.77      -.591E-03  0.217      -.217      -.197E-03  -.998E-07  0.786E-09  -.101E-06
  2.92      -.653E-03  0.236      -.237      -.215E-03  -.110E-06  0.909E-09  -.111E-06
  3.067     -.7169E-3  0.2558     -.2563     -.2325E-3  -.1216E-6  0.1050E-8  -.1226E-6
  3.213     -.7835E-3  0.2747     -.2752     -.2497E-3  -.1333E-6  0.1214E-8  -.1345E-6
  3.359     -.8518E-3  0.2924     -.2930     -.2660E-3  -.1454E-6  0.1403E-8  -.1468E-6
  3.505     -.9214E-3  0.3086     -.3092     -.2809E-3  -.1579E-6  0.1621E-8  -.1595E-6
  3.651     -.9918E-3  0.3226     -.3233     -.2939E-3  -.1708E-6  0.1873E-8  -.1726E-6
  3.797     -.1063E-2  0.3339     -.3347     -.3044E-3  -.1839E-6  0.2163E-8  -.1861E-6
  3.943     -.1134E-2  0.3422     -.3430     -.3123E-3  -.1974E-6  0.2497E-8  -.1999E-6
  4.089     -.1207E-2  0.3470     -.3479     -.3171E-3  -.2115E-6  0.2881E-8  -.2143E-6
  4.235     -.1281E-2  0.3482     -.3491     -.3187E-3  -.2261E-6  0.3323E-8  -.2295E-6
  4.381     -.1359E-2  0.3457     -.3467     -.3170E-3  -.2418E-6  0.3831E-8  -.2456E-6
  4.527     -.1442E-2  0.3397     -.3408     -.3123E-3  -.2588E-6  0.4414E-8  -.2632E-6
  4.673     -.1534E-2  0.3303     -.3316     -.3047E-3  -.2776E-6  0.5082E-8  -.2827E-6
  4.819     -.1636E-2  0.3181     -.3195     -.2946E-3  -.2988E-6  0.5846E-8  -.3047E-6
  4.965     -.1753E-2  0.3035     -.3050     -.2825E-3  -.3232E-6  0.6718E-8  -.3299E-6
  5.111     -.1890E-2  0.2870     -.2886     -.2688E-3  -.3515E-6  0.7712E-8  -.3592E-6
  5.257     -.2051E-2  0.2691     -.2709     -.2541E-3  -.3846E-6  0.8841E-8  -.3934E-6
  5.403     -.2241E-2  0.2505     -.2525     -.2390E-3  -.4234E-6  0.1012E-7  -.4336E-6
  5.549     -.2466E-2  0.2316     -.2338     -.2238E-3  -.4692E-6  0.1156E-7  -.4808E-6
  5.695     -.2733E-2  0.2128     -.2153     -.2091E-3  -.5231E-6  0.1318E-7  -.5363E-6
  5.841     -.3050E-2  0.1946     -.1974     -.1952E-3  -.5864E-6  0.1498E-7  -.6014E-6
  5.987     -.3423E-2  0.1772     -.1804     -.1825E-3  -.6606E-6  0.1697E-7  -.6776E-6
  6.133     -.3863E-2  0.1609     -.1646     -.1713E-3  -.7473E-6  0.1916E-7  -.7665E-6
  6.279     -.4378E-2  0.1458     -.1501     -.1617E-3  -.8484E-6  0.2153E-7  -.8699E-6
  6.425     -.4982E-2  0.1321     -.1370     -.1540E-3  -.9659E-6  0.2406E-7  -.9899E-6
  6.571     -.5685E-2  0.1199     -.1254     -.1483E-3  -.1102E-5  0.2669E-7  -.1129E-5
  6.717     -.6504E-2  0.1091     -.1154     -.1448E-3  -.1259E-5  0.2935E-7  -.1288E-5
  6.863     -.7455E-2  0.9974E-1  -.1071     -.1435E-3  -.1440E-5  0.3191E-7  -.1472E-5
  7.009     -.8557E-2  0.9186E-1  -.1003     -.1447E-3  -.1648E-5  0.3419E-7  -.1682E-5
  7.155     -.9832E-2  0.8541E-1  -.9509E-1  -.1484E-3  -.1886E-5  0.3591E-7  -.1922E-5
  7.302     -.1130E-1  0.8036E-1  -.9151E-1  -.1548E-3  -.2158E-5  0.3668E-7  -.2195E-5
  7.448     -.1300E-1  0.7670E-1  -.8953E-1  -.1642E-3  -.2467E-5  0.3596E-7  -.2503E-5
  7.594     -.1495E-1  0.7440E-1  -.8918E-1  -.1767E-3  -.2818E-5  0.3296E-7  -.2851E-5
  7.740     -.1719E-1  0.7348E-1  -.9048E-1  -.1927E-3  -.3213E-5  0.2662E-7  -.3240E-5
  7.886     -.1976E-1  0.7392E-1  -.9347E-1  -.2124E-3  -.3657E-5  0.1550E-7  -.3673E-5
  8.032     -.2271E-1  0.7576E-1  -.9823E-1  -.2362E-3  -.4153E-5  -.2377E-8  -.4150E-5
  8.178     -.2607E-1  0.7903E-1  -.1048     -.2646E-3  -.4701E-5  -.2970E-7  -.4672E-5
  8.324     -.2989E-1  0.8379E-1  -.1134     -.2979E-3  -.5304E-5  -.7005E-7  -.5234E-5
  8.470     -.3425E-1  0.9010E-1  -.1240     -.3368E-3  -.5958E-5  -.1282E-6  -.5830E-5
  8.616     -.3918E-1  0.9806E-1  -.1369     -.3819E-3  -.6659E-5  -.2106E-6  -.6449E-5
  8.762     -.4474E-1  0.1078     -.1521     -.4338E-3  -.7397E-5  -.3256E-6  -.7071E-5
  8.908     -.5101E-1  0.1193     -.1698     -.4931E-3  -.8154E-5  -.4844E-6  -.7669E-5
  9.054     -.5802E-1  0.1328     -.1903     -.5607E-3  -.8905E-5  -.7012E-6  -.8204E-5
  9.200     -.6583E-1  0.1485     -.2137     -.6373E-3  -.9614E-5  -.9951E-6  -.8619E-5
  9.346     -.7449E-1  0.1663     -.2401     -.7237E-3  -.1023E-4  -.1390E-5  -.8837E-5
  9.492     -.8400E-1  0.1865     -.2697     -.8206E-3  -.1067E-4  -.1917E-5  -.8756E-5
  9.638     -.9439E-1  0.2091     -.3026     -.9286E-3  -.1086E-4  -.2616E-5  -.8240E-5
  9.784     -.1056     0.2342     -.3388     -.1048E-2  -.1065E-4  -.3536E-5  -.7111E-5
  9.930     -.1177     0.2618     -.3783     -.1180E-2  -.9885E-5  -.4740E-5  -.5146E-5
  10.08     -.1304     0.2919     -.4210     -.1325E-2  -.8361E-5  -.6303E-5  -.2058E-5
  10.22     -.1437     0.3243     -.4665     -.1481E-2  -.5815E-5  -.8320E-5  0.2505E-5
  10.37     -.1573     0.3589     -.5146     -.1649E-2  -.1930E-5  -.1090E-4  0.8972E-5
  10.51     -.1710     0.3954     -.5646     -.1828E-2  0.3677E-5  -.1419E-4  0.1786E-4
  10.66     -.1845     0.4333     -.6158     -.2017E-2  0.1146E-4  -.1833E-4  0.2979E-4
  10.81     -.1974     0.4721     -.6673     -.2214E-2  0.2194E-4  -.2351E-4  0.4546E-4
  10.95     -.2093     0.5113     -.7182     -.2417E-2  0.3573E-4  -.2995E-4  0.6568E-4
  11.10     -.2199     0.5500     -.7673     -.2622E-2  0.5349E-4  -.3788E-4  0.9137E-4
  11.24     -.2287     0.5876     -.8134     -.2828E-2  0.7598E-4  -.4756E-4  0.1235E-3
  11.39     -.2353     0.6232     -.8555     -.3031E-2  0.1040E-3  -.5929E-4  0.1633E-3
  11.54     -.2394     0.6561     -.8923     -.3228E-2  0.1384E-3  -.7338E-4  0.2118E-3
  11.68     -.2409     0.6855     -.9230     -.3416E-2  0.1802E-3  -.9018E-4  0.2704E-3
  11.83     -.2397     0.7107     -.9468     -.3592E-2  0.2302E-3  -.1101E-3  0.3403E-3
  11.97     -.2357     0.7313     -.9633     -.3754E-2  0.2897E-3  -.1335E-3  0.4231E-3
  12.12     -.2293     0.7468     -.9722     -.3900E-2  0.3596E-3  -.1608E-3  0.5204E-3
  12.27     -.2205     0.7572     -.9737     -.4029E-2  0.4412E-3  -.1925E-3  0.6338E-3
  12.41     -.2099     0.7625     -.9682     -.4143E-2  0.5359E-3  -.2293E-3  0.7651E-3
  12.56     -.1978     0.7629     -.9565     -.4242E-2  0.6450E-3  -.2716E-3  0.9166E-3
  12.70     -.1848     0.7589     -.9393     -.4329E-2  0.7703E-3  -.3201E-3  0.1090E-2
  12.85     -.1712     0.7511     -.9179     -.4408E-2  0.9134E-3  -.3756E-3  0.1289E-2
  13.00     -.1575     0.7404     -.8935     -.4484E-2  0.1077E-2  -.4389E-3  0.1515E-2
  13.14     -.1441     0.7278     -.8673     -.4562E-2  0.1262E-2  -.5108E-3  0.1773E-2
  13.29     -.1312     0.7143     -.8409     -.4651E-2  0.1472E-2  -.5925E-3  0.2064E-2
  13.43     -.1191     0.7011     -.8154     -.4757E-2  0.1709E-2  -.6849E-3  0.2393E-2
  13.58     -.1078     0.6892     -.7921     -.4888E-2  0.1976E-2  -.7892E-3  0.2765E-2
  13.73     -.9752E-1  0.6797     -.7722     -.5053E-2  0.2275E-2  -.9064E-3  0.3182E-2
  13.87     -.8812E-1  0.6739     -.7567     -.5257E-2  0.2611E-2  -.1038E-2  0.3649E-2
  14.02     -.7955E-1  0.6725     -.7465     -.5510E-2  0.2985E-2  -.1184E-2  0.4170E-2
  14.16     -.7165E-1  0.6764     -.7422     -.5818E-2  0.3400E-2  -.1347E-2  0.4747E-2
  14.31     -.6423E-1  0.6864     -.7444     -.6186E-2  0.3858E-2  -.1527E-2  0.5385E-2
  14.46     -.5709E-1  0.7029     -.7534     -.6618E-2  0.4360E-2  -.1724E-2  0.6084E-2
  14.60     -.4995E-1  0.7265     -.7693     -.7119E-2  0.4906E-2  -.1939E-2  0.6845E-2
  14.75     -.4255E-1  0.7572     -.7920     -.7688E-2  0.5495E-2  -.2171E-2  0.7666E-2
  14.90     -.3463E-1  0.7950     -.8213     -.8325E-2  0.6125E-2  -.2418E-2  0.8543E-2
  15.04     -.2593E-1  0.8398     -.8567     -.9027E-2  0.6788E-2  -.2680E-2  0.9468E-2
  15.19     -.1621E-1  0.8912     -.8976     -.9789E-2  0.7479E-2  -.2952E-2  0.1043E-1
  15.33     -.5332E-2  0.9484     -.9431     -.1060E-1  0.8187E-2  -.3230E-2  0.1142E-1
  15.48     0.6807E-2   1.011     -.9923     -.1145E-1  0.8899E-2  -.3511E-2  0.1241E-1
  15.63     0.2019E-1   1.077     -1.044     -.1233E-1  0.9600E-2  -.3787E-2  0.1339E-1
  15.77     0.3468E-1   1.145     -1.097     -.1322E-1  0.1027E-1  -.4051E-2  0.1432E-1
  15.92     0.5002E-1   1.214     -1.150     -.1409E-1  0.1089E-1  -.4296E-2  0.1519E-1
  16.06     0.6585E-1   1.282     -1.202     -.1493E-1  0.1145E-1  -.4514E-2  0.1596E-1
  16.21     0.8169E-1   1.348     -1.250     -.1572E-1  0.1191E-1  -.4698E-2  0.1661E-1
  16.36     0.9702E-1   1.408     -1.295     -.1643E-1  0.1227E-1  -.4840E-2  0.1711E-1
  16.50     0.1113      1.462     -1.333     -.1703E-1  0.1251E-1  -.4935E-2  0.1745E-1
  16.65     0.1239      1.506     -1.365     -.1752E-1  0.1263E-1  -.4978E-2  0.1760E-1
  16.79     0.1345      1.541     -1.388     -.1787E-1  0.1260E-1  -.4969E-2  0.1757E-1
  16.94     0.1427      1.563     -1.402     -.1807E-1  0.1245E-1  -.4908E-2  0.1736E-1
  17.09     0.1483      1.572     -1.406     -.1811E-1  0.1217E-1  -.4796E-2  0.1696E-1
  17.23     0.1513      1.568     -1.399     -.1799E-1  0.1177E-1  -.4639E-2  0.1641E-1
  17.38     0.1516      1.550     -1.381     -.1771E-1  0.1127E-1  -.4443E-2  0.1571E-1
  17.52     0.1495      1.519     -1.352     -.1728E-1  0.1069E-1  -.4214E-2  0.1491E-1
  17.67     0.1452      1.475     -1.313     -.1672E-1  0.1005E-1  -.3962E-2  0.1401E-1
  17.82     0.1392      1.420     -1.265     -.1603E-1  0.9369E-2  -.3692E-2  0.1306E-1
  17.96     0.1318      1.355     -1.208     -.1524E-1  0.8664E-2  -.3414E-2  0.1208E-1
  18.11     0.1232      1.283     -1.145     -.1438E-1  0.7954E-2  -.3133E-2  0.1109E-1
  18.25     0.1140      1.204     -1.077     -.1345E-1  0.7252E-2  -.2856E-2  0.1011E-1
  18.40     0.1044      1.122     -1.005     -.1249E-1  0.6571E-2  -.2587E-2  0.9158E-2
  18.55     0.9456E-1   1.037     -.9308     -.1152E-1  0.5920E-2  -.2330E-2  0.8250E-2
  18.69     0.8481E-1  0.9520     -.8567     -.1055E-1  0.5306E-2  -.2087E-2  0.7393E-2
  18.84     0.7526E-1  0.8684     -.7835     -.9607E-2  0.4734E-2  -.1861E-2  0.6594E-2
  18.98     0.6601E-1  0.7872     -.7125     -.8695E-2  0.4205E-2  -.1651E-2  0.5856E-2
  19.13     0.5714E-1  0.7096     -.6446     -.7827E-2  0.3720E-2  -.1459E-2  0.5179E-2
  19.28     0.4866E-1  0.6361     -.5805     -.7011E-2  0.3279E-2  -.1284E-2  0.4563E-2
  19.42     0.4057E-1  0.5675     -.5206     -.6250E-2  0.2880E-2  -.1126E-2  0.4006E-2
  19.57     0.3284E-1  0.5038     -.4654     -.5548E-2  0.2522E-2  -.9827E-3  0.3504E-2
  19.71     0.2542E-1  0.4452     -.4148     -.4904E-2  0.2200E-2  -.8541E-3  0.3054E-2
  19.86     0.1823E-1  0.3916     -.3690     -.4318E-2  0.1913E-2  -.7387E-3  0.2651E-2
  20.01     0.1121E-1  0.3428     -.3278     -.3787E-2  0.1656E-2  -.6351E-3  0.2291E-2
  20.15     0.4256E-2  0.2987     -.2911     -.3308E-2  0.1427E-2  -.5422E-3  0.1970E-2
  20.30     -.2738E-2  0.2587     -.2586     -.2877E-2  0.1224E-2  -.4586E-3  0.1682E-2
  20.44     -.9883E-2  0.2227     -.2301     -.2491E-2  0.1042E-2  -.3831E-3  0.1425E-2
  20.59     -.1730E-1  0.1902     -.2053     -.2144E-2  0.8786E-3  -.3145E-3  0.1193E-2
  20.74     -.2512E-1  0.1607     -.1840     -.1833E-2  0.7318E-3  -.2516E-3  0.9835E-3
  20.88     -.3350E-1  0.1340     -.1659     -.1553E-2  0.5989E-3  -.1934E-3  0.7924E-3
  21.03     -.4258E-1  0.1096     -.1508     -.1301E-2  0.4775E-3  -.1389E-3  0.6164E-3
  21.17     -.5254E-1  0.8709E-1  -.1386     -.1072E-2  0.3652E-3  -.8695E-4  0.4522E-3
  21.32     -.6356E-1  0.6618E-1  -.1289     -.8634E-3  0.2601E-3  -.3664E-4  0.2968E-3
  21.47     -.7586E-1  0.4650E-1  -.1217     -.6706E-3  0.1602E-3  0.1301E-4  0.1472E-3
  21.61     -.8965E-1  0.2770E-1  -.1169     -.4905E-3  0.6337E-4  0.6297E-4  0.4074E-6
  21.76     -.1052     0.9432E-2  -.1143     -.3199E-3  -.3210E-4  0.1142E-3  -.1463E-3
  21.90     -.1227     -.8616E-2  -.1140     -.1558E-3  -.1281E-3  0.1677E-3  -.2958E-3
  22.05     -.1426     -.2677E-1  -.1158     0.5018E-5  -.2265E-3  0.2245E-3  -.4510E-3
  22.20     -.1651     -.4534E-1  -.1199     0.1653E-3  -.3292E-3  0.2857E-3  -.6149E-3
  22.34     -.1906     -.6465E-1  -.1262     0.3281E-3  -.4381E-3  0.3523E-3  -.7904E-3
  22.49     -.2194     -.8501E-1  -.1349     0.4962E-3  -.5552E-3  0.4257E-3  -.9809E-3
  22.63     -.2520     -.1067     -.1459     0.6724E-3  -.6825E-3  0.5071E-3  -.1190E-2
  22.78     -.2887     -.1301     -.1594     0.8595E-3  -.8223E-3  0.5979E-3  -.1420E-2
  22.93     -.3299     -.1555     -.1755     0.1060E-2  -.9769E-3  0.6995E-3  -.1676E-2
  23.07     -.3761     -.1831     -.1943     0.1278E-2  -.1148E-2  0.8134E-3  -.1962E-2
  23.22     -.4277     -.2133     -.2159     0.1515E-2  -.1340E-2  0.9414E-3  -.2281E-2
  23.36     -.4849     -.2463     -.2404     0.1774E-2  -.1553E-2  0.1085E-2  -.2638E-2
  23.51     -.5480     -.2822     -.2678     0.2058E-2  -.1791E-2  0.1246E-2  -.3038E-2
  23.66     -.6172     -.3214     -.2982     0.2368E-2  -.2057E-2  0.1427E-2  -.3483E-2
  23.80     -.6924     -.3637     -.3314     0.2707E-2  -.2352E-2  0.1628E-2  -.3979E-2
  23.95     -.7735     -.4092     -.3674     0.3076E-2  -.2679E-2  0.1851E-2  -.4530E-2
  24.10     -.8602     -.4578     -.4058     0.3476E-2  -.3039E-2  0.2098E-2  -.5138E-2
  24.24     -.9517     -.5093     -.4463     0.3906E-2  -.3435E-2  0.2370E-2  -.5805E-2
  24.39     -1.047     -.5630     -.4884     0.4365E-2  -.3867E-2  0.2667E-2  -.6534E-2
  24.53     -1.145     -.6186     -.5314     0.4851E-2  -.4334E-2  0.2988E-2  -.7322E-2
  24.68     -1.244     -.6752     -.5746     0.5361E-2  -.4835E-2  0.3334E-2  -.8168E-2
  24.83     -1.343     -.7319     -.6169     0.5888E-2  -.5366E-2  0.3701E-2  -.9068E-2
  24.97     -1.439     -.7877     -.6575     0.6428E-2  -.5925E-2  0.4088E-2  -.1001E-1
  25.12     -1.530     -.8414     -.6952     0.6973E-2  -.6503E-2  0.4489E-2  -.1099E-1
  25.26     -1.613     -.8918     -.7290     0.7515E-2  -.7094E-2  0.4901E-2  -.1200E-1
  25.41     -1.688     -.9379     -.7579     0.8046E-2  -.7688E-2  0.5317E-2  -.1300E-1
  25.56     -1.751     -.9786     -.7811     0.8557E-2  -.8274E-2  0.5729E-2  -.1400E-1
  25.70     -1.802     -1.013     -.7977     0.9042E-2  -.8841E-2  0.6130E-2  -.1497E-1
  25.85     -1.838     -1.040     -.8075     0.9495E-2  -.9377E-2  0.6513E-2  -.1589E-1
  25.99     -1.861     -1.060     -.8100     0.9912E-2  -.9870E-2  0.6869E-2  -.1674E-1
  26.14     -1.868     -1.073     -.8055     0.1029E-1  -.1031E-1  0.7194E-2  -.1751E-1
  26.29     -1.863     -1.079     -.7942     0.1064E-1  -.1070E-1  0.7483E-2  -.1818E-1
  26.43     -1.844     -1.079     -.7766     0.1096E-1  -.1102E-1  0.7734E-2  -.1875E-1
  26.58     -1.815     -1.073     -.7537     0.1125E-1  -.1128E-1  0.7947E-2  -.1922E-1
  26.72     -1.777     -1.063     -.7262     0.1154E-1  -.1148E-1  0.8127E-2  -.1960E-1
  26.87     -1.733     -1.050     -.6953     0.1183E-1  -.1163E-1  0.8279E-2  -.1991E-1
  27.02     -1.685     -1.035     -.6620     0.1213E-1  -.1175E-1  0.8414E-2  -.2016E-1
  27.16     -1.636     -1.021     -.6273     0.1246E-1  -.1184E-1  0.8542E-2  -.2039E-1
  27.31     -1.587     -1.007     -.5922     0.1284E-1  -.1194E-1  0.8678E-2  -.2062E-1
  27.45     -1.541     -.9966     -.5577     0.1328E-1  -.1205E-1  0.8836E-2  -.2089E-1
  27.60     -1.500     -.9892     -.5244     0.1378E-1  -.1221E-1  0.9030E-2  -.2124E-1
  27.75     -1.464     -.9858     -.4930     0.1436E-1  -.1242E-1  0.9274E-2  -.2169E-1
  27.89     -1.436     -.9869     -.4640     0.1501E-1  -.1270E-1  0.9582E-2  -.2228E-1
  28.04     -1.414     -.9926     -.4376     0.1574E-1  -.1308E-1  0.9964E-2  -.2304E-1
  28.18     -1.400     -1.003     -.4140     0.1654E-1  -.1356E-1  0.1043E-1  -.2399E-1
  28.33     -1.392     -1.016     -.3931     0.1740E-1  -.1416E-1  0.1099E-1  -.2514E-1
  28.48     -1.389     -1.033     -.3749     0.1830E-1  -.1487E-1  0.1164E-1  -.2651E-1
  28.62     -1.391     -1.051     -.3591     0.1922E-1  -.1571E-1  0.1238E-1  -.2809E-1
  28.77     -1.396     -1.070     -.3455     0.2016E-1  -.1666E-1  0.1322E-1  -.2988E-1
  28.91     -1.401     -1.089     -.3337     0.2107E-1  -.1772E-1  0.1414E-1  -.3186E-1
  29.06     -1.406     -1.105     -.3234     0.2193E-1  -.1888E-1  0.1514E-1  -.3401E-1
  29.21     -1.409     -1.118     -.3142     0.2273E-1  -.2011E-1  0.1619E-1  -.3630E-1
  29.35     -1.409     -1.127     -.3056     0.2344E-1  -.2139E-1  0.1728E-1  -.3867E-1
  29.50     -1.404     -1.130     -.2976     0.2403E-1  -.2269E-1  0.1839E-1  -.4108E-1
  29.64     -1.393     -1.128     -.2896     0.2449E-1  -.2398E-1  0.1948E-1  -.4345E-1
  29.79     -1.377     -1.120     -.2816     0.2481E-1  -.2521E-1  0.2052E-1  -.4573E-1
  29.94     -1.353     -1.105     -.2733     0.2497E-1  -.2634E-1  0.2147E-1  -.4782E-1
  30.08     -1.324     -1.084     -.2646     0.2497E-1  -.2734E-1  0.2231E-1  -.4965E-1
  30.23     -1.288     -1.057     -.2555     0.2480E-1  -.2814E-1  0.2300E-1  -.5114E-1
  30.37     -1.245     -1.024     -.2458     0.2447E-1  -.2873E-1  0.2350E-1  -.5223E-1
  30.52     -1.198     -.9865     -.2355     0.2397E-1  -.2907E-1  0.2379E-1  -.5286E-1
  30.67     -1.146     -.9444     -.2248     0.2331E-1  -.2914E-1  0.2386E-1  -.5300E-1
  30.81     -1.090     -.8986     -.2136     0.2252E-1  -.2893E-1  0.2370E-1  -.5262E-1
  30.96     -1.030     -.8499     -.2021     0.2159E-1  -.2843E-1  0.2331E-1  -.5174E-1
  31.10     -.9689     -.7991     -.1903     0.2055E-1  -.2768E-1  0.2269E-1  -.5037E-1
  31.25     -.9062     -.7471     -.1785     0.1942E-1  -.2668E-1  0.2189E-1  -.4857E-1
  31.40     -.8433     -.6947     -.1667     0.1822E-1  -.2549E-1  0.2091E-1  -.4639E-1
  31.54     -.7810     -.6427     -.1552     0.1699E-1  -.2412E-1  0.1979E-1  -.4391E-1
  31.69     -.7202     -.5919     -.1441     0.1573E-1  -.2263E-1  0.1857E-1  -.4120E-1
  31.83     -.6618     -.5428     -.1335     0.1448E-1  -.2106E-1  0.1729E-1  -.3835E-1
  31.98     -.6064     -.4961     -.1235     0.1326E-1  -.1945E-1  0.1597E-1  -.3542E-1
  32.13     -.5546     -.4523     -.1144     0.1208E-1  -.1784E-1  0.1464E-1  -.3248E-1
  32.27     -.5069     -.4117     -.1062     0.1096E-1  -.1625E-1  0.1334E-1  -.2960E-1
  32.42     -.4636     -.3745     -.9898E-1  0.9906E-2  -.1472E-1  0.1209E-1  -.2680E-1
  32.56     -.4249     -.3410     -.9280E-1  0.8927E-2  -.1326E-1  0.1089E-1  -.2415E-1
  32.71     -.3910     -.3113     -.8771E-1  0.8029E-2  -.1188E-1  0.9760E-2  -.2164E-1
  32.86     -.3618     -.2853     -.8376E-1  0.7213E-2  -.1061E-1  0.8710E-2  -.1932E-1
  33.00     -.3375     -.2630     -.8095E-1  0.6480E-2  -.9428E-2  0.7744E-2  -.1717E-1
  33.15     -.3179     -.2444     -.7931E-1  0.5829E-2  -.8352E-2  0.6860E-2  -.1521E-1
  33.29     -.3029     -.2293     -.7883E-1  0.5257E-2  -.7376E-2  0.6059E-2  -.1344E-1
  33.44     -.2925     -.2177     -.7952E-1  0.4759E-2  -.6496E-2  0.5337E-2  -.1183E-1
  33.59     -.2864     -.2094     -.8137E-1  0.4333E-2  -.5708E-2  0.4690E-2  -.1040E-1
  33.73     -.2846     -.2042     -.8437E-1  0.3974E-2  -.5005E-2  0.4113E-2  -.9118E-2
  33.88     -.2868     -.2020     -.8849E-1  0.3676E-2  -.4381E-2  0.3600E-2  -.7981E-2
  34.03     -.2928     -.2026     -.9368E-1  0.3436E-2  -.3828E-2  0.3147E-2  -.6976E-2
  34.17     -.3024     -.2058     -.9990E-1  0.3247E-2  -.3341E-2  0.2748E-2  -.6089E-2
  34.32     -.3153     -.2113     -.1071     0.3106E-2  -.2913E-2  0.2396E-2  -.5310E-2
  34.46     -.3311     -.2190     -.1151     0.3008E-2  -.2538E-2  0.2089E-2  -.4626E-2
  34.61     -.3493     -.2285     -.1238     0.2947E-2  -.2209E-2  0.1819E-2  -.4029E-2
  34.76     -.3695     -.2394     -.1330     0.2917E-2  -.1923E-2  0.1585E-2  -.3507E-2
  34.90     -.3910     -.2514     -.1426     0.2915E-2  -.1673E-2  0.1380E-2  -.3053E-2
  35.05     -.4132     -.2639     -.1522     0.2934E-2  -.1456E-2  0.1203E-2  -.2659E-2
  35.19     -.4353     -.2767     -.1616     0.2968E-2  -.1267E-2  0.1049E-2  -.2316E-2
  35.34     -.4566     -.2890     -.1706     0.3012E-2  -.1104E-2  0.9165E-3  -.2021E-2
  35.49     -.4762     -.3005     -.1788     0.3061E-2  -.9632E-3  0.8023E-3  -.1766E-2
  35.63     -.4935     -.3106     -.1860     0.3110E-2  -.8419E-3  0.7044E-3  -.1546E-2
  35.78     -.5077     -.3189     -.1919     0.3155E-2  -.7379E-3  0.6209E-3  -.1359E-2
  35.92     -.5183     -.3252     -.1963     0.3193E-2  -.6489E-3  0.5501E-3  -.1199E-2
  36.07     -.5250     -.3291     -.1991     0.3220E-2  -.5734E-3  0.4908E-3  -.1064E-2
  36.22     -.5278     -.3307     -.2003     0.3238E-2  -.5098E-3  0.4415E-3  -.9514E-3
  36.36     -.5266     -.3299     -.1999     0.3246E-2  -.4568E-3  0.4015E-3  -.8583E-3
  36.51     -.5218     -.3271     -.1980     0.3245E-2  -.4133E-3  0.3697E-3  -.7830E-3
  36.65     -.5140     -.3224     -.1948     0.3240E-2  -.3783E-3  0.3456E-3  -.7239E-3
  36.80     -.5039     -.3165     -.1907     0.3235E-2  -.3512E-3  0.3286E-3  -.6798E-3
  36.95     -.4923     -.3096     -.1859     0.3234E-2  -.3313E-3  0.3183E-3  -.6496E-3
  37.09     -.4801     -.3026     -.1807     0.3243E-2  -.3182E-3  0.3145E-3  -.6326E-3
  37.24     -.4682     -.2958     -.1756     0.3268E-2  -.3114E-3  0.3168E-3  -.6283E-3
  37.38     -.4576     -.2900     -.1709     0.3315E-2  -.3108E-3  0.3254E-3  -.6362E-3
  37.53     -.4491     -.2856     -.1669     0.3389E-2  -.3163E-3  0.3401E-3  -.6563E-3
  37.68     -.4434     -.2830     -.1639     0.3497E-2  -.3276E-3  0.3610E-3  -.6887E-3
  37.82     -.4413     -.2829     -.1621     0.3642E-2  -.3449E-3  0.3883E-3  -.7333E-3
  37.97     -.4433     -.2854     -.1618     0.3829E-2  -.3682E-3  0.4222E-3  -.7905E-3
  38.11     -.4499     -.2909     -.1631     0.4062E-2  -.3976E-3  0.4629E-3  -.8606E-3
  38.26     -.4614     -.2996     -.1661     0.4343E-2  -.4333E-3  0.5106E-3  -.9439E-3
  38.41     -.4780     -.3117     -.1710     0.4676E-2  -.4752E-3  0.5656E-3  -.1041E-2
  38.55     -.4999     -.3272     -.1778     0.5061E-2  -.5236E-3  0.6279E-3  -.1151E-2
  38.70     -.5270     -.3461     -.1864     0.5497E-2  -.5784E-3  0.6977E-3  -.1276E-2
  38.84     -.5591     -.3683     -.1968     0.5982E-2  -.6396E-3  0.7750E-3  -.1415E-2
  38.99     -.5958     -.3935     -.2088     0.6514E-2  -.7071E-3  0.8594E-3  -.1567E-2
  39.14     -.6366     -.4214     -.2224     0.7085E-2  -.7806E-3  0.9508E-3  -.1731E-2
  39.28     -.6808     -.4514     -.2371     0.7687E-2  -.8596E-3  0.1048E-2  -.1908E-2
  39.43     -.7273     -.4830     -.2526     0.8310E-2  -.9435E-3  0.1151E-2  -.2095E-2
  39.57     -.7750     -.5153     -.2686     0.8941E-2  -.1031E-2  0.1259E-2  -.2290E-2
  39.72     -.8225     -.5475     -.2846     0.9563E-2  -.1123E-2  0.1370E-2  -.2492E-2
  39.87     -.8684     -.5785     -.3000     0.1016E-1  -.1216E-2  0.1482E-2  -.2698E-2
  40.01     -.9110     -.6074     -.3143     0.1071E-1  -.1311E-2  0.1595E-2  -.2906E-2
  40.16     -.9487     -.6329     -.3270     0.1120E-1  -.1405E-2  0.1707E-2  -.3112E-2
  40.30     -.9801     -.6542     -.3374     0.1161E-1  -.1500E-2  0.1817E-2  -.3317E-2
  40.45     -1.004     -.6704     -.3453     0.1193E-1  -.1594E-2  0.1925E-2  -.3518E-2
  40.60     -1.019     -.6807     -.3501     0.1214E-1  -.1687E-2  0.2030E-2  -.3717E-2
  40.74     -1.024     -.6849     -.3516     0.1224E-1  -.1780E-2  0.2133E-2  -.3913E-2
  40.89     -1.020     -.6827     -.3499     0.1221E-1  -.1874E-2  0.2236E-2  -.4111E-2
  41.03     -1.007     -.6742     -.3449     0.1208E-1  -.1973E-2  0.2341E-2  -.4314E-2
  41.18     -.9852     -.6601     -.3370     0.1185E-1  -.2078E-2  0.2451E-2  -.4529E-2
  41.33     -.9558     -.6410     -.3263     0.1152E-1  -.2193E-2  0.2569E-2  -.4762E-2
  41.47     -.9202     -.6178     -.3135     0.1112E-1  -.2322E-2  0.2701E-2  -.5023E-2
  41.62     -.8799     -.5915     -.2991     0.1066E-1  -.2470E-2  0.2852E-2  -.5322E-2
  41.76     -.8366     -.5633     -.2835     0.1017E-1  -.2642E-2  0.3026E-2  -.5668E-2
  41.91     -.7919     -.5342     -.2673     0.9664E-2  -.2843E-2  0.3230E-2  -.6072E-2
  42.06     -.7473     -.5053     -.2512     0.9159E-2  -.3078E-2  0.3468E-2  -.6546E-2
  42.20     -.7042     -.4775     -.2354     0.8674E-2  -.3353E-2  0.3746E-2  -.7100E-2
  42.35     -.6637     -.4515     -.2204     0.8222E-2  -.3674E-2  0.4070E-2  -.7743E-2
  42.49     -.6270     -.4282     -.2066     0.7814E-2  -.4045E-2  0.4442E-2  -.8487E-2
  42.64     -.5946     -.4079     -.1941     0.7459E-2  -.4472E-2  0.4868E-2  -.9340E-2
  42.79     -.5671     -.3910     -.1832     0.7161E-2  -.4959E-2  0.5349E-2  -.1031E-1
  42.93     -.5449     -.3778     -.1740     0.6923E-2  -.5511E-2  0.5887E-2  -.1140E-1
  43.08     -.5281     -.3683     -.1665     0.6745E-2  -.6131E-2  0.6482E-2  -.1261E-1
  43.23     -.5166     -.3626     -.1607     0.6623E-2  -.6823E-2  0.7130E-2  -.1395E-1
  43.37     -.5103     -.3604     -.1565     0.6550E-2  -.7587E-2  0.7829E-2  -.1542E-1
  43.52     -.5088     -.3615     -.1538     0.6518E-2  -.8424E-2  0.8570E-2  -.1699E-1
  43.66     -.5117     -.3657     -.1525     0.6515E-2  -.9334E-2  0.9342E-2  -.1868E-1
  43.81     -.5182     -.3723     -.1524     0.6526E-2  -.1031E-1  0.1013E-1  -.2045E-1
  43.96     -.5277     -.3810     -.1532     0.6534E-2  -.1136E-1  0.1093E-1  -.2229E-1
  44.10     -.5393     -.3911     -.1547     0.6518E-2  -.1248E-1  0.1170E-1  -.2418E-1
  44.25     -.5521     -.4019     -.1567     0.6457E-2  -.1365E-1  0.1244E-1  -.2609E-1
  44.39     -.5653     -.4129     -.1588     0.6325E-2  -.1488E-1  0.1311E-1  -.2799E-1
  44.54     -.5778     -.4232     -.1607     0.6099E-2  -.1618E-1  0.1369E-1  -.2987E-1
  44.69     -.5889     -.4324     -.1622     0.5752E-2  -.1753E-1  0.1417E-1  -.3169E-1
  44.83     -.5978     -.4399     -.1632     0.5259E-2  -.1895E-1  0.1451E-1  -.3346E-1
  44.98     -.6039     -.4453     -.1633     0.4597E-2  -.2045E-1  0.1472E-1  -.3517E-1
  45.12     -.6070     -.4483     -.1624     0.3744E-2  -.2206E-1  0.1477E-1  -.3683E-1
  45.27     -.6067     -.4488     -.1606     0.2677E-2  -.2380E-1  0.1467E-1  -.3847E-1
  45.42     -.6034     -.4469     -.1579     0.1378E-2  -.2572E-1  0.1441E-1  -.4013E-1
  45.56     -.5972     -.4429     -.1542     -.1714E-3  -.2786E-1  0.1402E-1  -.4188E-1
  45.71     -.5888     -.4371     -.1497     -.1990E-2  -.3030E-1  0.1349E-1  -.4379E-1
  45.85     -.5788     -.4301     -.1446     -.4099E-2  -.3309E-1  0.1286E-1  -.4595E-1
  46.00     -.5678     -.4222     -.1391     -.6522E-2  -.3632E-1  0.1215E-1  -.4847E-1
  46.15     -.5567     -.4142     -.1333     -.9286E-2  -.4009E-1  0.1137E-1  -.5146E-1
  46.29     -.5463     -.4063     -.1275     -.1243E-1  -.4449E-1  0.1055E-1  -.5504E-1
  46.44     -.5370     -.3992     -.1218     -.1599E-1  -.4965E-1  0.9716E-2  -.5936E-1
  46.58     -.5294     -.3930     -.1164     -.2003E-1  -.5568E-1  0.8880E-2  -.6456E-1
  46.73     -.5240     -.3880     -.1114     -.2460E-1  -.6273E-1  0.8059E-2  -.7078E-1
  46.88     -.5209     -.3843     -.1069     -.2979E-1  -.7095E-1  0.7266E-2  -.7821E-1
  47.02     -.5203     -.3817     -.1029     -.3568E-1  -.8052E-1  0.6510E-2  -.8703E-1
  47.17     -.5221     -.3803     -.9945E-1  -.4238E-1  -.9163E-1  0.5797E-2  -.9742E-1
  47.31     -.5262     -.3797     -.9653E-1  -.5000E-1  -.1045     0.5131E-2  -.1096   
  47.46     -.5324     -.3796     -.9411E-1  -.5867E-1  -.1193     0.4513E-2  -.1238   
  47.61     -.5405     -.3798     -.9217E-1  -.6855E-1  -.1364     0.3943E-2  -.1404   
  47.75     -.5504     -.3799     -.9066E-1  -.7979E-1  -.1561     0.3419E-2  -.1595   
  47.90     -.5620     -.3798     -.8956E-1  -.9258E-1  -.1786     0.2939E-2  -.1815   
  48.04     -.5753     -.3794     -.8885E-1  -.1071     -.2042     0.2499E-2  -.2067   
  48.19     -.5906     -.3785     -.8854E-1  -.1235     -.2334     0.2095E-2  -.2355   
  48.34     -.6081     -.3773     -.8863E-1  -.1421     -.2666     0.1724E-2  -.2683   
  48.48     -.6283     -.3760     -.8919E-1  -.1631     -.3040     0.1380E-2  -.3054   
  48.63     -.6519     -.3750     -.9027E-1  -.1866     -.3461     0.1061E-2  -.3472   
  48.77     -.6796     -.3748     -.9196E-1  -.2129     -.3933     0.7625E-3  -.3940   
  48.92     -.7122     -.3757     -.9436E-1  -.2421     -.4458     0.4811E-3  -.4463   
  49.07     -.7505     -.3786     -.9757E-1  -.2743     -.5040     0.2137E-3  -.5042   
  49.21     -.7953     -.3838     -.1017     -.3098     -.5679     -.4194E-4  -.5679   
  49.36     -.8474     -.3921     -.1069     -.3484     -.6377     -.2879E-3  -.6374   
  49.50     -.9074     -.4041     -.1132     -.3900     -.7131     -.5254E-3  -.7126   
  49.65     -.9756     -.4203     -.1208     -.4345     -.7937     -.7549E-3  -.7930   
  49.80     -1.052     -.4411     -.1296     -.4815     -.8790     -.9762E-3  -.8780   
  49.94     -1.137     -.4671     -.1399     -.5303     -.9678     -.1188E-2  -.9667   
  50.09     -1.230     -.4986     -.1514     -.5804     -1.059     -.1388E-2  -1.058   
  50.23     -1.331     -.5358     -.1644     -.6307     -1.151     -.1574E-2  -1.149   
  50.38     -1.438     -.5788     -.1787     -.6802     -1.241     -.1741E-2  -1.240   
  50.53     -1.549     -.6276     -.1942     -.7275     -1.328     -.1885E-2  -1.326   
  50.67     -1.664     -.6820     -.2109     -.7713     -1.409     -.2001E-2  -1.407   
  50.82     -1.780     -.7416     -.2284     -.8101     -1.481     -.2085E-2  -1.479   
  50.96     -1.895     -.8059     -.2468     -.8426     -1.541     -.2132E-2  -1.539   
  51.11     -2.007     -.8739     -.2656     -.8676     -1.589     -.2138E-2  -1.587   
  51.26     -2.113     -.9445     -.2846     -.8839     -1.620     -.2100E-2  -1.618   
  51.40     -2.211     -1.016     -.3035     -.8910     -1.636     -.2017E-2  -1.634   
  51.55     -2.298     -1.088     -.3219     -.8884     -1.633     -.1890E-2  -1.631   
  51.69     -2.373     -1.158     -.3394     -.8764     -1.614     -.1722E-2  -1.612   
  51.84     -2.434     -1.223     -.3557     -.8553     -1.578     -.1516E-2  -1.577   
  51.99     -2.480     -1.283     -.3704     -.8260     -1.528     -.1278E-2  -1.526   
  52.13     -2.508     -1.335     -.3832     -.7898     -1.464     -.1015E-2  -1.463   
  52.28     -2.520     -1.378     -.3936     -.7478     -1.390     -.7327E-3  -1.389   
  52.42     -2.513     -1.410     -.4016     -.7016     -1.307     -.4389E-3  -1.307   
  52.57     -2.490     -1.431     -.4069     -.6526     -1.220     -.1389E-3  -1.220   
  52.72     -2.450     -1.439     -.4094     -.6021     -1.129     0.1628E-3  -1.129   
  52.86     -2.395     -1.434     -.4092     -.5515     -1.038     0.4632E-3  -1.038   
  53.01     -2.326     -1.418     -.4061     -.5018     -.9476     0.7613E-3  -.9483   
  53.16     -2.245     -1.390     -.4004     -.4538     -.8601     0.1058E-2  -.8612   
  53.30     -2.153     -1.353     -.3923     -.4082     -.7766     0.1356E-2  -.7780   
  53.45     -2.054     -1.306     -.3820     -.3654     -.6980     0.1659E-2  -.6997   
  53.59     -1.949     -1.253     -.3698     -.3258     -.6249     0.1974E-2  -.6269   
  53.74     -1.840     -1.194     -.3560     -.2894     -.5577     0.2307E-2  -.5600   
  53.89     -1.729     -1.131     -.3409     -.2564     -.4963     0.2667E-2  -.4990   
  54.03     -1.618     -1.066     -.3248     -.2267     -.4409     0.3063E-2  -.4440   
  54.18     -1.509     -1.001     -.3081     -.2001     -.3912     0.3506E-2  -.3947   
  54.32     -1.403     -.9355     -.2910     -.1765     -.3471     0.4005E-2  -.3511   
  54.47     -1.302     -.8722     -.2739     -.1557     -.3081     0.4572E-2  -.3127   
  54.62     -1.206     -.8117     -.2570     -.1374     -.2740     0.5221E-2  -.2792   
  54.76     -1.117     -.7549     -.2408     -.1215     -.2444     0.5964E-2  -.2503   
  54.91     -1.036     -.7028     -.2255     -.1077     -.2189     0.6817E-2  -.2258   
  55.05     -.9630     -.6558     -.2112     -.9596E-1  -.1974     0.7796E-2  -.2052   
  55.20     -.8989     -.6146     -.1983     -.8595E-1  -.1793     0.8917E-2  -.1882   
  55.35     -.8441     -.5796     -.1870     -.7754E-1  -.1645     0.1020E-1  -.1747   
  55.49     -.7991     -.5511     -.1774     -.7058E-1  -.1528     0.1166E-1  -.1644   
  55.64     -.7642     -.5296     -.1697     -.6493E-1  -.1437     0.1333E-1  -.1571   
  55.78     -.7396     -.5151     -.1640     -.6047E-1  -.1373     0.1522E-1  -.1525   
  55.93     -.7254     -.5080     -.1603     -.5707E-1  -.1333     0.1736E-1  -.1506   
  56.08     -.7219     -.5083     -.1589     -.5464E-1  -.1315     0.1977E-1  -.1513   
  56.22     -.7291     -.5163     -.1597     -.5306E-1  -.1318     0.2247E-1  -.1542   
  56.37     -.7471     -.5321     -.1628     -.5225E-1  -.1339     0.2548E-1  -.1594   
  56.51     -.7760     -.5557     -.1682     -.5209E-1  -.1379     0.2882E-1  -.1667   
  56.66     -.8158     -.5873     -.1760     -.5249E-1  -.1434     0.3249E-1  -.1759   
  56.81     -.8663     -.6268     -.1862     -.5333E-1  -.1504     0.3651E-1  -.1869   
  56.95     -.9274     -.6741     -.1988     -.5450E-1  -.1585     0.4087E-1  -.1994   
  57.10     -.9989     -.7292     -.2138     -.5585E-1  -.1676     0.4554E-1  -.2131   
  57.24     -1.080     -.7918     -.2310     -.5725E-1  -.1773     0.5049E-1  -.2278   
  57.39     -1.170     -.8614     -.2505     -.5855E-1  -.1874     0.5567E-1  -.2430   
  57.53605   -1.26908   -0.93738   -0.27211   -0.05960   -0.19739    0.06101   -0.25840
  57.68207   -1.37487   -1.01903   -0.29560   -0.06024   -0.20700    0.06642   -0.27342
  57.82810   -1.48646   -1.10534   -0.32079   -0.06034   -0.21580    0.07179   -0.28759
  57.97413   -1.60231   -1.19513   -0.34740   -0.05978   -0.22343    0.07698   -0.30041
  58.12017   -1.72068   -1.28708   -0.37512   -0.05847   -0.22953    0.08186   -0.31139
  58.27     -1.840     -1.380     -.4036     -.5636E-1  -.2338     0.8628E-1  -.3201   
  58.41     -1.958     -1.472     -.4325     -.5344E-1  -.2360     0.9010E-1  -.3261   
  58.56     -2.072     -1.561     -.4614     -.4975E-1  -.2361     0.9319E-1  -.3292   
  58.70     -2.183     -1.647     -.4899     -.4534E-1  -.2339     0.9544E-1  -.3293   
  58.85     -2.287     -1.729     -.5176     -.4035E-1  -.2295     0.9676E-1  -.3262   
  59.00     -2.384     -1.805     -.5443     -.3488E-1  -.2231     0.9712E-1  -.3202   
  59.14     -2.473     -1.874     -.5695     -.2910E-1  -.2149     0.9653E-1  -.3114   
  59.29     -2.554     -1.938     -.5931     -.2315E-1  -.2052     0.9501E-1  -.3002   
  59.43     -2.626     -1.995     -.6147     -.1716E-1  -.1944     0.9267E-1  -.2870   
  59.58     -2.691     -2.045     -.6344     -.1125E-1  -.1827     0.8960E-1  -.2723   
  59.73     -2.748     -2.091     -.6518     -.5532E-2  -.1705     0.8594E-1  -.2564   
  59.87     -2.799     -2.132     -.6670     -.7513E-4  -.1581     0.8184E-1  -.2399   
  60.02     -2.843     -2.168     -.6798     0.5060E-2  -.1458     0.7746E-1  -.2233   
  60.16     -2.881     -2.201     -.6901     0.9836E-2  -.1339     0.7293E-1  -.2068   
  60.31     -2.914     -2.230     -.6980     0.1423E-1  -.1225     0.6839E-1  -.1909   
  60.46     -2.942     -2.257     -.7035     0.1822E-1  -.1119     0.6395E-1  -.1758   
  60.60     -2.966     -2.281     -.7065     0.2182E-1  -.1020     0.5972E-1  -.1617   
  60.75     -2.986     -2.304     -.7070     0.2502E-1  -.9306E-1  0.5575E-1  -.1488   
  60.89     -3.001     -2.324     -.7053     0.2783E-1  -.8505E-1  0.5212E-1  -.1372   
  61.04     -3.013     -2.342     -.7013     0.3025E-1  -.7800E-1  0.4886E-1  -.1269   
  61.19     -3.021     -2.358     -.6953     0.3229E-1  -.7193E-1  0.4599E-1  -.1179   
  61.33     -3.025     -2.372     -.6874     0.3395E-1  -.6681E-1  0.4350E-1  -.1103   
  61.48     -3.026     -2.383     -.6778     0.3522E-1  -.6263E-1  0.4141E-1  -.1040   
  61.62     -3.022     -2.391     -.6667     0.3609E-1  -.5937E-1  0.3968E-1  -.9904E-1
  61.77     -3.013     -2.395     -.6541     0.3655E-1  -.5700E-1  0.3828E-1  -.9528E-1
  61.92     -2.999     -2.395     -.6404     0.3656E-1  -.5550E-1  0.3719E-1  -.9269E-1
  62.06     -2.979     -2.390     -.6254     0.3610E-1  -.5484E-1  0.3635E-1  -.9119E-1
  62.21     -2.953     -2.379     -.6093     0.3513E-1  -.5502E-1  0.3571E-1  -.9074E-1
  62.36     -2.919     -2.360     -.5922     0.3358E-1  -.5603E-1  0.3522E-1  -.9125E-1
  62.50     -2.876     -2.333     -.5739     0.3141E-1  -.5785E-1  0.3483E-1  -.9268E-1
  62.65     -2.824     -2.298     -.5546     0.2857E-1  -.6050E-1  0.3446E-1  -.9496E-1
  62.79     -2.762     -2.253     -.5342     0.2498E-1  -.6400E-1  0.3407E-1  -.9807E-1
  62.94     -2.691     -2.199     -.5128     0.2061E-1  -.6836E-1  0.3361E-1  -.1020   
  63.09     -2.610     -2.135     -.4905     0.1539E-1  -.7363E-1  0.3304E-1  -.1067   
  63.23     -2.519     -2.061     -.4673     0.9293E-2  -.7985E-1  0.3232E-1  -.1122   
  63.38     -2.420     -1.979     -.4433     0.2271E-2  -.8707E-1  0.3143E-1  -.1185   
  63.52     -2.313     -1.889     -.4187     -.5698E-2  -.9535E-1  0.3037E-1  -.1257   
  63.67     -2.200     -1.792     -.3937     -.1462E-1  -.1047     0.2914E-1  -.1339   
  63.82     -2.082     -1.689     -.3685     -.2451E-1  -.1153     0.2776E-1  -.1431   
  63.96     -1.962     -1.583     -.3434     -.3532E-1  -.1271     0.2624E-1  -.1533   
  64.11     -1.841     -1.475     -.3186     -.4703E-1  -.1401     0.2463E-1  -.1647   
  64.25     -1.720     -1.366     -.2943     -.5957E-1  -.1542     0.2294E-1  -.1772   
  64.40     -1.602     -1.259     -.2708     -.7285E-1  -.1696     0.2122E-1  -.1908   
  64.55     -1.489     -1.154     -.2484     -.8674E-1  -.1859     0.1950E-1  -.2054   
  64.69     -1.381     -1.052     -.2270     -.1011     -.2032     0.1780E-1  -.2210   
  64.84     -1.279     -.9559     -.2070     -.1157     -.2210     0.1616E-1  -.2371   
  64.98     -1.184     -.8650     -.1884     -.1304     -.2391     0.1459E-1  -.2537   
  65.13     -1.096     -.7801     -.1712     -.1448     -.2571     0.1311E-1  -.2702   
  65.28     -1.016     -.7015     -.1554     -.1586     -.2745     0.1172E-1  -.2863   
  65.42     -.9419     -.6294     -.1409     -.1716     -.2909     0.1044E-1  -.3013   
  65.57     -.8747     -.5635     -.1278     -.1833     -.3057     0.9267E-2  -.3149   
  65.71     -.8131     -.5037     -.1160     -.1935     -.3183     0.8197E-2  -.3265   
  65.86     -.7566     -.4497     -.1052     -.2017     -.3284     0.7230E-2  -.3356   
  66.01     -.7042     -.4010     -.9544E-1  -.2078     -.3354     0.6361E-2  -.3417   
  66.15     -.6554     -.3572     -.8659E-1  -.2115     -.3390     0.5583E-2  -.3446   
  66.30     -.6093     -.3180     -.7853E-1  -.2129     -.3392     0.4891E-2  -.3441   
  66.44     -.5656     -.2827     -.7118E-1  -.2117     -.3358     0.4277E-2  -.3401   
  66.59     -.5239     -.2512     -.6444E-1  -.2082     -.3290     0.3734E-2  -.3328   
  66.74     -.4838     -.2229     -.5826E-1  -.2026     -.3191     0.3256E-2  -.3224   
  66.88     -.4452     -.1976     -.5258E-1  -.1950     -.3064     0.2835E-2  -.3092   
  67.03     -.4082     -.1749     -.4735E-1  -.1859     -.2914     0.2467E-2  -.2939   
  67.17     -.3728     -.1547     -.4254E-1  -.1755     -.2747     0.2144E-2  -.2768   
  67.32     -.3389     -.1366     -.3812E-1  -.1643     -.2566     0.1862E-2  -.2585   
  67.47     -.3069     -.1204     -.3407E-1  -.1524     -.2379     0.1616E-2  -.2395   
  67.61     -.2767     -.1060     -.3037E-1  -.1404     -.2189     0.1402E-2  -.2203   
  67.76     -.2485     -.9312E-1  -.2699E-1  -.1284     -.2000     0.1216E-2  -.2012   
  67.90     -.2223     -.8171E-1  -.2393E-1  -.1167     -.1816     0.1053E-2  -.1826   
  68.05     -.1982     -.7160E-1  -.2116E-1  -.1054     -.1639     0.9126E-3  -.1648   
  68.20     -.1760     -.6265E-1  -.1867E-1  -.9472E-1  -.1472     0.7903E-3  -.1480   
  68.34     -.1559     -.5475E-1  -.1644E-1  -.8472E-1  -.1316     0.6842E-3  -.1323   
  68.49     -.1377     -.4779E-1  -.1444E-1  -.7546E-1  -.1172     0.5922E-3  -.1178   
  68.63     -.1213     -.4167E-1  -.1266E-1  -.6696E-1  -.1040     0.5124E-3  -.1045   
  68.78     -.1066     -.3629E-1  -.1108E-1  -.5922E-1  -.9192E-1  0.4433E-3  -.9236E-1
  68.93     -.9349E-1  -.3158E-1  -.9684E-2  -.5222E-1  -.8103E-1  0.3835E-3  -.8142E-1
  69.07     -.8184E-1  -.2746E-1  -.8452E-2  -.4593E-1  -.7126E-1  0.3317E-3  -.7159E-1
  69.22     -.7153E-1  -.2386E-1  -.7368E-2  -.4030E-1  -.6252E-1  0.2869E-3  -.6280E-1
  69.36     -.6243E-1  -.2071E-1  -.6416E-2  -.3530E-1  -.5474E-1  0.2480E-3  -.5499E-1
  69.51     -.5441E-1  -.1797E-1  -.5581E-2  -.3086E-1  -.4785E-1  0.2145E-3  -.4807E-1
  69.66     -.4738E-1  -.1559E-1  -.4851E-2  -.2694E-1  -.4177E-1  0.1854E-3  -.4195E-1
  69.80     -.4121E-1  -.1351E-1  -.4213E-2  -.2348E-1  -.3641E-1  0.1603E-3  -.3657E-1
  69.95     -.3581E-1  -.1171E-1  -.3657E-2  -.2045E-1  -.3170E-1  0.1386E-3  -.3184E-1
  70.09     -.3110E-1  -.1014E-1  -.3172E-2  -.1779E-1  -.2757E-1  0.1198E-3  -.2769E-1
  70.24     -.2699E-1  -.8783E-2  -.2750E-2  -.1546E-1  -.2396E-1  0.1035E-3  -.2406E-1
  70.39     -.2341E-1  -.7603E-2  -.2383E-2  -.1342E-1  -.2081E-1  0.8949E-4  -.2090E-1
  70.53     -.2029E-1  -.6581E-2  -.2065E-2  -.1165E-1  -.1806E-1  0.7735E-4  -.1813E-1
  70.68     -.1759E-1  -.5694E-2  -.1788E-2  -.1010E-1  -.1566E-1  0.6685E-4  -.1573E-1
  70.82     -.1523E-1  -.4926E-2  -.1548E-2  -.8759E-2  -.1358E-1  0.5778E-4  -.1363E-1
  70.97     -.1319E-1  -.4261E-2  -.1340E-2  -.7590E-2  -.1176E-1  0.4993E-4  -.1181E-1
  71.12     -.1142E-1  -.3686E-2  -.1160E-2  -.6575E-2  -.1019E-1  0.4315E-4  -.1023E-1
  71.26     -.9884E-2  -.3187E-2  -.1003E-2  -.5693E-2  -.8823E-2  0.3729E-4  -.8860E-2
  71.41     -.8553E-2  -.2756E-2  -.8678E-3  -.4929E-2  -.7638E-2  0.3223E-4  -.7670E-2
  71.55     -.7399E-2  -.2383E-2  -.7506E-3  -.4266E-2  -.6610E-2  0.2785E-4  -.6638E-2
  71.70     -.6401E-2  -.2060E-2  -.6491E-3  -.3691E-2  -.5720E-2  0.2407E-4  -.5744E-2
  71.85     -.5536E-2  -.1781E-2  -.5613E-3  -.3193E-2  -.4948E-2  0.2080E-4  -.4969E-2
  71.99     -.4787E-2  -.1540E-2  -.4854E-3  -.2762E-2  -.4280E-2  0.1798E-4  -.4298E-2
  72.14     -.4140E-2  -.1331E-2  -.4196E-3  -.2389E-2  -.3702E-2  0.1553E-4  -.3717E-2
  72.29     -.3579E-2  -.1150E-2  -.3628E-3  -.2066E-2  -.3201E-2  0.1342E-4  -.3215E-2
  72.43     -.3094E-2  -.9944E-3  -.3136E-3  -.1786E-2  -.2768E-2  0.1160E-4  -.2780E-2
  72.58     -.2675E-2  -.8595E-3  -.2711E-3  -.1545E-2  -.2393E-2  0.1002E-4  -.2403E-2
  72.72     -.2312E-2  -.7428E-3  -.2343E-3  -.1335E-2  -.2069E-2  0.8663E-5  -.2078E-2
  72.87     -.1999E-2  -.6420E-3  -.2025E-3  -.1154E-2  -.1789E-2  0.7486E-5  -.1796E-2
# 
# YPP_PH@anomaly x 001 CPUs * 03/22/2016  14:16 [start]
#                             03/22/2016  14:16 [end]
#
# .-Input file : yambo.in
# | electrons                    # [R] Electrons (and holes)
# | eliashberg                   # [R] Eliashberg
# | BoseTemp= 0.000000     eV    # Bosonic Temperature
# | PhBroad=0.1000E-2      eV    # Phonon broadening (Eliashberg & DOS)
# | PhStps=  500                 # Energy steps
# | %QPkrange                    #  generalized Kpoint/Band indices
# |   1|  1|  2|  4|
# |   7|  7|  5|  6|
# | %
