#                                                           
#  **    **    **     ****     ****  ******     *******     
# //**  **    ****   /**/**   **/** /*////**   **/////**    
#  //****    **//**  /**//** ** /** /*   /**  **     //**   
#   //**    **  //** /** //***  /** /******  /**      /**   
#    /**   **********/**  //*   /** /*//// **/**      /**   
#    /**  /**//////**/**   /    /** /*    /**//**     **    
#    /**  /**     /**/**        /** /*******  //*******     
#    //   //      // //         //  ///////    ///////      
#                                                           
#        Version 4.2.0 Revision 14456 Hash cc1a9b3          
#                  MPI+SLK+OpenMP Build                     
#                http://www.yambo-code.org                  
#
# Absorption @ Q(1) [q->0 direction] : 1.0000000  0.0000000  0.0000000
#
#
# - Energies      are Perdew, Burke & Ernzerhof(X)+Perdew, Burke & Ernzerhof(C)
# - Wavefunctions are Perdew, Burke & Ernzerhof(X)+Perdew, Burke & Ernzerhof(C)
#
# - The Green`s function is Retarded -
# - Using the Length Gauge -
# - [r,Vnl] *is* included -
#
#    E/ev[1]       EPS-Im[2]     EPS-Re[3]
#
   0.20000        206.05       -542.18   
   0.20160        202.87       -533.08   
   0.20321        199.76       -524.20   
   0.20481        196.72       -515.52   
   0.20641        193.74       -507.03   
   0.20802        190.84       -498.73   
   0.20962        188.00       -490.62   
   0.21122        185.22       -482.69   
   0.21283        182.51       -474.93   
   0.21443        179.85       -467.33   
   0.21603        177.25       -459.90   
   0.21764        174.71       -452.62   
   0.21924        172.23       -445.51   
   0.22084        169.80       -438.54   
   0.22244        167.42       -431.72   
   0.22405        165.09       -425.04   
   0.22565        162.81       -418.49   
   0.22725        160.58       -412.08   
   0.22886        158.40       -405.80   
   0.23046        156.26       -399.65   
   0.23206        154.16       -393.62   
   0.23367        152.11       -387.71   
   0.23527        150.11       -381.91   
   0.23687        148.14       -376.23   
   0.23848        146.21       -370.66   
   0.24008        144.33       -365.20   
   0.24168        142.48       -359.84   
   0.24329        140.66       -354.58   
   0.24489        138.89       -349.42   
   0.24649        137.15       -344.36   
   0.24810        135.44       -339.40   
   0.24970        133.77       -334.52   
   0.25130        132.13       -329.74   
   0.25291        130.53       -325.04   
   0.25451        128.95       -320.42   
   0.25611        127.40       -315.89   
   0.25772        125.89       -311.45   
   0.25932        124.40       -307.08   
   0.26092        122.95       -302.78   
   0.26253        121.52       -298.57   
   0.26413        120.11       -294.42   
   0.26573        118.74       -290.35   
   0.26733        117.39       -286.35   
   0.26894        116.07       -282.41   
   0.27054        114.77       -278.55   
   0.27214        113.49       -274.75   
      0.27375     112.24300    -271.00720
      0.27535     111.01571    -267.33127
      0.27695     109.81130    -263.71664
      0.27856     108.62934    -260.16110
      0.28016     107.46931    -256.66367
      0.28176     106.33081    -253.22296
      0.28337     105.21327    -249.83781
      0.28497     104.11655    -246.50705
      0.28657     103.03981    -243.22940
      0.28818     101.98304    -240.00403
      0.28978     100.94566    -236.82890
      0.29138      99.92726    -233.70387
      0.29299      98.92764    -230.62538
      0.29459      97.94634    -227.59598
      0.29619      96.98299    -224.61392
      0.29780      96.03734    -221.67676
      0.29940      95.10898    -218.78438
      0.30100      94.19758    -215.93620
      0.30261      93.30297    -213.13048
      0.30421      92.42460    -210.36688
      0.30581      91.56242    -207.64455
      0.30741      90.71614    -204.96217
      0.30902      89.88521    -202.31902
      0.31062      89.06956    -199.71477
      0.31222      88.26900    -197.14842
      0.31383      87.48309    -194.61902
      0.31543      86.71178    -192.12637
      0.31703      85.95459    -189.66925
      0.31864      85.21150    -187.24713
      0.32024      84.48206    -184.85939
      0.32184      83.76604    -182.50539
      0.32345      83.06349    -180.18416
      0.32505      82.37385    -177.89555
      0.32665      81.69717    -175.63864
      0.32826      81.03315    -173.41301
      0.32986      80.38151    -171.21794
      0.33146      79.74238    -169.05319
      0.33307      79.11500    -166.91776
      0.33467      78.49965    -164.81116
      0.33627      77.89590    -162.73300
      0.33788      77.30373    -160.68298
      0.33948      76.72285    -158.66058
      0.34108      76.15323    -156.66483
      0.34269      75.59451    -154.69583
      0.34429      75.04665    -152.75275
      0.34589      74.50940    -150.83502
      0.34749      73.98277    -148.94266
      0.34910      73.46640    -147.07495
      0.35070      72.96033    -145.23135
      0.35230      72.46431    -143.41180
      0.35391      71.97816    -141.61571
      0.35551      71.50192    -139.84242
      0.35711      71.03522    -138.09206
      0.35872      70.57816    -136.36388
      0.36032      70.13056    -134.65784
      0.36192      69.69218    -132.97324
      0.36353      69.26305    -131.31000
      0.36513      68.84286    -129.66733
      0.36673      68.43159    -128.04549
      0.36834      68.02927    -126.44389
      0.36994      67.63553    -124.86231
      0.37154      67.25058    -123.30019
      0.37315      66.87408    -121.75741
      0.37475      66.50605    -120.23370
      0.37635      66.14635    -118.72825
      0.37796      65.79488    -117.24200
      0.37956      65.45165    -115.77320
      0.38116      65.11637    -114.32264
      0.38277      64.78919    -112.88969
      0.38437      64.46983    -111.47458
      0.38597      64.15836    -110.07673
      0.38758      63.85466    -108.69570
      0.38918      63.55867    -107.33131
      0.39078      63.27021    -105.98368
      0.39238      62.98932    -104.65239
      0.39399      62.71592    -103.33749
      0.39559      62.44988    -102.03842
      0.39719      62.19109    -100.75481
     0.398798     61.939625    -99.487038
     0.400401     61.695320    -98.234772
     0.402004     61.458080    -96.997490
     0.403607     61.227875    -95.775482
     0.405210     61.004627    -94.568275
     0.406814     60.788353    -93.375916
     0.408417     60.578873    -92.198074
     0.410020     60.376148    -91.034866
     0.411623     60.180141    -89.885918
     0.413226     59.990665    -88.751190
     0.414830     59.807796    -87.630615
     0.416433     59.631317    -86.523911
     0.418036     59.461308    -85.431175
     0.419639     59.297569    -84.352020
     0.421242     59.140053    -83.286766
     0.422846     58.988750    -82.234840
     0.424449     58.843544    -81.196381
     0.426052     58.704273    -80.171288
     0.427655     58.570992    -79.159431
     0.429259     58.443535    -78.160698
     0.430862     58.321827    -77.174934
     0.432465     58.205627    -76.202370
     0.434068     58.095039    -75.242653
     0.435671     57.990021    -74.295776
     0.437275     57.890339    -73.361603
     0.438878     57.795925    -72.439972
     0.440481     57.706631    -71.531082
     0.442084     57.622520    -70.634628
     0.443687     57.543400    -69.750572
     0.445291     57.469265    -68.879051
     0.446894     57.399773    -68.019699
     0.448497     57.335114    -67.172691
     0.450100     57.274994    -66.337799
     0.451703     57.219498    -65.515228
     0.453307     57.168308    -64.704613
     0.454910     57.121319    -63.905998
     0.456513     57.078579    -63.119431
     0.458116     57.039944    -62.344650
     0.459719     57.005211    -61.581806
     0.461323     56.974312    -60.830772
     0.462926     56.947124    -60.091362
     0.464529     56.923603    -59.363781
     0.466132     56.903522    -58.647926
     0.467735     56.886784    -57.943512
     0.469339     56.873322    -57.250248
     0.470942     56.862911    -56.568794
     0.472545     56.855461    -55.898720
     0.474148     56.850914    -55.240231
     0.475752     56.849026    -54.593094
     0.477355     56.849724    -53.957310
     0.478958     56.852818    -53.332722
     0.480561     56.858215    -52.719414
     0.482164     56.865707    -52.117313
     0.483768     56.875240    -51.526234
     0.485371     56.886635    -50.946396
     0.486974     56.899700    -50.377300
     0.488577     56.914211    -49.819386
     0.490180     56.930153    -49.272190
     0.491784     56.947205    -48.736069
     0.493387     56.965332    -48.210499
     0.494990     56.984215    -47.695641
     0.496593     57.003819    -47.191528
     0.498196     57.023891    -46.697933
     0.499800     57.044254    -46.214802
     0.501403     57.064766    -45.742023
     0.503006     57.085114    -45.279469
     0.504609     57.105282    -44.827328
     0.506212     57.124943    -44.385151
     0.507816     57.143887    -43.952866
     0.509419     57.162052    -43.530586
     0.511022     57.179100    -43.117924
     0.512625     57.194969    -42.715008
     0.514228     57.209244    -42.321465
     0.515832     57.222027    -41.937290
     0.517435     57.232883    -41.562290
     0.519038     57.241665    -41.196163
     0.520641     57.248219    -40.839035
     0.522245     57.252327    -40.490345
     0.523848     57.253799    -40.150158
     0.525451     57.252510    -39.818218
     0.527054     57.248215    -39.494194
     0.528657     57.240723    -39.178009
     0.530261     57.229912    -38.869316
     0.531864     57.215622    -38.567890
     0.533467     57.197613    -38.273533
     0.535070     57.175823    -37.985909
     0.536673     57.150280    -37.704815
     0.538277     57.120544    -37.429810
     0.539880     57.086613    -37.160789
     0.541483     57.048523    -36.897282
     0.543086     57.006042    -36.639046
     0.544689     56.959221    -36.385841
     0.546293     56.907909    -36.137230
     0.547896     56.852077    -35.892860
     0.549499     56.791721    -35.652622
     0.551102     56.726795    -35.415840
     0.552705     56.657436    -35.182537
     0.554309     56.583603    -34.952053
     0.555912     56.505299    -34.724258
     0.557515     56.422695    -34.498707
     0.559118     56.335857    -34.275116
     0.560721     56.244816    -34.053043
     0.562325     56.149826    -33.832409
     0.563928     56.050922    -33.612705
     0.565531     55.948368    -33.393673
     0.567134     55.842297    -33.175045
     0.568738     55.732887    -32.956570
     0.570341     55.620480    -32.737816
     0.571944     55.505173    -32.518749
     0.573547     55.387348    -32.299091
     0.575150     55.267124    -32.078411
     0.576753     55.144905    -31.856831
     0.578357     55.020981    -31.633919
     0.579960     54.895546    -31.409718
     0.581563     54.769062    -31.183960
     0.583166     54.641682    -30.956461
     0.584770     54.513855    -30.727262
     0.586373     54.385792    -30.496363
     0.587976     54.257999    -30.263557
     0.589579     54.130653    -30.028812
     0.591182     54.004150    -29.792181
     0.592786     53.878693    -29.553743
     0.594389     53.754776    -29.313490
     0.595992     53.632607    -29.071426
     0.597595     53.512508    -28.827839
     0.599198     53.394791    -28.582563
     0.600802     53.279793    -28.335852
     0.602405     53.167789    -28.087751
     0.604008     53.058987    -27.838673
     0.605611     52.953697    -27.588535
     0.607214     52.852085    -27.337795
     0.608818     52.754452    -27.086523
     0.610421     52.661102    -26.834887
     0.612024     52.571987    -26.583166
     0.613627     52.487572    -26.331717
     0.615230     52.407833    -26.080677
     0.616834     52.332893    -25.830334
     0.618437     52.263039    -25.581123
     0.620040     52.198284    -25.333239
     0.621643     52.138714    -25.086954
     0.623246     52.084435    -24.842709
     0.624850     52.035473    -24.600702
     0.626453     51.991859    -24.361248
     0.628056     51.953552    -24.124733
     0.629659     51.920715    -23.891474
     0.631263     51.893085    -23.661867
     0.632866     51.870770    -23.436172
     0.634469     51.853626    -23.214685
     0.636072     51.841568    -22.997875
     0.637675     51.834469    -22.785837
     0.639279     51.832207    -22.579123
     0.640882     51.834641    -22.377964
     0.642485     51.841503    -22.182686
     0.644088     51.852619    -21.993479
     0.645691     51.867798    -21.810862
     0.647295     51.886726    -21.634912
     0.648898     51.909210    -21.465998
     0.650501     51.934860    -21.304327
     0.652104     51.963451    -21.150156
     0.653707     51.994648    -21.003746
     0.655311     52.028088    -20.865204
     0.656914     52.063412    -20.734858
     0.658517     52.100250    -20.612795
     0.660120     52.138062    -20.499214
     0.661723     52.176647    -20.394144
     0.663327     52.215496    -20.297701
     0.664930     52.254097    -20.210077
     0.666533     52.292122    -20.131142
     0.668136     52.329063    -20.061031
     0.669739     52.364502    -19.999714
     0.671343     52.397823    -19.947102
     0.672946     52.428761    -19.903101
     0.674549     52.456749    -19.867750
     0.676152     52.481327    -19.840811
     0.677756     52.502037    -19.822084
     0.679359     52.518490    -19.811378
     0.680962     52.530209    -19.808582
     0.682565     52.536629    -19.813322
     0.684168     52.537502    -19.825272
     0.685772     52.532444    -19.844250
     0.687375     52.521004    -19.869738
     0.688978     52.502789    -19.901512
     0.690581     52.477497    -19.939068
     0.692184     52.444885    -19.982010
     0.693788     52.404575    -20.029942
     0.695391     52.356380    -20.082363
     0.696994     52.300140    -20.138765
     0.698597     52.235519    -20.198692
     0.700200     52.162476    -20.261562
     0.701804     52.080853    -20.326990
     0.703407     51.990639    -20.394402
     0.705010     51.891636    -20.463194
     0.706613     51.783939    -20.532896
     0.708216     51.667572    -20.602976
     0.709820     51.542549    -20.672932
     0.711423     51.409004    -20.742258
     0.713026     51.267033    -20.810450
     0.714629     51.116779    -20.876932
     0.716232     50.958447    -20.941374
     0.717836     50.792271    -21.003216
     0.719439     50.618446    -21.062046
     0.721042     50.437244    -21.117472
     0.722645     50.248962    -21.169134
     0.724249     50.053947    -21.216599
     0.725852     49.852402    -21.259373
     0.727455     49.644863    -21.297478
     0.729058     49.431614    -21.330383
     0.730661     49.213013    -21.357851
     0.732265     48.989365    -21.379612
     0.733868     48.761139    -21.395573
     0.735471     48.528679    -21.405487
     0.737074     48.292477    -21.409193
     0.738677     48.052895    -21.406551
     0.740281     47.810295    -21.397396
     0.741884     47.564968    -21.381731
     0.743487     47.317486    -21.359478
     0.745090     47.068199    -21.330603
     0.746693     46.817410    -21.295082
     0.748297     46.565571    -21.252907
     0.749900     46.312950    -21.204155
     0.751503     46.060013    -21.148773
     0.753106     45.807007    -21.086958
     0.754709     45.554329    -21.018698
     0.756313     45.302280    -20.944052
     0.757916     45.051136    -20.863173
     0.759519     44.801262    -20.776159
     0.761122     44.552887    -20.683228
     0.762725     44.306198    -20.584406
     0.764329     44.061623    -20.479885
     0.765932     43.819263    -20.369831
     0.767535     43.579414    -20.254354
     0.769138     43.342316    -20.133635
     0.770741     43.108074    -20.007822
     0.772345     42.876968    -19.877146
     0.773948     42.649120    -19.741766
     0.775551     42.424835    -19.601879
     0.777154     42.204124    -19.457554
     0.778758     41.987133    -19.309090
     0.780361     41.774139    -19.156645
     0.781964     41.565208    -19.000416
     0.783567     41.360405    -18.840528
     0.785170     41.159939    -18.677198
     0.786774     40.963860    -18.510605
     0.788377     40.772289    -18.341022
     0.789980     40.585323    -18.168530
     0.791583     40.403061    -17.993273
     0.793186     40.225533    -17.815489
     0.794790     40.052856    -17.635410
     0.796393     39.885132    -17.453115
     0.797996     39.722351    -17.268900
     0.799599     39.564617    -17.082872
     0.801202     39.412018    -16.895315
     0.802806     39.264595    -16.706268
     0.804409     39.122307    -16.515984
     0.806012     38.985287    -16.324574
     0.807615     38.853588    -16.132462
     0.809218     38.727196    -15.939510
     0.810822     38.606117    -15.746189
     0.812425     38.490372    -15.552477
     0.814028     38.380013    -15.358698
     0.815631     38.275089    -15.165001
     0.817234     38.175552    -14.971532
     0.818838     38.081398    -14.778576
     0.820441     37.992599    -14.586195
     0.822044     37.909187    -14.394765
     0.823647     37.831150    -14.204336
     0.825251     37.758488    -14.015172
     0.826854     37.691101    -13.827476
     0.828457     37.628975    -13.641325
     0.830060     37.572041    -13.457109
     0.831663     37.520279    -13.274944
     0.833267     37.473572    -13.094989
     0.834870     37.431911    -12.917468
     0.836473     37.395245    -12.742653
     0.838076     37.363411    -12.570671
     0.839679     37.336269    -12.401677
     0.841283     37.313862    -12.235969
     0.842886     37.295975    -12.073667
     0.844489     37.282520    -11.915015
     0.846092     37.273327    -11.760120
     0.847695     37.268211    -11.609226
     0.849299     37.267212    -11.462473
     0.850902     37.269966    -11.320100
     0.852505     37.276340    -11.182142
     0.854108     37.286201    -11.048882
     0.855711     37.299343    -10.920438
     0.857315     37.315556    -10.796921
     0.858918     37.334599    -10.678535
     0.860521     37.356323    -10.565339
     0.862124     37.380508    -10.457441
     0.863727     37.406803    -10.355053
     0.865331     37.435112    -10.258088
     0.866934     37.465107    -10.166801
     0.868537     37.496460    -10.081176
     0.870140     37.529095    -10.001301
     0.871743     37.562645     -9.927196
     0.873347     37.596874     -9.858927
     0.874950     37.631458     -9.796497
     0.876553     37.666180     -9.739860
     0.878156     37.700756     -9.689059
     0.879759     37.734951     -9.644000
     0.881363     37.768497     -9.604720
     0.882966     37.801006     -9.571134
     0.884569     37.832321     -9.543105
     0.886172     37.862190     -9.520617
     0.887776     37.890244     -9.503553
     0.889379     37.916416     -9.491790
     0.890982     37.940434     -9.485188
     0.892585     37.961948     -9.483600
     0.894188     37.980835     -9.486830
     0.895792     37.996754     -9.494744
     0.897395     38.009712     -9.507205
     0.898998     38.019440     -9.523992
     0.900601     38.025715     -9.544793
     0.902204     38.028477     -9.569558
     0.903808     38.027458     -9.598004
     0.905411     38.022644     -9.629936
     0.907014     38.013744     -9.665144
     0.908617     38.000912     -9.703309
     0.910220     37.983814     -9.744220
     0.911824     37.962624     -9.787748
     0.913427     37.937057     -9.833631
     0.915030     37.907276     -9.881559
     0.916633     37.873070     -9.931332
     0.918236     37.834457     -9.982749
     0.919840     37.791546    -10.035571
     0.921443     37.744232    -10.089601
     0.923046     37.692661    -10.144650
     0.924649     37.636742    -10.200423
     0.926252     37.576561    -10.256779
     0.927856     37.512173    -10.313511
     0.929459     37.443676    -10.370525
     0.931062     37.371105    -10.427535
     0.932665     37.294460    -10.484416
     0.934269     37.213955    -10.541065
     0.935872     37.129547    -10.597211
     0.937475     37.041443    -10.652816
     0.939078     36.949604    -10.707693
     0.940681     36.854286    -10.761821
     0.942285     36.755424    -10.814960
     0.943888     36.653244    -10.867093
     0.945491     36.547791    -10.918125
     0.947094     36.439106    -10.967862
     0.948697     36.327332    -11.016348
     0.950301     36.212563    -11.063412
     0.951904     36.094936    -11.109041
     0.953507     35.974476    -11.153111
     0.955110     35.851341    -11.195659
     0.956713     35.725597    -11.236505
     0.958317     35.597298    -11.275699
     0.959920     35.466553    -11.313111
     0.961523     35.333424    -11.348735
     0.963126     35.197990    -11.382536
     0.964729     35.060413    -11.414474
     0.966333     34.920681    -11.444498
     0.967936     34.778912    -11.472583
     0.969539     34.635139    -11.498631
     0.971142     34.489517    -11.522801
     0.972745     34.342045    -11.544846
     0.974349     34.192795    -11.564841
     0.975952     34.041859    -11.582720
     0.977555     33.889400    -11.598517
     0.979158     33.735348    -11.612160
     0.980762     33.579880    -11.623605
     0.982365     33.422985    -11.632890
     0.983968     33.264660    -11.639959
     0.985571     33.105133    -11.644837
     0.987174     32.944408    -11.647483
     0.988778     32.782558    -11.647869
     0.990381     32.619572    -11.645988
     0.991984     32.455658    -11.641846
     0.993587     32.290806    -11.635383
     0.995190     32.124969    -11.626667
     0.996794     31.958405    -11.615615
     0.998397     31.791042    -11.602281
     1.000000     31.622997    -11.586592
# 
# 04/14/2017 at 09:03 YAMBO_RT @ anomaly [start]
# 04/14/2017 at 09:03                    [end]
#  
# Timing   [Min/Max/Average]: 01s/01s/01s
#
# .-Input file : yambo.in
# | optics                       # [R OPT] Optics
# | chi                          # [R CHI] Dyson equation for Chi.
# | BoseTemp=  0.02585     eV    # Bosonic Temperature
# | FFTGvecs= 1157         RL    # [FFT] Plane-waves
# | X_Threads= 1                 # [OPENMP/X] Number of threads for response functions
# | DIP_Threads= 1               # [OPENMP/X] Number of threads for dipoles
# | Chimod= "IP"                 # [X] IP/Hartree/ALDA/LRC/BSfxc
# | NGsBlkXd= 1            RL    # [Xd] Response block size
# | % QpntsRXd
# |  1 | 1 |                     # [Xd] Transferred momenta
# | %
# | % BndsRnXd
# |   1 | 20 |                   # [Xd] Polarization function bands
# | %
# | GrFnTpXd= "R"                # [Xd] Green`s function (T)ordered,(R)etarded,(r)senant,(a)ntiresonant [T, R, r, Ta, Ra]
# | % EnRngeXd
# |  0.200000 | 1.000000 | eV    # [Xd] Energy range
# | %
# | % DmRngeXd
# |   0.10000 |  0.10000 | eV    # [Xd] Damping range
# | %
# | ETStpsXd=  500               # [Xd] Total Energy steps
# | DrudeWXd= ( 4.800000 , 5.650000 )  eV  # [Xd] Drude plasmon
# | % LongDrXd
# | 0.1000E-4 | 0.000    | 0.000    |        # [Xd] [cc] Electric Field
# | %
# | DipApproach= "Shifted grids" # [Xd] [G-space v/R-space x/Covariant/Shifted grids]
# | ShiftedPaths= "SHIFTED_grids/shift_1 SHIFTED_grids/shift_2 SHIFTED_grids/shift_3" # [Xd] Shifted grids paths (separated by a space)
