#                                                                     
#  __  __   ________   ___ __ __    _______   ______                  
# /_/\/_/\ /_______/\ /__//_//_/\ /_______/\ /_____/\                 
# \ \ \ \ \\::: _  \ \\::\| \| \ \\::: _  \ \\:::_ \ \                
#  \:\_\ \ \\::(_)  \ \\:.      \ \\::(_)  \/_\:\ \ \ \               
#   \::::_\/ \:: __  \ \\:.\-/\  \ \\::  _  \ \\:\ \ \ \              
#     \::\ \  \:.\ \  \ \\. \  \  \ \\::(_)  \ \\:\_\ \ \             
#      \__\/   \__\/\__\/ \__\/ \__\/ \_______\/ \_____\/             
#                                                                     
#                                                                     
# Version 5.2.0 Revision 23129 Hash (prev commit) 3a51862bc           
#            Branch is phys-levels_degeneracy                         
#                    MPI+HDF5_IO Build                                
#                http://www.yambo-code.eu                             
#
# MOKE parameters @ Q(1):   1.00000000      0.00000000      0.00000000    [q->0 direction]
# [DIP] Rotation plane                            : xy
#
# Moke units: Radiants
#
# [GEN] GF Energies                               : Perdew, Burke & Ernzerhof(X)+Perdew, Burke & Ernzerhof(C)
# [GEN] Green`s Function                          : Retarded
#
# [GEN] Gauge                                     : Length
# [GEN] [r,Vnl] included                          : yes
#
# DIP band range                                  :   5  14
# DIP band range limits                           :  10  11
# DIP e/h energy range                            :  -1.00000000     -1.00000000    [eV]
# RL vectors in the sum                           :   3525
# [r,Vnl] included                                : yes
# Bands ordered                                   : yes
# Direct v evaluation                             : no
# Approach used                                   : G-space v
# Dipoles computed                                : R V P
# Wavefunctions                                   : Perdew, Burke & Ernzerhof(X)+Perdew, Burke & Ernzerhof(C)
#
#
#    E[1] [eV]          Im(moke)           Re(moke)
#
        0.000000          -0.000000          -0.147172E-3
        0.010010           0.253694E-7       -0.146928E-3
        0.020020           0.489789E-7       -0.146996E-3
        0.030030           0.728327E-7       -0.147235E-3
        0.040040           0.977307E-7       -0.147113E-3
        0.050050           0.120392E-6       -0.146690E-3
        0.060060           0.147419E-6       -0.147165E-3
        0.070070           0.169372E-6       -0.146570E-3
        0.080080           0.196022E-6       -0.147182E-3
        0.090090           0.219944E-6       -0.146805E-3
        0.100100           0.243591E-6       -0.146808E-3
        0.110110           0.269161E-6       -0.146866E-3
        0.120120           0.293026E-6       -0.146892E-3
        0.130130           0.316759E-6       -0.146724E-3
        0.140140           0.338611E-6       -0.146213E-3
        0.150150           0.366810E-6       -0.146776E-3
        0.160160           0.389774E-6       -0.146519E-3
        0.170170           0.415869E-6       -0.146321E-3
        0.180180           0.439921E-6       -0.146408E-3
        0.190190           0.465256E-6       -0.146462E-3
        0.200200           0.486438E-6       -0.146465E-3
        0.210210           0.514406E-6       -0.146538E-3
        0.220220           0.539609E-6       -0.146166E-3
        0.230230           0.562580E-6       -0.146109E-3
        0.240240           0.590217E-6       -0.145790E-3
        0.250250           0.614926E-6       -0.145906E-3
        0.260260           0.639521E-6       -0.145444E-3
        0.270270           0.670227E-6       -0.146211E-3
        0.280280           0.696164E-6       -0.145776E-3
        0.290290           0.720657E-6       -0.145863E-3
        0.300300           0.745909E-6       -0.145839E-3
        0.310310           0.773709E-6       -0.145826E-3
        0.320320           0.800535E-6       -0.145739E-3
        0.330330           0.827225E-6       -0.145376E-3
        0.340340           0.856570E-6       -0.145174E-3
        0.350350           0.884448E-6       -0.145508E-3
        0.360360           0.905508E-6       -0.144957E-3
        0.370370           0.936287E-6       -0.144997E-3
        0.380380           0.966490E-6       -0.145139E-3
        0.390390           0.998543E-6       -0.145460E-3
        0.400400           0.102339E-5       -0.144966E-3
        0.410410           0.104852E-5       -0.144870E-3
        0.420420           0.107698E-5       -0.144696E-3
        0.430430           0.111068E-5       -0.144912E-3
        0.440440           0.113633E-5       -0.144486E-3
        0.450450           0.116798E-5       -0.144491E-3
        0.460460           0.119112E-5       -0.144159E-3
        0.470470           0.122845E-5       -0.143899E-3
        0.480480           0.125763E-5       -0.144157E-3
        0.490490           0.129223E-5       -0.144268E-3
        0.500500           0.131192E-5       -0.143679E-3
        0.510511           0.135154E-5       -0.143876E-3
        0.520521           0.138557E-5       -0.143340E-3
        0.530531           0.140875E-5       -0.142892E-3
        0.540541           0.143522E-5       -0.142850E-3
        0.550551           0.147588E-5       -0.143090E-3
        0.560561           0.151923E-5       -0.142828E-3
        0.570571           0.153813E-5       -0.142346E-3
        0.580581           0.157142E-5       -0.142457E-3
        0.590591           0.161381E-5       -0.142237E-3
        0.600601           0.164959E-5       -0.142367E-3
        0.610611           0.168141E-5       -0.142107E-3
        0.620621           0.171985E-5       -0.141996E-3
        0.630631           0.175291E-5       -0.141839E-3
        0.640641           0.178558E-5       -0.141519E-3
        0.650651           0.182552E-5       -0.141401E-3
        0.660661           0.186859E-5       -0.141337E-3
        0.670671           0.190707E-5       -0.141083E-3
        0.680681           0.194262E-5       -0.140714E-3
        0.690691           0.197471E-5       -0.140270E-3
        0.700701           0.202174E-5       -0.140546E-3
        0.710711           0.207620E-5       -0.140741E-3
        0.720721           0.210664E-5       -0.140222E-3
        0.730731           0.214392E-5       -0.139833E-3
        0.740741           0.218908E-5       -0.139895E-3
        0.750751           0.222416E-5       -0.139381E-3
        0.760761           0.227418E-5       -0.139304E-3
        0.770771           0.232309E-5       -0.139225E-3
        0.780781           0.236824E-5       -0.138907E-3
        0.790791           0.240707E-5       -0.138542E-3
        0.800801           0.246888E-5       -0.138955E-3
        0.810811           0.250702E-5       -0.138344E-3
        0.820821           0.256382E-5       -0.138229E-3
        0.830831           0.260951E-5       -0.137565E-3
        0.840841           0.265369E-5       -0.137672E-3
        0.850851           0.271268E-5       -0.137223E-3
        0.860861           0.277290E-5       -0.137189E-3
        0.870871           0.282600E-5       -0.136775E-3
        0.880881           0.287839E-5       -0.136460E-3
        0.890891           0.291301E-5       -0.135727E-3
        0.900901           0.298614E-5       -0.135957E-3
        0.910911           0.302670E-5       -0.135254E-3
        0.920921           0.309705E-5       -0.135233E-3
        0.930931           0.317257E-5       -0.135305E-3
        0.940941           0.322265E-5       -0.134878E-3
        0.950951           0.329619E-5       -0.134595E-3
        0.960961           0.336074E-5       -0.134274E-3
        0.970971           0.341784E-5       -0.133869E-3
        0.980981           0.348441E-5       -0.133553E-3
        0.990991           0.355994E-5       -0.133107E-3
        1.001001           0.361423E-5       -0.132326E-3
        1.011011           0.369269E-5       -0.132289E-3
        1.021021           0.377082E-5       -0.131690E-3
        1.031031           0.386413E-5       -0.131650E-3
        1.041041           0.394386E-5       -0.131572E-3
        1.051051           0.402071E-5       -0.131107E-3
        1.061061           0.408320E-5       -0.130446E-3
        1.071071           0.416602E-5       -0.130040E-3
        1.081081           0.424842E-5       -0.129536E-3
        1.091091           0.434618E-5       -0.129159E-3
        1.101101           0.443038E-5       -0.128991E-3
        1.111111           0.452054E-5       -0.128458E-3
        1.121121           0.462077E-5       -0.128004E-3
        1.131131           0.472069E-5       -0.127661E-3
        1.141141           0.482900E-5       -0.127109E-3
        1.151151           0.491044E-5       -0.126325E-3
        1.161161           0.504394E-5       -0.126465E-3
        1.171171           0.514319E-5       -0.125382E-3
        1.181181           0.525840E-5       -0.125048E-3
        1.191191           0.538546E-5       -0.124672E-3
        1.201201           0.550212E-5       -0.124216E-3
        1.211211           0.562872E-5       -0.123677E-3
        1.221221           0.577911E-5       -0.123551E-3
        1.231231           0.588894E-5       -0.122359E-3
        1.241241           0.604862E-5       -0.122030E-3
        1.251251           0.617973E-5       -0.121561E-3
        1.261261           0.634253E-5       -0.121010E-3
        1.271271           0.649201E-5       -0.120157E-3
        1.281281           0.665196E-5       -0.119357E-3
        1.291291           0.683359E-5       -0.118514E-3
        1.301301           0.699314E-5       -0.118421E-3
        1.311311           0.717118E-5       -0.117326E-3
        1.321321           0.736467E-5       -0.116474E-3
        1.331331           0.755278E-5       -0.116196E-3
        1.341341           0.776005E-5       -0.115332E-3
        1.351351           0.799292E-5       -0.114710E-3
        1.361361           0.819247E-5       -0.113711E-3
        1.371371           0.843705E-5       -0.113188E-3
        1.381381           0.869425E-5       -0.112661E-3
        1.391391           0.892718E-5       -0.111410E-3
        1.401401           0.918742E-5       -0.110499E-3
        1.411411           0.947913E-5       -0.109623E-3
        1.421421           0.978862E-5       -0.109194E-3
        1.431431           0.100622E-4       -0.108019E-3
        1.441441           0.104119E-4       -0.107137E-3
        1.451451           0.107368E-4       -0.105890E-3
        1.461461           0.110963E-4       -0.104995E-3
        1.471471           0.114809E-4       -0.103913E-3
        1.481481           0.119082E-4       -0.102955E-3
        1.491491           0.123105E-4       -0.101686E-3
        1.501501           0.127916E-4       -0.100568E-3
        1.511511           0.132810E-4       -0.993471E-4
        1.521521           0.138128E-4       -0.982681E-4
        1.531531           0.144098E-4       -0.968180E-4
        1.541541           0.150182E-4       -0.955064E-4
        1.551551           0.157450E-4       -0.939125E-4
        1.561561           0.165296E-4       -0.925125E-4
        1.571571           0.174225E-4       -0.910509E-4
        1.581581           0.184104E-4       -0.897546E-4
        1.591591           0.194897E-4       -0.880644E-4
        1.601601           0.207064E-4       -0.865064E-4
        1.611611           0.220573E-4       -0.845498E-4
        1.621622           0.234931E-4       -0.829515E-4
        1.631632           0.251395E-4       -0.820159E-4
        1.641642           0.269109E-4       -0.801727E-4
        1.651652           0.288495E-4       -0.790665E-4
        1.661662           0.309215E-4       -0.777509E-4
        1.671672           0.330741E-4       -0.760887E-4
        1.681682           0.354283E-4       -0.757432E-4
        1.691692           0.377804E-4       -0.747127E-4
        1.701702           0.401550E-4       -0.747477E-4
        1.711712           0.423847E-4       -0.740240E-4
        1.721722           0.445102E-4       -0.743440E-4
        1.731732           0.462987E-4       -0.744606E-4
        1.741742           0.478455E-4       -0.748655E-4
        1.751752           0.490010E-4       -0.750461E-4
        1.761762           0.498748E-4       -0.755003E-4
        1.771772           0.505292E-4       -0.746501E-4
        1.781782           0.510879E-4       -0.743871E-4
        1.791792           0.517729E-4       -0.739603E-4
        1.801802           0.525196E-4       -0.732184E-4
        1.811812           0.534157E-4       -0.720711E-4
        1.821822           0.544977E-4       -0.703809E-4
        1.831832           0.558102E-4       -0.691291E-4
        1.841842           0.572125E-4       -0.678419E-4
        1.851852           0.586573E-4       -0.670688E-4
        1.861862           0.600164E-4       -0.657326E-4
        1.871872           0.614226E-4       -0.647765E-4
        1.881882           0.624754E-4       -0.644124E-4
        1.891892           0.633308E-4       -0.634696E-4
        1.901902           0.640122E-4       -0.619926E-4
        1.911912           0.644210E-4       -0.605138E-4
        1.921922           0.647961E-4       -0.585492E-4
        1.931932           0.651770E-4       -0.559482E-4
        1.941942           0.657707E-4       -0.538197E-4
        1.951952           0.664041E-4       -0.496877E-4
        1.961962           0.675147E-4       -0.463872E-4
        1.971972           0.689402E-4       -0.417002E-4
        1.981982           0.706371E-4       -0.372140E-4
        1.991992           0.729145E-4       -0.324766E-4
        2.002002           0.755011E-4       -0.272634E-4
        2.012012           0.786973E-4       -0.218296E-4
        2.022022           0.822327E-4       -0.162442E-4
        2.032032           0.864209E-4       -0.993235E-5
        2.042042           0.910678E-4       -0.382273E-5
        2.052052           0.965154E-4        0.283261E-5
        2.062062           0.102504E-3        0.949883E-5
        2.072072           0.109423E-3        0.168828E-4
        2.082082           0.117227E-3        0.242649E-4
        2.092092           0.125677E-3        0.327269E-4
        2.102102           0.135398E-3        0.408190E-4
        2.112112           0.146129E-3        0.495845E-4
        2.122122           0.158512E-3        0.578990E-4
        2.132132           0.172490E-3        0.667065E-4
        2.142142           0.187556E-3        0.763394E-4
        2.152152           0.205293E-3        0.858336E-4
        2.162162           0.225050E-3        0.946577E-4
        2.172172           0.247598E-3        0.103589E-3
        2.182182           0.272884E-3        0.112324E-3
        2.192192           0.301399E-3        0.120130E-3
        2.202202           0.333718E-3        0.126984E-3
        2.212212           0.370437E-3        0.131539E-3
        2.222222           0.411471E-3        0.134622E-3
        2.232232           0.458453E-3        0.132818E-3
        2.242242           0.511954E-3        0.127068E-3
        2.252252           0.570681E-3        0.115234E-3
        2.262262           0.636017E-3        0.940044E-4
        2.272272           0.707965E-3        0.608459E-4
        2.282282           0.784084E-3        0.130095E-4
        2.292292           0.863127E-3       -0.539708E-4
        2.302302           0.939361E-3       -0.142697E-3
        2.312312           0.001008          -0.257573E-3
        2.322322           0.001059          -0.400939E-3
        2.332332           0.001083          -0.569672E-3
        2.342342           0.001068          -0.758262E-3
        2.352352           0.001002          -0.954928E-3
        2.362362           0.879165E-3       -0.001142
        2.372372           0.702211E-3       -0.001299
        2.382382           0.483245E-3       -0.001405
        2.392392           0.241979E-3       -0.001446
        2.402402           0.405338E-5       -0.001418
        2.412412          -0.206446E-3       -0.001330
        2.422422          -0.372898E-3       -0.001199
        2.432432          -0.489523E-3       -0.001045
        2.442442          -0.555973E-3       -0.886864E-3
        2.452452          -0.580893E-3       -0.738625E-3
        2.462462          -0.576552E-3       -0.608809E-3
        2.472472          -0.550711E-3       -0.499677E-3
        2.482482          -0.513931E-3       -0.412526E-3
        2.492492          -0.469576E-3       -0.344199E-3
        2.502502          -0.425026E-3       -0.291848E-3
        2.512512          -0.382470E-3       -0.253198E-3
        2.522522          -0.343007E-3       -0.224751E-3
        2.532532          -0.306603E-3       -0.204355E-3
        2.542542          -0.274226E-3       -0.190572E-3
        2.552552          -0.246087E-3       -0.180603E-3
        2.562562          -0.221887E-3       -0.174702E-3
        2.572572          -0.201081E-3       -0.170976E-3
        2.582582          -0.183479E-3       -0.169770E-3
        2.592592          -0.169052E-3       -0.169015E-3
        2.602602          -0.157415E-3       -0.169170E-3
        2.612612          -0.148146E-3       -0.169509E-3
        2.622622          -0.140922E-3       -0.170825E-3
        2.632632          -0.135923E-3       -0.171316E-3
        2.642642          -0.132951E-3       -0.171508E-3
        2.652653          -0.131616E-3       -0.171098E-3
        2.662663          -0.131931E-3       -0.168938E-3
        2.672673          -0.133629E-3       -0.166288E-3
        2.682683          -0.136714E-3       -0.161599E-3
        2.692693          -0.140750E-3       -0.154936E-3
        2.702703          -0.145452E-3       -0.145669E-3
        2.712713          -0.150256E-3       -0.132947E-3
        2.722723          -0.154106E-3       -0.116882E-3
        2.732733          -0.155889E-3       -0.967399E-4
        2.742743          -0.153649E-3       -0.729338E-4
        2.752753          -0.145743E-3       -0.461987E-4
        2.762763          -0.130422E-3       -0.185536E-4
        2.772773          -0.107064E-3        0.782622E-5
        2.782783          -0.755748E-4        0.283729E-4
        2.792793          -0.385654E-4        0.410750E-4
        2.802803           0.517341E-6        0.439097E-4
        2.812813           0.381589E-4        0.363479E-4
        2.822823           0.707238E-4        0.212300E-4
        2.832833           0.963407E-4        0.950646E-6
        2.842843           0.115134E-3       -0.214979E-4
        2.852853           0.127691E-3       -0.433572E-4
        2.862863           0.135819E-3       -0.637517E-4
        2.872873           0.140764E-3       -0.817888E-4
        2.882883           0.143917E-3       -0.973707E-4
        2.892893           0.146318E-3       -0.110998E-3
        2.902903           0.148881E-3       -0.123363E-3
        2.912913           0.151601E-3       -0.134885E-3
        2.922923           0.154742E-3       -0.146456E-3
        2.932933           0.158460E-3       -0.158870E-3
        2.942943           0.161972E-3       -0.172703E-3
        2.952953           0.164523E-3       -0.188187E-3
        2.962963           0.165290E-3       -0.205842E-3
        2.972973           0.163018E-3       -0.225022E-3
        2.982983           0.156838E-3       -0.244803E-3
        2.992993           0.145698E-3       -0.263686E-3
        3.003003           0.130139E-3       -0.280040E-3
        3.013013           0.111266E-3       -0.292541E-3
        3.023023           0.903747E-4       -0.299858E-3
        3.033033           0.694547E-4       -0.302135E-3
        3.043043           0.497671E-4       -0.299917E-3
        3.053053           0.321784E-4       -0.293927E-3
        3.063063           0.166948E-4       -0.285335E-3
        3.073073           0.376359E-5       -0.274801E-3
        3.083083          -0.748525E-5       -0.262412E-3
        3.093093          -0.164016E-4       -0.248745E-3
        3.103103          -0.238314E-4       -0.231972E-3
        3.113113          -0.287722E-4       -0.212404E-3
        3.123123          -0.292346E-4       -0.189569E-3
        3.133133          -0.240105E-4       -0.163846E-3
        3.143143          -0.111231E-4       -0.135696E-3
        3.153153           0.112270E-4       -0.108055E-3
        3.163163           0.454500E-4       -0.839502E-4
        3.173173           0.920734E-4       -0.676881E-4
        3.183183           0.148251E-3       -0.641585E-4
        3.193193           0.211131E-3       -0.779947E-4
        3.203203           0.274279E-3       -0.113427E-3
        3.213213           0.330765E-3       -0.170969E-3
        3.223223           0.372076E-3       -0.249717E-3
        3.233233           0.389529E-3       -0.343047E-3
        3.243243           0.377145E-3       -0.442939E-3
        3.253253           0.335172E-3       -0.537173E-3
        3.263263           0.267547E-3       -0.614678E-3
        3.273273           0.182716E-3       -0.668349E-3
        3.283283           0.918837E-4       -0.695308E-3
        3.293293           0.568616E-5       -0.698438E-3
        3.303303          -0.702595E-4       -0.682817E-3
        3.313313          -0.133334E-3       -0.656811E-3
        3.323323          -0.183587E-3       -0.626893E-3
        3.333333          -0.224551E-3       -0.595906E-3
        3.343343          -0.257048E-3       -0.566200E-3
        3.353353          -0.285469E-3       -0.539209E-3
        3.363363          -0.311921E-3       -0.514172E-3
        3.373373          -0.339087E-3       -0.491474E-3
        3.383383          -0.367380E-3       -0.468880E-3
        3.393393          -0.398220E-3       -0.444796E-3
        3.403403          -0.430805E-3       -0.417787E-3
        3.413413          -0.465778E-3       -0.384335E-3
        3.423423          -0.502423E-3       -0.343572E-3
        3.433433          -0.537559E-3       -0.292644E-3
        3.443443          -0.568426E-3       -0.229114E-3
        3.453453          -0.589733E-3       -0.154295E-3
        3.463463          -0.596323E-3       -0.676910E-4
        3.473473          -0.581509E-3        0.259160E-4
        3.483483          -0.542525E-3        0.118774E-3
        3.493493          -0.478282E-3        0.201684E-3
        3.503503          -0.392185E-3        0.265193E-3
        3.513513          -0.292765E-3        0.301776E-3
        3.523524          -0.191412E-3        0.308629E-3
        3.533533          -0.974191E-4        0.289051E-3
        3.543543          -0.215009E-4        0.248013E-3
        3.553553           0.354845E-4        0.195098E-3
        3.563564           0.732189E-4        0.138432E-3
        3.573573           0.932510E-4        0.820623E-4
        3.583583           0.996484E-4        0.306439E-4
        3.593593           0.961161E-4       -0.142110E-4
        3.603603           0.855744E-4       -0.514721E-4
        3.613613           0.702454E-4       -0.817581E-4
        3.623623           0.520062E-4       -0.105148E-3
        3.633634           0.325514E-4       -0.123275E-3
        3.643643           0.123777E-4       -0.135195E-3
        3.653653          -0.724362E-5       -0.142416E-3
        3.663663          -0.256178E-4       -0.145423E-3
        3.673674          -0.424985E-4       -0.144540E-3
        3.683683          -0.567161E-4       -0.141239E-3
        3.693693          -0.692218E-4       -0.135959E-3
        3.703704          -0.790605E-4       -0.129573E-3
        3.713714          -0.870339E-4       -0.123093E-3
        3.723723          -0.937925E-4       -0.116602E-3
        3.733733          -0.999655E-4       -0.110259E-3
        3.743744          -0.106321E-3       -0.103837E-3
        3.753754          -0.113148E-3       -0.965328E-4
        3.763763          -0.120164E-3       -0.876500E-4
        3.773773          -0.126952E-3       -0.762014E-4
        3.783784          -0.131782E-3       -0.620516E-4
        3.793794          -0.133787E-3       -0.451170E-4
        3.803803          -0.131107E-3       -0.271203E-4
        3.813814          -0.123136E-3       -0.100283E-4
        3.823824          -0.111181E-3        0.428147E-5
        3.833834          -0.966270E-4        0.143290E-4
        3.843843          -0.812663E-4        0.195107E-4
        3.853854          -0.671585E-4        0.206587E-4
        3.863864          -0.556744E-4        0.190949E-4
        3.873873          -0.466778E-4        0.160993E-4
        3.883883          -0.400683E-4        0.130235E-4
        3.893894          -0.352200E-4        0.106263E-4
        3.903904          -0.315672E-4        0.932157E-5
        3.913913          -0.278930E-4        0.875867E-5
        3.923924          -0.239959E-4        0.867422E-5
        3.933934          -0.198567E-4        0.866710E-5
        3.943944          -0.152985E-4        0.831521E-5
        3.953954          -0.110098E-4        0.758435E-5
        3.963964          -0.700342E-5        0.639097E-5
        3.973974          -0.333991E-5        0.498989E-5
        3.983984          -0.130308E-6        0.339095E-5
        3.993994           0.258741E-5        0.182231E-5
        4.004004           0.477351E-5        0.406552E-6
        4.014014           0.673461E-5       -0.812354E-6
        4.024024           0.851386E-5       -0.163663E-5
        4.034034           0.104092E-4       -0.213665E-5
        4.044044           0.126923E-4       -0.255044E-5
        4.054054           0.154059E-4       -0.325302E-5
        4.064064           0.185076E-4       -0.481768E-5
        4.074074           0.216748E-4       -0.768903E-5
        4.084084           0.239587E-4       -0.124124E-4
        4.094094           0.242013E-4       -0.190463E-4
        4.104104           0.208730E-4       -0.269798E-4
        4.114114           0.126006E-4       -0.347575E-4
        4.124124          -0.128039E-5       -0.397781E-4
        4.134134          -0.202505E-4       -0.391383E-4
        4.144144          -0.420795E-4       -0.298395E-4
        4.154154          -0.632765E-4       -0.100467E-4
        4.164164          -0.794251E-4        0.201036E-4
        4.174174          -0.862165E-4        0.591398E-4
        4.184184          -0.803011E-4        0.103770E-3
        4.194194          -0.594364E-4        0.149532E-3
        4.204204          -0.228955E-4        0.191099E-3
        4.214214           0.279654E-4        0.223057E-3
        4.224224           0.899948E-4        0.240268E-3
        4.234234           0.157687E-3        0.238640E-3
        4.244244           0.224127E-3        0.216724E-3
        4.254254           0.281993E-3        0.175699E-3
        4.264264           0.324864E-3        0.120258E-3
        4.274274           0.349314E-3        0.569579E-4
        4.284284           0.354596E-3       -0.706327E-5
        4.294294           0.343512E-3       -0.654662E-4
        4.304304           0.319983E-3       -0.114283E-3
        4.314314           0.289345E-3       -0.151670E-3
        4.324324           0.255483E-3       -0.178035E-3
        4.334334           0.221811E-3       -0.194777E-3
        4.344344           0.190073E-3       -0.203984E-3
        4.354354           0.161232E-3       -0.207672E-3
        4.364364           0.135279E-3       -0.207227E-3
        4.374374           0.112074E-3       -0.203792E-3
        4.384384           0.911988E-4       -0.197923E-3
        4.394394           0.724482E-4       -0.189871E-3
        4.404404           0.558727E-4       -0.179871E-3
        4.414414           0.416455E-4       -0.167815E-3
        4.424424           0.302123E-4       -0.153809E-3
        4.434434           0.219579E-4       -0.138331E-3
        4.444444           0.175149E-4       -0.122002E-3
        4.454454           0.173829E-4       -0.105998E-3
        4.464464           0.212214E-4       -0.915674E-4
        4.474474           0.283242E-4       -0.800491E-4
        4.484484           0.373350E-4       -0.724007E-4
        4.494494           0.465799E-4       -0.688049E-4
        4.504504           0.545429E-4       -0.686121E-4
        4.514514           0.602631E-4       -0.707800E-4
        4.524524           0.630119E-4       -0.738098E-4
        4.534534           0.632858E-4       -0.766058E-4
        4.544544           0.617241E-4       -0.777773E-4
        4.554554           0.591840E-4       -0.769065E-4
        4.564565           0.571389E-4       -0.739020E-4
        4.574574           0.563106E-4       -0.692668E-4
        4.584584           0.575250E-4       -0.636995E-4
        4.594594           0.607696E-4       -0.582163E-4
        4.604605           0.658409E-4       -0.536847E-4
        4.614614           0.721909E-4       -0.503983E-4
        4.624624           0.793146E-4       -0.488455E-4
        4.634634           0.866260E-4       -0.490363E-4
        4.644644           0.937341E-4       -0.507923E-4
        4.654655           0.999845E-4       -0.538076E-4
        4.664664           0.105573E-3       -0.574552E-4
        4.674675           0.110256E-3       -0.615739E-4
        4.684684           0.114599E-3       -0.656766E-4
        4.694695           0.119121E-3       -0.698730E-4
        4.704704           0.124075E-3       -0.745201E-4
        4.714715           0.129627E-3       -0.804072E-4
        4.724724           0.135532E-3       -0.881714E-4
        4.734735           0.140793E-3       -0.988661E-4
        4.744744           0.144108E-3       -0.112236E-3
        4.754755           0.143951E-3       -0.127694E-3
        4.764764           0.139343E-3       -0.143632E-3
        4.774775           0.130029E-3       -0.157534E-3
        4.784785           0.118123E-3       -0.168165E-3
        4.794795           0.106178E-3       -0.174053E-3
        4.804804           0.968198E-4       -0.177877E-3
        4.814815           0.906678E-4       -0.182760E-3
        4.824825           0.852727E-4       -0.192278E-3
        4.834835           0.765219E-4       -0.206600E-3
        4.844844           0.595311E-4       -0.223815E-3
        4.854855           0.319123E-4       -0.238773E-3
        4.864865          -0.483844E-5       -0.245197E-3
        4.874875          -0.458488E-4       -0.238474E-3
        4.884884          -0.845113E-4       -0.217568E-3
        4.894895          -0.115221E-3       -0.185151E-3
        4.904905          -0.134081E-3       -0.145905E-3
        4.914915          -0.140578E-3       -0.105424E-3
        4.924924          -0.136637E-3       -0.681228E-4
        4.934935          -0.125386E-3       -0.366486E-4
        4.944945          -0.110267E-3       -0.117407E-4
        4.954955          -0.938070E-4        0.736587E-5
        4.964964          -0.776049E-4        0.218515E-4
        4.974975          -0.627187E-4        0.330807E-4
        4.984985          -0.492211E-4        0.424022E-4
        4.994995          -0.370591E-4        0.506208E-4
        5.005005          -0.257799E-4        0.586736E-4
        5.015015          -0.148751E-4        0.669766E-4
        5.025025          -0.370191E-5        0.758296E-4
        5.035035           0.834585E-5        0.853566E-4
        5.045045           0.220393E-4        0.954252E-4
        5.055055           0.380044E-4        0.105478E-3
        5.065065           0.568447E-4        0.114906E-3
        5.075075           0.788330E-4        0.122734E-3
        5.085085           0.103886E-3        0.128012E-3
        5.095095           0.131582E-3        0.129669E-3
        5.105105           0.161238E-3        0.126987E-3
        5.115115           0.192241E-3        0.119352E-3
        5.125125           0.223940E-3        0.106386E-3
        5.135135           0.255611E-3        0.874691E-4
        5.145144           0.286513E-3        0.616575E-4
        5.155155           0.315227E-3        0.277877E-4
        5.165165           0.339131E-3       -0.151389E-4
        5.175175           0.354716E-3       -0.671522E-4
        5.185184           0.357663E-3       -0.126205E-3
        5.195195           0.344400E-3       -0.188181E-3
        5.205205           0.313494E-3       -0.247099E-3
        5.215215           0.266411E-3       -0.296010E-3
        5.225225           0.207735E-3       -0.329535E-3
        5.235235           0.144231E-3       -0.345217E-3
        5.245245           0.823266E-4       -0.343537E-3
        5.255255           0.274359E-4       -0.327612E-3
        5.265265          -0.177213E-4       -0.301867E-3
        5.275275          -0.522201E-4       -0.270790E-3
        5.285285          -0.770827E-4       -0.237982E-3
        5.295295          -0.939579E-4       -0.205845E-3
        5.305305          -0.104695E-3       -0.175879E-3
        5.315315          -0.111087E-3       -0.148394E-3
        5.325325          -0.114396E-3       -0.123524E-3
        5.335335          -0.115980E-3       -0.100887E-3
        5.345345          -0.115943E-3       -0.801549E-4
        5.355355          -0.115070E-3       -0.609672E-4
        5.365365          -0.113389E-3       -0.428855E-4
        5.375375          -0.111181E-3       -0.256358E-4
        5.385385          -0.108537E-3       -0.900008E-5
        5.395395          -0.104941E-3        0.717177E-5
        5.405405          -0.100544E-3        0.229441E-4
        5.415415          -0.955378E-4        0.380856E-4
        5.425425          -0.897722E-4        0.524944E-4
        5.435435          -0.832513E-4        0.664025E-4
        5.445445          -0.763084E-4        0.793427E-4
        5.455455          -0.690560E-4        0.917143E-4
        5.465465          -0.619411E-4        0.103601E-3
        5.475475          -0.548379E-4        0.115186E-3
        5.485485          -0.477770E-4        0.126844E-3
        5.495495          -0.402832E-4        0.138766E-3
        5.505505          -0.326244E-4        0.150973E-3
        5.515515          -0.241895E-4        0.163480E-3
        5.525526          -0.151130E-4        0.176196E-3
        5.535535          -0.507398E-5        0.189059E-3
        5.545545           0.563835E-5        0.201961E-3
        5.555555           0.172502E-4        0.214917E-3
        5.565566           0.297162E-4        0.228193E-3
        5.575575           0.430784E-4        0.241777E-3
        5.585585           0.577179E-4        0.255918E-3
        5.595595           0.741346E-4        0.270639E-3
        5.605606           0.928855E-4        0.285743E-3
        5.615615           0.114383E-3        0.300747E-3
        5.625625           0.138898E-3        0.315118E-3
        5.635635           0.166414E-3        0.328312E-3
        5.645645           0.197204E-3        0.339742E-3
        5.655655           0.230846E-3        0.348978E-3
        5.665665           0.267712E-3        0.355639E-3
        5.675675           0.307928E-3        0.359346E-3
        5.685685           0.351886E-3        0.358881E-3
        5.695695           0.399669E-3        0.353170E-3
        5.705705           0.450522E-3        0.339825E-3
        5.715715           0.503460E-3        0.317407E-3
        5.725725           0.555464E-3        0.283640E-3
        5.735735           0.603349E-3        0.237961E-3
        5.745746           0.642821E-3        0.181141E-3
        5.755755           0.670336E-3        0.116009E-3
        5.765765           0.682747E-3        0.465865E-4
        5.775775           0.680007E-3       -0.219557E-4
        5.785786           0.663695E-3       -0.852125E-4
        5.795795           0.637411E-3       -0.139438E-3
        5.805805           0.604764E-3       -0.183864E-3
        5.815815           0.569374E-3       -0.218505E-3
        5.825826           0.533497E-3       -0.244719E-3
        5.835835           0.498453E-3       -0.263877E-3
        5.845845           0.464752E-3       -0.277361E-3
        5.855855           0.432672E-3       -0.285478E-3
        5.865866           0.402441E-3       -0.288629E-3
        5.875876           0.375564E-3       -0.287110E-3
        5.885885           0.352384E-3       -0.280978E-3
        5.895895           0.335351E-3       -0.272071E-3
        5.905906           0.325043E-3       -0.262200E-3
        5.915915           0.321949E-3       -0.255067E-3
        5.925925           0.322510E-3       -0.252878E-3
        5.935935           0.324018E-3       -0.257243E-3
        5.945946           0.323035E-3       -0.267502E-3
        5.955956           0.316301E-3       -0.279906E-3
        5.965966           0.304786E-3       -0.292256E-3
        5.975976           0.288259E-3       -0.300191E-3
        5.985986           0.271002E-3       -0.302485E-3
        5.995996           0.256282E-3       -0.300226E-3
        6.006006           0.245169E-3       -0.294588E-3
        6.016016           0.239625E-3       -0.287831E-3
        6.026026           0.240105E-3       -0.282759E-3
        6.036036           0.244510E-3       -0.281633E-3
        6.046046           0.252258E-3       -0.287202E-3
        6.056056           0.259695E-3       -0.300383E-3
        6.066066           0.263364E-3       -0.321455E-3
        6.076076           0.259226E-3       -0.348954E-3
        6.086086           0.244849E-3       -0.378802E-3
        6.096096           0.219373E-3       -0.405820E-3
        6.106106           0.185506E-3       -0.427509E-3
        6.116116           0.145328E-3       -0.439709E-3
        6.126126           0.103625E-3       -0.441842E-3
        6.136136           0.633086E-4       -0.434487E-3
        6.146146           0.267914E-4       -0.419585E-3
        6.156156          -0.380039E-5       -0.398884E-3
        6.166166          -0.287824E-4       -0.374860E-3
        6.176176          -0.473737E-4       -0.349463E-3
        6.186186          -0.602272E-4       -0.324390E-3
        6.196196          -0.683251E-4       -0.300439E-3
        6.206206          -0.726572E-4       -0.278964E-3
        6.216216          -0.742268E-4       -0.260368E-3
        6.226226          -0.738870E-4       -0.244757E-3
        6.236236          -0.731598E-4       -0.232460E-3
        6.246246          -0.723642E-4       -0.223009E-3
        6.256256          -0.730679E-4       -0.216080E-3
        6.266266          -0.750282E-4       -0.211015E-3
        6.276276          -0.790042E-4       -0.207392E-3
        6.286286          -0.860027E-4       -0.204548E-3
        6.296296          -0.952957E-4       -0.201438E-3
        6.306306          -0.107579E-3       -0.197363E-3
        6.316316          -0.122655E-3       -0.191259E-3
        6.326326          -0.139459E-3       -0.182376E-3
        6.336336          -0.157721E-3       -0.170154E-3
        6.346346          -0.176228E-3       -0.154158E-3
        6.356356          -0.194045E-3       -0.134240E-3
        6.366366          -0.210379E-3       -0.110750E-3
        6.376376          -0.225059E-3       -0.839027E-4
        6.386386          -0.236633E-3       -0.545376E-4
        6.396396          -0.245323E-3       -0.230232E-4
        6.406406          -0.251257E-3        0.997254E-5
        6.416416          -0.253758E-3        0.439991E-4
        6.426426          -0.254174E-3        0.788332E-4
        6.436436          -0.251791E-3        0.114123E-3
        6.446446          -0.247444E-3        0.150120E-3
        6.456456          -0.241229E-3        0.187335E-3
        6.466466          -0.233051E-3        0.226456E-3
        6.476476          -0.222008E-3        0.268167E-3
        6.486486          -0.206947E-3        0.313218E-3
        6.496496          -0.185937E-3        0.361625E-3
        6.506506          -0.156436E-3        0.412505E-3
        6.516516          -0.117045E-3        0.464423E-3
        6.526526          -0.656922E-4        0.514295E-3
        6.536536          -0.132547E-5        0.557797E-3
        6.546546           0.749360E-4        0.590438E-3
        6.556556           0.159959E-3        0.607566E-3
        6.566566           0.247803E-3        0.605839E-3
        6.576576           0.330826E-3        0.584599E-3
        6.586586           0.402438E-3        0.547926E-3
        6.596596           0.457477E-3        0.502469E-3
        6.606606           0.495517E-3        0.457462E-3
        6.616616           0.521069E-3        0.419855E-3
        6.626626           0.541158E-3        0.394043E-3
        6.636636           0.564218E-3        0.380099E-3
        6.646646           0.597113E-3        0.374380E-3
        6.656656           0.644125E-3        0.370821E-3
        6.666666           0.708477E-3        0.361811E-3
        6.676676           0.789098E-3        0.338727E-3
        6.686686           0.881655E-3        0.291613E-3
        6.696696           0.977753E-3        0.213408E-3
        6.706707           0.001064           0.987852E-4
        6.716716           0.001124          -0.500025E-4
        6.726726           0.001143          -0.223757E-3
        6.736736           0.001111          -0.404469E-3
        6.746747           0.001027          -0.570997E-3
        6.756756           0.902397E-3       -0.705848E-3
        6.766766           0.752522E-3       -0.796119E-3
        6.776776           0.595869E-3       -0.841126E-3
        6.786787           0.447080E-3       -0.845324E-3
        6.796796           0.316289E-3       -0.818709E-3
        6.806807           0.208543E-3       -0.770437E-3
        6.816816           0.124738E-3       -0.710465E-3
        6.826826           0.619252E-4       -0.645897E-3
        6.836837           0.181008E-4       -0.581566E-3
        6.846846          -0.104177E-4       -0.521239E-3
        6.856857          -0.268008E-4       -0.466587E-3
        6.866867          -0.344679E-4       -0.418483E-3
        6.876876          -0.358003E-4       -0.377356E-3
        6.886887          -0.324388E-4       -0.343187E-3
        6.896896          -0.268733E-4       -0.315346E-3
        6.906906          -0.200962E-4       -0.293263E-3
        6.916917          -0.124417E-4       -0.276866E-3
        6.926927          -0.566025E-5       -0.265043E-3
        6.936936           0.176877E-6       -0.258241E-3
        6.946947           0.311111E-5       -0.255827E-3
        6.956956           0.194732E-5       -0.256986E-3
        6.966967          -0.411403E-5       -0.260527E-3
        6.976976          -0.162889E-4       -0.264017E-3
        6.986986          -0.350090E-4       -0.265097E-3
        6.996997          -0.585201E-4       -0.261376E-3
        7.007007          -0.849922E-4       -0.251512E-3
        7.017016          -0.111920E-3       -0.235041E-3
        7.027027          -0.137772E-3       -0.211511E-3
        7.037036          -0.160589E-3       -0.181935E-3
        7.047047          -0.178841E-3       -0.147282E-3
        7.057057          -0.191504E-3       -0.108328E-3
        7.067066          -0.197633E-3       -0.667428E-4
        7.077077          -0.196881E-3       -0.244132E-4
        7.087087          -0.188961E-3        0.167964E-4
        7.097096          -0.175400E-3        0.555408E-4
        7.107107          -0.157394E-3        0.903573E-4
        7.117116          -0.136426E-3        0.121421E-3
        7.127127          -0.113734E-3        0.148993E-3
        7.137137          -0.899866E-4        0.174151E-3
        7.147147          -0.650699E-4        0.197756E-3
        7.157157          -0.381484E-4        0.219729E-3
        7.167167          -0.889797E-5        0.240307E-3
        7.177176           0.233667E-4        0.259477E-3
        7.187187           0.601007E-4        0.276035E-3
        7.197196           0.100316E-3        0.287815E-3
        7.207206           0.144689E-3        0.293593E-3
        7.217217           0.190774E-3        0.290832E-3
        7.227227           0.236619E-3        0.278787E-3
        7.237237           0.278742E-3        0.256874E-3
        7.247247           0.313497E-3        0.226636E-3
        7.257257           0.337805E-3        0.191420E-3
        7.267267           0.351719E-3        0.155902E-3
        7.277277           0.355616E-3        0.123682E-3
        7.287286           0.352242E-3        0.969937E-4
        7.297297           0.345516E-3        0.781323E-4
        7.307307           0.338661E-3        0.667517E-4
        7.317317           0.334719E-3        0.606798E-4
        7.327327           0.335419E-3        0.597700E-4
        7.337337           0.341630E-3        0.596045E-4
        7.347347           0.354462E-3        0.580910E-4
        7.357357           0.373258E-3        0.526352E-4
        7.367367           0.395184E-3        0.386977E-4
        7.377377           0.418101E-3        0.152598E-4
        7.387387           0.436717E-3       -0.186204E-4
        7.397398           0.445505E-3       -0.617030E-4
        7.407407           0.440035E-3       -0.111307E-3
        7.417417           0.418042E-3       -0.159142E-3
        7.427427           0.379368E-3       -0.198746E-3
        7.437437           0.330192E-3       -0.224504E-3
        7.447447           0.275800E-3       -0.232489E-3
        7.457457           0.223705E-3       -0.222311E-3
        7.467467           0.178678E-3       -0.197581E-3
        7.477477           0.145314E-3       -0.162296E-3
        7.487487           0.125179E-3       -0.120598E-3
        7.497497           0.118355E-3       -0.770189E-4
        7.507507           0.123647E-3       -0.346775E-4
        7.517517           0.139253E-3        0.366629E-5
        7.527527           0.164501E-3        0.365024E-4
        7.537537           0.197295E-3        0.619080E-4
        7.547547           0.236321E-3        0.784621E-4
        7.557557           0.280374E-3        0.846795E-4
        7.567567           0.326505E-3        0.797646E-4
        7.577577           0.372365E-3        0.613292E-4
        7.587587           0.413239E-3        0.291704E-4
        7.597597           0.445236E-3       -0.157401E-4
        7.607607           0.462037E-3       -0.695537E-4
        7.617618           0.462659E-3       -0.127688E-3
        7.627627           0.444778E-3       -0.181887E-3
        7.637637           0.412612E-3       -0.228141E-3
        7.647647           0.371312E-3       -0.260423E-3
        7.657657           0.326317E-3       -0.279109E-3
        7.667667           0.281840E-3       -0.284614E-3
        7.677677           0.242660E-3       -0.281019E-3
        7.687687           0.208436E-3       -0.270941E-3
        7.697698           0.180838E-3       -0.257072E-3
        7.707707           0.157020E-3       -0.241308E-3
        7.717717           0.136109E-3       -0.224056E-3
        7.727727           0.118003E-3       -0.205195E-3
        7.737737           0.103149E-3       -0.185460E-3
        7.747747           0.907789E-4       -0.163802E-3
        7.757757           0.808689E-4       -0.140725E-3
        7.767767           0.734978E-4       -0.116711E-3
        7.777778           0.703295E-4       -0.915458E-4
        7.787787           0.700205E-4       -0.656758E-4
        7.797797           0.728611E-4       -0.391142E-4
        7.807807           0.795972E-4       -0.117791E-4
        7.817817           0.905747E-4        0.155320E-4
        7.827827           0.106492E-3        0.430089E-4
        7.837838           0.127494E-3        0.702001E-4
        7.847847           0.155276E-3        0.957793E-4
        7.857858           0.190307E-3        0.117995E-3
        7.867867           0.234011E-3        0.134520E-3
        7.877877           0.284858E-3        0.142672E-3
        7.887887           0.342038E-3        0.138708E-3
        7.897897           0.402573E-3        0.117827E-3
        7.907907           0.460231E-3        0.785928E-4
        7.917918           0.507976E-3        0.210972E-4
        7.927927           0.538881E-3       -0.524545E-4
        7.937938           0.545712E-3       -0.134979E-3
        7.947948           0.527093E-3       -0.216167E-3
        7.957957           0.485992E-3       -0.287567E-3
        7.967968           0.426839E-3       -0.340301E-3
        7.977977           0.359875E-3       -0.372753E-3
        7.987987           0.292425E-3       -0.385314E-3
        7.997998           0.229599E-3       -0.380358E-3
        8.008007           0.175685E-3       -0.363024E-3
        8.018017           0.131824E-3       -0.337885E-3
        8.028028           0.972406E-4       -0.307850E-3
        8.038037           0.711314E-4       -0.275735E-3
        8.048048           0.532668E-4       -0.243544E-3
        8.058058           0.419634E-4       -0.212049E-3
        8.068068           0.353563E-4       -0.182299E-3
        8.078078           0.332511E-4       -0.154034E-3
        8.088087           0.348932E-4       -0.128282E-3
        8.098097           0.400603E-4       -0.104400E-3
        8.108108           0.481994E-4       -0.835777E-4
        8.118117           0.583381E-4       -0.652873E-4
        8.128128           0.702371E-4       -0.502455E-4
        8.138138           0.832187E-4       -0.386672E-4
        8.148148           0.964771E-4       -0.305995E-4
        8.158158           0.109680E-3       -0.262356E-4
        8.168168           0.120676E-3       -0.249171E-4
        8.178178           0.129629E-3       -0.260375E-4
        8.188188           0.135589E-3       -0.283758E-4
        8.198197           0.138118E-3       -0.305059E-4
        8.208207           0.138322E-3       -0.315943E-4
        8.218218           0.136957E-3       -0.307445E-4
        8.228228           0.135140E-3       -0.278704E-4
        8.238238           0.133531E-3       -0.233336E-4
        8.248248           0.132422E-3       -0.172481E-4
        8.258258           0.132075E-3       -0.102093E-4
        8.268268           0.132867E-3       -0.237765E-5
        8.278277           0.135800E-3        0.536900E-5
        8.288287           0.138345E-3        0.137476E-4
        8.298298           0.142566E-3        0.220583E-4
        8.308308           0.147539E-3        0.305389E-4
        8.318318           0.153264E-3        0.390267E-4
        8.328328           0.161288E-3        0.471857E-4
        8.338338           0.170313E-3        0.551199E-4
        8.348348           0.180161E-3        0.623948E-4
        8.358357           0.192193E-3        0.686728E-4
        8.368367           0.205147E-3        0.735035E-4
        8.378378           0.219806E-3        0.762689E-4
        8.388388           0.235153E-3        0.767766E-4
        8.398398           0.250812E-3        0.743707E-4
        8.408408           0.265662E-3        0.694794E-4
        8.418418           0.279548E-3        0.618672E-4
        8.428429           0.292205E-3        0.520246E-4
        8.438437           0.301304E-3        0.407907E-4
        8.448447           0.308343E-3        0.285071E-4
        8.458458           0.313425E-3        0.156150E-4
        8.468468           0.316166E-3        0.255342E-5
        8.478477           0.316802E-3       -0.993921E-5
        8.488488           0.314997E-3       -0.218499E-4
        8.498498           0.311199E-3       -0.325504E-4
        8.508509           0.305569E-3       -0.417783E-4
        8.518518           0.298922E-3       -0.492189E-4
        8.528527           0.291204E-3       -0.546550E-4
        8.538538           0.282540E-3       -0.577513E-4
        8.548548           0.275382E-3       -0.590344E-4
        8.558558           0.267899E-3       -0.583590E-4
        8.568568           0.262117E-3       -0.564591E-4
        8.578578           0.257684E-3       -0.538630E-4
        8.588589           0.254304E-3       -0.509617E-4
        8.598598           0.250797E-3       -0.480045E-4
        8.608608           0.248520E-3       -0.452192E-4
        8.618618           0.245624E-3       -0.423432E-4
        8.628628           0.242794E-3       -0.388411E-4
        8.638638           0.239544E-3       -0.341192E-4
        8.648648           0.236591E-3       -0.280653E-4
        8.658658           0.234885E-3       -0.203744E-4
        8.668669           0.234844E-3       -0.115409E-4
        8.678679           0.237000E-3       -0.188664E-5
        8.688688           0.241742E-3        0.802585E-5
        8.698698           0.249183E-3        0.174133E-4
        8.708708           0.258466E-3        0.256354E-4
        8.718718           0.270843E-3        0.317460E-4
        8.728728           0.283728E-3        0.355279E-4
        8.738738           0.299269E-3        0.362722E-4
        8.748748           0.312692E-3        0.343986E-4
        8.758759           0.326212E-3        0.297218E-4
        8.768768           0.338792E-3        0.228818E-4
        8.778779           0.350299E-3        0.142163E-4
        8.788788           0.358930E-3        0.450209E-5
        8.798798           0.366513E-3       -0.615970E-5
        8.808808           0.372957E-3       -0.174660E-4
        8.818818           0.378055E-3       -0.291743E-4
        8.828828           0.381718E-3       -0.411921E-4
        8.838839           0.384060E-3       -0.535358E-4
        8.848848           0.384904E-3       -0.661391E-4
        8.858859           0.384230E-3       -0.790037E-4
        8.868869           0.382583E-3       -0.920677E-4
        8.878878           0.378108E-3       -0.104846E-3
        8.888888           0.372765E-3       -0.117434E-3
        8.898898           0.365371E-3       -0.128872E-3
        8.908908           0.355793E-3       -0.139091E-3
        8.918919           0.345123E-3       -0.147536E-3
        8.928928           0.333773E-3       -0.153856E-3
        8.938939           0.322190E-3       -0.158321E-3
        8.948949           0.310773E-3       -0.161147E-3
        8.958959           0.299574E-3       -0.162602E-3
        8.968968           0.288922E-3       -0.163180E-3
        8.978978           0.278639E-3       -0.163011E-3
        8.988988           0.267385E-3       -0.161686E-3
        8.998999           0.257042E-3       -0.159267E-3
        9.009008           0.246161E-3       -0.155176E-3
        9.019018           0.236176E-3       -0.149141E-3
        9.029029           0.227163E-3       -0.141437E-3
        9.039039           0.219382E-3       -0.131971E-3
        9.049048           0.214163E-3       -0.121516E-3
        9.059058           0.211670E-3       -0.110738E-3
        9.069068           0.211260E-3       -0.999661E-4
        9.079079           0.213129E-3       -0.899950E-4
        9.089088           0.217229E-3       -0.814138E-4
        9.099098           0.223127E-3       -0.748849E-4
        9.109109           0.229881E-3       -0.706007E-4
        9.119119           0.236720E-3       -0.690929E-4
        9.129129           0.243161E-3       -0.702271E-4
        9.139138           0.247594E-3       -0.734966E-4
        9.149148           0.249621E-3       -0.781578E-4
        9.159159           0.249186E-3       -0.830526E-4
        9.169168           0.246235E-3       -0.871426E-4
        9.179178           0.241901E-3       -0.897068E-4
        9.189189           0.236697E-3       -0.905784E-4
        9.199199           0.231253E-3       -0.896579E-4
        9.209209           0.225876E-3       -0.874300E-4
        9.219219           0.221322E-3       -0.842350E-4
        9.229228           0.216899E-3       -0.802749E-4
        9.239239           0.213683E-3       -0.758530E-4
        9.249249           0.210620E-3       -0.709182E-4
        9.259258           0.207445E-3       -0.653384E-4
        9.269269           0.204898E-3       -0.590569E-4
        9.279279           0.203590E-3       -0.518910E-4
        9.289289           0.202922E-3       -0.438737E-4
        9.299299           0.204496E-3       -0.353913E-4
        9.309309           0.207508E-3       -0.269099E-4
        9.319319           0.212632E-3       -0.192013E-4
        9.329329           0.218837E-3       -0.127766E-4
        9.339338           0.226175E-3       -0.812898E-5
        9.349349           0.233973E-3       -0.527951E-5
        9.359359           0.241372E-3       -0.417795E-5
        9.369369           0.248412E-3       -0.438763E-5
        9.379379           0.254968E-3       -0.562960E-5
        9.389389           0.259682E-3       -0.757666E-5
        9.399399           0.264243E-3       -0.996487E-5
        9.409409           0.268231E-3       -0.128140E-4
        9.419418           0.271070E-3       -0.158119E-4
        9.429429           0.273458E-3       -0.190623E-4
        9.439439           0.275515E-3       -0.224992E-4
        9.449449           0.276481E-3       -0.260428E-4
        9.459459           0.276697E-3       -0.296607E-4
        9.469469           0.276397E-3       -0.331936E-4
        9.479479           0.274424E-3       -0.363441E-4
        9.489489           0.272151E-3       -0.389736E-4
        9.499498           0.269185E-3       -0.407892E-4
        9.509509           0.265452E-3       -0.415500E-4
        9.519519           0.262092E-3       -0.413478E-4
        9.529529           0.258900E-3       -0.401581E-4
        9.539539           0.256208E-3       -0.382078E-4
        9.549549           0.253633E-3       -0.357266E-4
        9.559559           0.252254E-3       -0.330005E-4
        9.569570           0.251222E-3       -0.301400E-4
        9.579578           0.250646E-3       -0.272539E-4
        9.589589           0.250355E-3       -0.244619E-4
        9.599599           0.250488E-3       -0.218259E-4
        9.609609           0.250693E-3       -0.193294E-4
        9.619619           0.251341E-3       -0.170189E-4
        9.629629           0.251450E-3       -0.148061E-4
        9.639639           0.252407E-3       -0.127795E-4
        9.649650           0.252760E-3       -0.108274E-4
        9.659659           0.253950E-3       -0.899841E-5
        9.669669           0.254181E-3       -0.720810E-5
        9.679679           0.254883E-3       -0.545679E-5
        9.689689           0.254736E-3       -0.372698E-5
        9.699699           0.256082E-3       -0.206708E-5
        9.709709           0.256361E-3       -0.309453E-6
        9.719719           0.256196E-3        0.147516E-5
        9.729730           0.256725E-3        0.330646E-5
        9.739739           0.257039E-3        0.512570E-5
        9.749749           0.256618E-3        0.718316E-5
        9.759759           0.256403E-3        0.935375E-5
        9.769769           0.256530E-3        0.116309E-4
        9.779779           0.256642E-3        0.140858E-4
        9.789789           0.256510E-3        0.167901E-4
        9.799799           0.255731E-3        0.197671E-4
        9.809810           0.255411E-3        0.230678E-4
        9.819819           0.255384E-3        0.266478E-4
        9.829829           0.254975E-3        0.306712E-4
        9.839839           0.254552E-3        0.351691E-4
        9.849849           0.254505E-3        0.401559E-4
        9.859859           0.254201E-3        0.457751E-4
        9.869869           0.255059E-3        0.519591E-4
        9.879879           0.255860E-3        0.588468E-4
        9.889890           0.258091E-3        0.663697E-4
        9.899899           0.260554E-3        0.745423E-4
        9.909909           0.264074E-3        0.833245E-4
        9.919919           0.269614E-3        0.924063E-4
        9.929929           0.276770E-3        0.101534E-3
        9.939939           0.285284E-3        0.110454E-3
        9.949949           0.295594E-3        0.118614E-3
        9.959959           0.307244E-3        0.125491E-3
        9.969970           0.320644E-3        0.130971E-3
        9.979980           0.335071E-3        0.134877E-3
        9.989989           0.349682E-3        0.137308E-3
        10.00000           0.365031E-3        0.138268E-3
# 
# 09/17/2024 at 13:23 yambo_rt @ baym [start]
# 09/17/2024 at 13:23                 [end]
#
# .-Input file  yambo.in
# | optics                           # [R] Linear Response optical properties
# | dipoles                          # [R] Oscillator strenghts (or dipoles)
# | bse                              # [R][BSE] Bethe Salpeter Equation.
# | BoseTemp= 0.000000         eV    # Bosonic Temperature
# | FFTGvecs=  3525            RL    # [FFT] Plane-waves
# | BS_nCPU_LinAlg_INV= 1            # [PARALLEL] CPUs for Linear Algebra (if -1 it is automatically set)
# | BS_nCPU_LinAlg_DIAGO= 1          # [PARALLEL] CPUs for Linear Algebra (if -1 it is automatically set)
# | BSKmod= "IP"                     # [BSE] IP/Hartree/HF/ALDA/SEX/BSfxc
# | BSEmod= "retarded"               # [BSE] resonant/retarded/coupling
# | % DipBands
# |   5 | 14 |                           # [DIP] Bands range for dipoles
# | %
# | DipComputed= "R V P"             # [DIP] [default R P V; extra P2 Spin Orb]
# | BSENGexx= 19641            RL    # [BSK] Exchange components
# | % BSEQptR
# |  1 | 1 |                             # [BSK] Transferred momenta range
# | %
# | % BSEBands
# |   5 | 14 |                           # [BSK] Bands range
# | %
# | % BEnRange
# |   0.00000 | 10.00000 |         eV    # [BSS] Energy range
# | %
# | % BDmRange
# |  0.100000 | 0.100000 |         eV    # [BSS] Damping range
# | %
# | BEnSteps= 1000                   # [BSS] Energy steps
# | % BLongDir
# |  0.100000E-4 |  0.00000    |  0.00000    # [BSS] [cc] Electric Field
# | %
# | BSEprop= "abs kerr jdos"         # [BSS] Can be any among abs/jdos/kerr/magn/dich/photolum/esrt
# | BSEdips= "xy"                    # [BSS] Can be "trace/none" or "xy/xz/yz" to define off-diagonal rotation plane
