#                                                                     
#  __  __   ________   ___ __ __    _______   ______                  
# /_/\/_/\ /_______/\ /__//_//_/\ /_______/\ /_____/\                 
# \ \ \ \ \\::: _  \ \\::\| \| \ \\::: _  \ \\:::_ \ \                
#  \:\_\ \ \\::(_)  \ \\:.      \ \\::(_)  \/_\:\ \ \ \               
#   \::::_\/ \:: __  \ \\:.\-/\  \ \\::  _  \ \\:\ \ \ \              
#     \::\ \  \:.\ \  \ \\. \  \  \ \\::(_)  \ \\:\_\ \ \             
#      \__\/   \__\/\__\/ \__\/ \__\/ \_______\/ \_____\/             
#                                                                     
#                                                                     
# Version 5.2.0 Revision 23129 Hash (prev commit) 3a51862bc           
#            Branch is phys-levels_degeneracy                         
#                    MPI+HDF5_IO Build                                
#                http://www.yambo-code.eu                             
#
# Off-diagonal Absorption @ Q(1):   1.00000000      0.00000000      0.00000000    [q->0 direction]
# [DIP] Rotation plane                            : xy
#
# [GEN] GF Energies                               : Perdew, Burke & Ernzerhof(X)+Perdew, Burke & Ernzerhof(C)
# [GEN] Green`s Function                          : Retarded
#
# [GEN] Gauge                                     : Length
# [GEN] [r,Vnl] included                          : yes
#
# DIP band range                                  :   5  14
# DIP band range limits                           :  10  11
# DIP e/h energy range                            :  -1.00000000     -1.00000000    [eV]
# RL vectors in the sum                           :   3525
# [r,Vnl] included                                : yes
# Bands ordered                                   : yes
# Direct v evaluation                             : no
# Approach used                                   : G-space v
# Dipoles computed                                : R V P
# Wavefunctions                                   : Perdew, Burke & Ernzerhof(X)+Perdew, Burke & Ernzerhof(C)
#
# Anomalous Hall effect (B_Hall)                  
# B_Hall (IP)                                     : -0.144013853E-6 [fs]^-1
#                                                 : -0.160237032E-3 [Ohm*cm]^-1
#                                                 :  -65.8291550    [e^2/hbar]
#
#    E[1] [eV]          Im(off)            Re(off)
#
        0.000000           0.000000           0.125421E-3
        0.010010           0.302743E-8        0.125215E-3
        0.020020           0.757849E-8        0.125276E-3
        0.030030           0.120349E-7        0.125486E-3
        0.040040           0.154446E-7        0.125391E-3
        0.050050           0.204738E-7        0.125042E-3
        0.060060           0.225524E-7        0.125459E-3
        0.070070           0.278697E-7        0.124968E-3
        0.080080           0.306177E-7        0.125509E-3
        0.090090           0.344149E-7        0.125208E-3
        0.100100           0.389759E-7        0.125235E-3
        0.110110           0.420156E-7        0.125310E-3
        0.120120           0.464862E-7        0.125360E-3
        0.130130           0.506737E-7        0.125247E-3
        0.140140           0.556259E-7        0.124844E-3
        0.150150           0.577248E-7        0.125361E-3
        0.160160           0.623027E-7        0.125180E-3
        0.170170           0.643135E-7        0.125052E-3
        0.180180           0.688988E-7        0.125169E-3
        0.190190           0.723457E-7        0.125261E-3
        0.200200           0.792248E-7        0.125312E-3
        0.210210           0.805859E-7        0.125426E-3
        0.220220           0.827135E-7        0.125160E-3
        0.230230           0.878932E-7        0.125167E-3
        0.240240           0.880315E-7        0.124951E-3
        0.250250           0.924603E-7        0.125112E-3
        0.260260           0.945145E-7        0.124779E-3
        0.270270           0.968602E-7        0.125503E-3
        0.280280           0.978795E-7        0.125198E-3
        0.290290           0.102619E-6        0.125344E-3
        0.300300           0.106222E-6        0.125397E-3
        0.310310           0.107738E-6        0.125462E-3
        0.320320           0.109737E-6        0.125465E-3
        0.330330           0.110315E-6        0.125234E-3
        0.340340           0.109473E-6        0.125143E-3
        0.350350           0.113115E-6        0.125517E-3
        0.360360           0.117336E-6        0.125130E-3
        0.370370           0.116805E-6        0.125257E-3
        0.380380           0.117521E-6        0.125474E-3
        0.390390           0.117960E-6        0.125848E-3
        0.400400           0.119171E-6        0.125520E-3
        0.410410           0.122868E-6        0.125539E-3
        0.420420           0.123146E-6        0.125492E-3
        0.430430           0.121817E-6        0.125787E-3
        0.440440           0.122688E-6        0.125527E-3
        0.450450           0.121666E-6        0.125642E-3
        0.460460           0.125416E-6        0.125470E-3
        0.470470           0.117371E-6        0.125361E-3
        0.480480           0.120764E-6        0.125706E-3
        0.490490           0.118361E-6        0.125926E-3
        0.500500           0.122922E-6        0.125537E-3
        0.510511           0.117022E-6        0.125838E-3
        0.520521           0.109421E-6        0.125500E-3
        0.530531           0.112022E-6        0.125241E-3
        0.540541           0.115590E-6        0.125341E-3
        0.550551           0.109555E-6        0.125690E-3
        0.560561           0.962988E-7        0.125602E-3
        0.570571           0.102291E-6        0.125322E-3
        0.580581           0.101729E-6        0.125568E-3
        0.590591           0.897573E-7        0.125524E-3
        0.600601           0.874187E-7        0.125791E-3
        0.610611           0.844303E-7        0.125718E-3
        0.620621           0.772694E-7        0.125778E-3
        0.630631           0.744110E-7        0.125801E-3
        0.640641           0.700472E-7        0.125681E-3
        0.650651           0.616073E-7        0.125744E-3
        0.660661           0.510917E-7        0.125857E-3
        0.670671           0.424046E-7        0.125803E-3
        0.680681           0.348798E-7        0.125650E-3
        0.690691           0.294702E-7        0.125432E-3
        0.700701           0.199872E-7        0.125861E-3
        0.710711           0.300284E-8        0.126220E-3
        0.720721          -0.186688E-8        0.125942E-3
        0.730731          -0.111895E-7        0.125783E-3
        0.740741          -0.213463E-7        0.126033E-3
        0.750751          -0.304323E-7        0.125766E-3
        0.760761          -0.468265E-7        0.125896E-3
        0.770771          -0.621486E-7        0.126028E-3
        0.780781          -0.775410E-7        0.125946E-3
        0.790791          -0.879565E-7        0.125823E-3
        0.800801          -0.107296E-6        0.126411E-3
        0.810811          -0.120801E-6        0.126070E-3
        0.820821          -0.143609E-6        0.126184E-3
        0.830831          -0.165057E-6        0.125799E-3
        0.840841          -0.172669E-6        0.126121E-3
        0.850851          -0.202914E-6        0.125937E-3
        0.860861          -0.227415E-6        0.126136E-3
        0.870871          -0.251791E-6        0.125990E-3
        0.880881          -0.273849E-6        0.125937E-3
        0.890891          -0.286926E-6        0.125500E-3
        0.900901          -0.318536E-6        0.125956E-3
        0.910911          -0.336782E-6        0.125551E-3
        0.920921          -0.370229E-6        0.125781E-3
        0.930931          -0.406687E-6        0.126102E-3
        0.940941          -0.428827E-6        0.125961E-3
        0.950951          -0.470163E-6        0.125958E-3
        0.960961          -0.503939E-6        0.125920E-3
        0.970971          -0.532440E-6        0.125807E-3
        0.980981          -0.568136E-6        0.125781E-3
        0.990991          -0.615029E-6        0.125634E-3
        1.001001          -0.649025E-6        0.125173E-3
        1.011011          -0.690405E-6        0.125419E-3
        1.021021          -0.743548E-6        0.125134E-3
        1.031031          -0.799218E-6        0.125383E-3
        1.041041          -0.842750E-6        0.125601E-3
        1.051051          -0.892232E-6        0.125451E-3
        1.061061          -0.932622E-6        0.125116E-3
        1.071071          -0.986862E-6        0.125028E-3
        1.081081          -0.104324E-5        0.124848E-3
        1.091091          -0.111167E-5        0.124793E-3
        1.101101          -0.116213E-5        0.124942E-3
        1.111111          -0.122740E-5        0.124742E-3
        1.121121          -0.130080E-5        0.124621E-3
        1.131131          -0.137138E-5        0.124611E-3
        1.141141          -0.145581E-5        0.124399E-3
        1.151151          -0.152037E-5        0.123961E-3
        1.161161          -0.161210E-5        0.124434E-3
        1.171171          -0.170300E-5        0.123706E-3
        1.181181          -0.179003E-5        0.123718E-3
        1.191191          -0.189033E-5        0.123691E-3
        1.201201          -0.198294E-5        0.123589E-3
        1.211211          -0.208824E-5        0.123406E-3
        1.221221          -0.220594E-5        0.123639E-3
        1.231231          -0.231462E-5        0.122808E-3
        1.241241          -0.244873E-5        0.122843E-3
        1.251251          -0.255887E-5        0.122740E-3
        1.261261          -0.270416E-5        0.122558E-3
        1.271271          -0.284614E-5        0.122070E-3
        1.281281          -0.299812E-5        0.121638E-3
        1.291291          -0.317467E-5        0.121165E-3
        1.301301          -0.330553E-5        0.121457E-3
        1.311311          -0.348885E-5        0.120726E-3
        1.321321          -0.368151E-5        0.120246E-3
        1.331331          -0.385046E-5        0.120359E-3
        1.341341          -0.406034E-5        0.119870E-3
        1.351351          -0.428993E-5        0.119633E-3
        1.361361          -0.449970E-5        0.119004E-3
        1.371371          -0.474117E-5        0.118873E-3
        1.381381          -0.499757E-5        0.118744E-3
        1.391391          -0.525709E-5        0.117851E-3
        1.401401          -0.553497E-5        0.117317E-3
        1.411411          -0.584719E-5        0.116821E-3
        1.421421          -0.616328E-5        0.116803E-3
        1.431431          -0.647277E-5        0.115989E-3
        1.441441          -0.685488E-5        0.115491E-3
        1.451451          -0.722846E-5        0.114597E-3
        1.461461          -0.762809E-5        0.114085E-3
        1.471471          -0.806623E-5        0.113369E-3
        1.481481          -0.854955E-5        0.112790E-3
        1.491491          -0.902319E-5        0.111870E-3
        1.501501          -0.958121E-5        0.111114E-3
        1.511511          -0.101581E-4        0.110245E-3
        1.521521          -0.107807E-4        0.109532E-3
        1.531531          -0.114991E-4        0.108407E-3
        1.541541          -0.122306E-4        0.107434E-3
        1.551551          -0.131157E-4        0.106146E-3
        1.561561          -0.140654E-4        0.105073E-3
        1.571571          -0.151499E-4        0.103931E-3
        1.581581          -0.163448E-4        0.102978E-3
        1.591591          -0.176762E-4        0.101576E-3
        1.601601          -0.191720E-4        0.100326E-3
        1.611611          -0.208591E-4        0.986190E-4
        1.621622          -0.226427E-4        0.973219E-4
        1.631632          -0.246529E-4        0.968018E-4
        1.641642          -0.268809E-4        0.952300E-4
        1.651652          -0.292865E-4        0.945260E-4
        1.661662          -0.318867E-4        0.935831E-4
        1.671672          -0.346311E-4        0.922329E-4
        1.681682          -0.375652E-4        0.924602E-4
        1.691692          -0.405699E-4        0.918782E-4
        1.701702          -0.435665E-4        0.925843E-4
        1.711712          -0.464687E-4        0.923799E-4
        1.721722          -0.492065E-4        0.934465E-4
        1.731732          -0.515752E-4        0.942632E-4
        1.741742          -0.536521E-4        0.954366E-4
        1.751752          -0.552836E-4        0.963281E-4
        1.761762          -0.565627E-4        0.975587E-4
        1.771772          -0.576780E-4        0.971642E-4
        1.781782          -0.586435E-4        0.975063E-4
        1.791792          -0.597939E-4        0.976638E-4
        1.801802          -0.610630E-4        0.974369E-4
        1.811812          -0.625742E-4        0.967105E-4
        1.821822          -0.643927E-4        0.953022E-4
        1.831832          -0.665009E-4        0.944771E-4
        1.841842          -0.687606E-4        0.936169E-4
        1.851852          -0.710638E-4        0.934400E-4
        1.861862          -0.733392E-4        0.925233E-4
        1.871872          -0.756773E-4        0.921215E-4
        1.881882          -0.775197E-4        0.924910E-4
        1.891892          -0.791812E-4        0.920813E-4
        1.901902          -0.806891E-4        0.909380E-4
        1.911912          -0.818525E-4        0.897642E-4
        1.921922          -0.830467E-4        0.879153E-4
        1.931932          -0.843485E-4        0.851713E-4
        1.941942          -0.859281E-4        0.830913E-4
        1.951952          -0.878415E-4        0.781736E-4
        1.961962          -0.903872E-4        0.744428E-4
        1.971972          -0.936266E-4        0.687270E-4
        1.981982          -0.973198E-4        0.632729E-4
        1.991992          -0.101993E-3        0.574733E-4
        2.002002          -0.107312E-3        0.509572E-4
        2.012012          -0.113713E-3        0.441346E-4
        2.022022          -0.120818E-3        0.370693E-4
        2.032032          -0.129223E-3        0.289423E-4
        2.042042          -0.138533E-3        0.211242E-4
        2.052052          -0.149440E-3        0.125427E-4
        2.062062          -0.161509E-3        0.398271E-5
        2.072072          -0.175542E-3       -0.557265E-5
        2.082082          -0.191413E-3       -0.149864E-4
        2.092092          -0.209046E-3       -0.260053E-4
        2.102102          -0.229239E-3       -0.361477E-4
        2.112112          -0.251915E-3       -0.470950E-4
        2.122122          -0.277994E-3       -0.567743E-4
        2.132132          -0.307766E-3       -0.666363E-4
        2.142142          -0.340646E-3       -0.772651E-4
        2.152152          -0.379259E-3       -0.864187E-4
        2.162162          -0.422542E-3       -0.930787E-4
        2.172172          -0.472286E-3       -0.979965E-4
        2.182182          -0.528550E-3       -0.100213E-3
        2.192192          -0.592147E-3       -0.976545E-4
        2.202202          -0.664264E-3       -0.892661E-4
        2.212212          -0.745452E-3       -0.713050E-4
        2.222222          -0.835779E-3       -0.440473E-4
        2.232232          -0.936089E-3        0.128288E-5
        2.242242          -0.001047           0.652674E-4
        2.252252          -0.001163           0.153335E-3
        2.262262          -0.001281           0.274774E-3
        2.272272          -0.001395           0.436184E-3
        2.282282          -0.001491           0.641282E-3
        2.292292          -0.001555           0.895070E-3
        2.302302          -0.001565           0.001190
        2.312312          -0.001500           0.001518
        2.322322          -0.001339           0.001854
        2.332332          -0.001075           0.002158
        2.342342          -0.714945E-3        0.002391
        2.352352          -0.289437E-3        0.002513
        2.362362           0.155808E-3        0.002506
        2.372372           0.568986E-3        0.002373
        2.382382           0.906372E-3        0.002140
        2.392392           0.001148           0.001849
        2.402402           0.001289           0.001538
        2.412412           0.001343           0.001241
        2.422422           0.001331           0.978747E-3
        2.432432           0.001276           0.758040E-3
        2.442442           0.001193           0.581822E-3
        2.452452           0.001096           0.445811E-3
        2.462462           0.997859E-3        0.343452E-3
        2.472472           0.901223E-3        0.268826E-3
        2.482482           0.812627E-3        0.216567E-3
        2.492492           0.729688E-3        0.181993E-3
        2.502502           0.656572E-3        0.159496E-3
        2.512512           0.592936E-3        0.147060E-3
        2.522522           0.537423E-3        0.141496E-3
        2.532532           0.488447E-3        0.141456E-3
        2.542542           0.446396E-3        0.145810E-3
        2.552552           0.410426E-3        0.151647E-3
        2.562562           0.380389E-3        0.160132E-3
        2.572572           0.354980E-3        0.169384E-3
        2.582582           0.334285E-3        0.180382E-3
        2.592592           0.317729E-3        0.190409E-3
        2.602602           0.305171E-3        0.200462E-3
        2.612612           0.295933E-3        0.209720E-3
        2.622622           0.290017E-3        0.219630E-3
        2.632632           0.287232E-3        0.227305E-3
        2.642642           0.287665E-3        0.233614E-3
        2.652653           0.290727E-3        0.238145E-3
        2.662663           0.296129E-3        0.238813E-3
        2.672673           0.304035E-3        0.237724E-3
        2.682683           0.313908E-3        0.231978E-3
        2.692693           0.325021E-3        0.221593E-3
        2.702703           0.336531E-3        0.205249E-3
        2.712713           0.346848E-3        0.181263E-3
        2.722723           0.353723E-3        0.149992E-3
        2.732733           0.354199E-3        0.110288E-3
        2.742743           0.344014E-3        0.637985E-4
        2.752753           0.319532E-3        0.129449E-4
        2.762763           0.277560E-3       -0.368543E-4
        2.772773           0.217435E-3       -0.801254E-4
        2.782783           0.141293E-3       -0.106459E-3
        2.792793           0.557943E-4       -0.112241E-3
        2.802803          -0.302456E-4       -0.944733E-4
        2.812813          -0.108489E-3       -0.534812E-4
        2.822823          -0.172336E-3        0.280670E-5
        2.832833          -0.218547E-3        0.683089E-4
        2.842843          -0.248661E-3        0.136728E-3
        2.852853          -0.265176E-3        0.202251E-3
        2.862863          -0.272157E-3        0.264065E-3
        2.872873          -0.272611E-3        0.320758E-3
        2.882883          -0.269498E-3        0.372885E-3
        2.892893          -0.264591E-3        0.422273E-3
        2.902903          -0.259254E-3        0.471325E-3
        2.912913          -0.252738E-3        0.521015E-3
        2.922923          -0.244320E-3        0.573916E-3
        2.932933          -0.232811E-3        0.632343E-3
        2.942943          -0.214363E-3        0.696812E-3
        2.952953          -0.185260E-3        0.766436E-3
        2.962963          -0.140930E-3        0.840364E-3
        2.972973          -0.773739E-4        0.912872E-3
        2.982983           0.710396E-5        0.976981E-3
        2.992993           0.112334E-3        0.001023
        3.003003           0.231548E-3        0.001044
        3.013013           0.355357E-3        0.001035
        3.023023           0.472740E-3        0.995014E-3
        3.033033           0.574219E-3        0.930156E-3
        3.043043           0.654366E-3        0.847280E-3
        3.053053           0.710719E-3        0.753726E-3
        3.063063           0.745414E-3        0.655616E-3
        3.073073           0.759321E-3        0.558600E-3
        3.083083           0.754960E-3        0.463085E-3
        3.093093           0.733536E-3        0.374365E-3
        3.103103           0.692585E-3        0.289436E-3
        3.113113           0.633331E-3        0.214453E-3
        3.123123           0.555051E-3        0.156462E-3
        3.133133           0.462008E-3        0.120006E-3
        3.143143           0.358311E-3        0.109455E-3
        3.153153           0.253909E-3        0.128476E-3
        3.163163           0.155782E-3        0.179686E-3
        3.173173           0.721433E-4        0.261310E-3
        3.183183           0.115682E-4        0.365942E-3
        3.193193          -0.204826E-4        0.489367E-3
        3.203203          -0.169920E-4        0.623456E-3
        3.213213           0.234555E-4        0.759488E-3
        3.223223           0.103493E-3        0.886720E-3
        3.233233           0.218443E-3        0.990186E-3
        3.243243           0.361822E-3        0.001059
        3.253253           0.516995E-3        0.001086
        3.263263           0.668344E-3        0.001073
        3.273273           0.803629E-3        0.001024
        3.283283           0.913880E-3        0.953330E-3
        3.293293           0.996923E-3        0.873643E-3
        3.303303           0.001056           0.792834E-3
        3.313313           0.001100           0.718964E-3
        3.323323           0.001136           0.655914E-3
        3.333333           0.001171           0.599629E-3
        3.343343           0.001206           0.550502E-3
        3.353353           0.001247           0.503577E-3
        3.363363           0.001296           0.453782E-3
        3.373373           0.001357           0.396961E-3
        3.383383           0.001425           0.327147E-3
        3.393393           0.001501           0.237291E-3
        3.403403           0.001576           0.123768E-3
        3.413413           0.001644          -0.235181E-4
        3.423423           0.001695          -0.206323E-3
        3.433433           0.001711          -0.423822E-3
        3.443443           0.001673          -0.671519E-3
        3.453453           0.001568          -0.927622E-3
        3.463463           0.001383          -0.001171
        3.473473           0.001118          -0.001364
        3.483483           0.797894E-3       -0.001479
        3.493493           0.454510E-3       -0.001494
        3.503503           0.127040E-3       -0.001406
        3.513513          -0.148004E-3       -0.001235
        3.523524          -0.347561E-3       -0.001008
        3.533533          -0.470130E-3       -0.758808E-3
        3.543543          -0.514028E-3       -0.516879E-3
        3.553553          -0.502293E-3       -0.297228E-3
        3.563564          -0.451850E-3       -0.111051E-3
        3.573573          -0.371829E-3        0.404941E-4
        3.583583          -0.277151E-3        0.158405E-3
        3.593593          -0.175881E-3        0.247321E-3
        3.603603          -0.740533E-4        0.310420E-3
        3.613613           0.267627E-4        0.352470E-3
        3.623623           0.123933E-3        0.376057E-3
        3.633634           0.218318E-3        0.386937E-3
        3.643643           0.306956E-3        0.381585E-3
        3.653653           0.390180E-3        0.364298E-3
        3.663663           0.466527E-3        0.335642E-3
        3.673674           0.534537E-3        0.294826E-3
        3.683683           0.592728E-3        0.247629E-3
        3.693693           0.642638E-3        0.191589E-3
        3.703704           0.681418E-3        0.132051E-3
        3.713714           0.712391E-3        0.701389E-4
        3.723723           0.735795E-3        0.485792E-5
        3.733733           0.752369E-3       -0.643089E-4
        3.743744           0.762056E-3       -0.139534E-3
        3.753754           0.761042E-3       -0.222566E-3
        3.763763           0.744536E-3       -0.311718E-3
        3.773773           0.706766E-3       -0.404980E-3
        3.783784           0.643516E-3       -0.491585E-3
        3.793794           0.554337E-3       -0.565357E-3
        3.803803           0.445858E-3       -0.611841E-3
        3.813814           0.329112E-3       -0.623555E-3
        3.823824           0.218325E-3       -0.603916E-3
        3.833834           0.125080E-3       -0.557815E-3
        3.843843           0.570630E-4       -0.494109E-3
        3.853854           0.146784E-4       -0.426244E-3
        3.863864          -0.607585E-5       -0.365303E-3
        3.873873          -0.123629E-4       -0.313934E-3
        3.883883          -0.123576E-4       -0.275078E-3
        3.893894          -0.123247E-4       -0.247070E-3
        3.903904          -0.166985E-4       -0.227434E-3
        3.913913          -0.257011E-4       -0.207350E-3
        3.923924          -0.379217E-4       -0.184376E-3
        3.933934          -0.501784E-4       -0.157228E-3
        3.943944          -0.585109E-4       -0.123783E-3
        3.953954          -0.610760E-4       -0.895532E-4
        3.963964          -0.563228E-4       -0.555576E-4
        3.973974          -0.457358E-4       -0.234860E-4
        3.983984          -0.293839E-4        0.431096E-5
        3.993994          -0.979838E-5        0.264045E-4
        4.004004           0.107691E-4        0.417095E-4
        4.014014           0.315206E-4        0.524032E-4
        4.024024           0.499438E-4        0.594634E-4
        4.034034           0.671655E-4        0.652073E-4
        4.044044           0.858744E-4        0.702671E-4
        4.054054           0.107962E-3        0.721583E-4
        4.064064           0.134539E-3        0.666803E-4
        4.074074           0.162769E-3        0.499310E-4
        4.084084           0.185997E-3        0.171651E-4
        4.094094           0.195603E-3       -0.308639E-4
        4.104104           0.182291E-3       -0.886438E-4
        4.114114           0.140278E-3       -0.145752E-3
        4.124124           0.693573E-4       -0.187577E-3
        4.134134          -0.231485E-4       -0.201652E-3
        4.144144          -0.123685E-3       -0.178892E-3
        4.154154          -0.216551E-3       -0.118793E-3
        4.164164          -0.287218E-3       -0.292840E-4
        4.174174          -0.327646E-3        0.786988E-4
        4.184184          -0.336490E-3        0.192330E-3
        4.194194          -0.316934E-3        0.301296E-3
        4.204204          -0.274559E-3        0.398755E-3
        4.214214          -0.216174E-3        0.481555E-3
        4.224224          -0.147014E-3        0.549180E-3
        4.234234          -0.712437E-4        0.601849E-3
        4.244244           0.814269E-5        0.641176E-3
        4.254254           0.896957E-4        0.668156E-3
        4.264264           0.171605E-3        0.683766E-3
        4.274274           0.253295E-3        0.688964E-3
        4.284284           0.333675E-3        0.683596E-3
        4.294294           0.411837E-3        0.668843E-3
        4.304304           0.486794E-3        0.644273E-3
        4.314314           0.557845E-3        0.611606E-3
        4.324324           0.624418E-3        0.570259E-3
        4.334334           0.685849E-3        0.521111E-3
        4.344344           0.741475E-3        0.463503E-3
        4.354354           0.790267E-3        0.397293E-3
        4.364364           0.829302E-3        0.321876E-3
        4.374374           0.855621E-3        0.238136E-3
        4.384384           0.865127E-3        0.148045E-3
        4.394394           0.854272E-3        0.561379E-4
        4.404404           0.821980E-3       -0.309509E-4
        4.414414           0.768716E-3       -0.105471E-3
        4.424424           0.698897E-3       -0.159875E-3
        4.434434           0.620265E-3       -0.189845E-3
        4.444444           0.542007E-3       -0.193134E-3
        4.454454           0.474392E-3       -0.171556E-3
        4.464464           0.424353E-3       -0.131710E-3
        4.474474           0.396751E-3       -0.818203E-4
        4.484484           0.392616E-3       -0.312903E-4
        4.494494           0.408968E-3        0.113990E-4
        4.504504           0.439797E-3        0.403029E-4
        4.514514           0.478455E-3        0.523378E-4
        4.524524           0.515922E-3        0.464826E-4
        4.534534           0.547317E-3        0.262834E-4
        4.544544           0.566241E-3       -0.188226E-5
        4.554554           0.571221E-3       -0.322682E-4
        4.564565           0.565550E-3       -0.562682E-4
        4.574574           0.554048E-3       -0.704609E-4
        4.584584           0.544516E-3       -0.725615E-4
        4.594594           0.543100E-3       -0.671402E-4
        4.604605           0.553520E-3       -0.607250E-4
        4.614614           0.573820E-3       -0.588885E-4
        4.624624           0.601231E-3       -0.675909E-4
        4.634634           0.629894E-3       -0.889853E-4
        4.644644           0.654676E-3       -0.122030E-3
        4.654655           0.669411E-3       -0.164219E-3
        4.664664           0.673658E-3       -0.209086E-3
        4.674675           0.666157E-3       -0.253703E-3
        4.684684           0.650647E-3       -0.292809E-3
        4.694695           0.631323E-3       -0.325444E-3
        4.704704           0.610869E-3       -0.352513E-3
        4.714715           0.591313E-3       -0.377050E-3
        4.724724           0.572618E-3       -0.400973E-3
        4.734735           0.551950E-3       -0.427425E-3
        4.744744           0.526727E-3       -0.453952E-3
        4.754755           0.494855E-3       -0.478062E-3
        4.764764           0.456962E-3       -0.495563E-3
        4.774775           0.415411E-3       -0.501568E-3
        4.784785           0.377986E-3       -0.496827E-3
        4.794795           0.350913E-3       -0.480694E-3
        4.804804           0.339662E-3       -0.462794E-3
        4.814815           0.345001E-3       -0.451799E-3
        4.824825           0.361974E-3       -0.458246E-3
        4.834835           0.381375E-3       -0.486488E-3
        4.844844           0.389841E-3       -0.539859E-3
        4.854855           0.373813E-3       -0.614009E-3
        4.864865           0.322503E-3       -0.696617E-3
        4.874875           0.231163E-3       -0.769871E-3
        4.884884           0.104568E-3       -0.814773E-3
        4.894895          -0.441716E-4       -0.817240E-3
        4.904905          -0.194540E-3       -0.769428E-3
        4.914915          -0.326320E-3       -0.675585E-3
        4.924924          -0.424727E-3       -0.547816E-3
        4.934935          -0.482453E-3       -0.402211E-3
        4.944945          -0.500834E-3       -0.254217E-3
        4.954955          -0.485507E-3       -0.114039E-3
        4.964964          -0.443570E-3        0.116239E-4
        4.974975          -0.383582E-3        0.119736E-3
        4.984985          -0.310786E-3        0.211170E-3
        4.994995          -0.229732E-3        0.286206E-3
        5.005005          -0.142488E-3        0.347844E-3
        5.015015          -0.500766E-4        0.396993E-3
        5.025025           0.475078E-4        0.434373E-3
        5.035035           0.150091E-3        0.460126E-3
        5.045045           0.258200E-3        0.473297E-3
        5.055055           0.371011E-3        0.471539E-3
        5.065065           0.487832E-3        0.453141E-3
        5.075075           0.606460E-3        0.415764E-3
        5.085085           0.724108E-3        0.358084E-3
        5.095095           0.837189E-3        0.278483E-3
        5.105105           0.942119E-3        0.176540E-3
        5.115115           0.001035           0.511728E-4
        5.125125           0.001113          -0.980025E-4
        5.135135           0.001168          -0.271521E-3
        5.145144           0.001192          -0.469299E-3
        5.155155           0.001175          -0.687909E-3
        5.165165           0.001103          -0.917748E-3
        5.175175           0.965930E-3       -0.001142
        5.185184           0.761264E-3       -0.001335
        5.195195           0.498063E-3       -0.001470
        5.205205           0.199169E-3       -0.001526
        5.215215          -0.102466E-3       -0.001492
        5.225225          -0.373213E-3       -0.001373
        5.235235          -0.586840E-3       -0.001193
        5.245245          -0.730641E-3       -0.977631E-3
        5.255255          -0.804663E-3       -0.755792E-3
        5.265265          -0.819935E-3       -0.548273E-3
        5.275275          -0.791565E-3       -0.368593E-3
        5.285285          -0.735509E-3       -0.221320E-3
        5.295295          -0.664721E-3       -0.105775E-3
        5.305305          -0.589025E-3       -0.183447E-4
        5.315315          -0.514083E-3        0.467135E-4
        5.325325          -0.443398E-3        0.940772E-4
        5.335335          -0.378661E-3        0.129146E-3
        5.345345          -0.319555E-3        0.154064E-3
        5.355355          -0.266301E-3        0.172273E-3
        5.365365          -0.217845E-3        0.185372E-3
        5.375375          -0.173697E-3        0.195089E-3
        5.385385          -0.133181E-3        0.202501E-3
        5.395395          -0.950706E-4        0.207284E-3
        5.405405          -0.589900E-4        0.210212E-3
        5.415415          -0.251038E-4        0.211631E-3
        5.425425           0.700687E-5        0.211222E-3
        5.435435           0.380952E-4        0.209123E-3
        5.445445           0.672134E-4        0.205278E-3
        5.455455           0.949899E-4        0.200038E-3
        5.465465           0.121059E-3        0.194069E-3
        5.475475           0.145663E-3        0.187242E-3
        5.485485           0.169201E-3        0.179954E-3
        5.495495           0.192171E-3        0.171691E-3
        5.505505           0.214239E-3        0.163070E-3
        5.515515           0.235779E-3        0.153333E-3
        5.525526           0.256478E-3        0.142861E-3
        5.535535           0.276441E-3        0.131367E-3
        5.545545           0.295341E-3        0.119454E-3
        5.555555           0.313426E-3        0.107027E-3
        5.565566           0.331142E-3        0.945167E-4
        5.575575           0.348613E-3        0.820199E-4
        5.585585           0.366525E-3        0.693047E-4
        5.595595           0.385310E-3        0.558541E-4
        5.605606           0.405147E-3        0.409701E-4
        5.615615           0.425788E-3        0.239860E-4
        5.625625           0.446869E-3        0.438063E-5
        5.635635           0.467853E-3       -0.180327E-4
        5.645645           0.488315E-3       -0.437831E-4
        5.655655           0.507661E-3       -0.724717E-4
        5.665665           0.525836E-3       -0.104525E-3
        5.675675           0.542764E-3       -0.140063E-3
        5.685685           0.557772E-3       -0.179978E-3
        5.695695           0.570332E-3       -0.224893E-3
        5.705705           0.578207E-3       -0.275510E-3
        5.715715           0.579958E-3       -0.332124E-3
        5.725725           0.571956E-3       -0.393718E-3
        5.735735           0.551738E-3       -0.458325E-3
        5.745746           0.517057E-3       -0.521956E-3
        5.755755           0.467782E-3       -0.579719E-3
        5.765765           0.405305E-3       -0.625837E-3
        5.775775           0.334329E-3       -0.656492E-3
        5.785786           0.260387E-3       -0.669911E-3
        5.795795           0.189891E-3       -0.667089E-3
        5.805805           0.126483E-3       -0.651193E-3
        5.815815           0.727767E-4       -0.626253E-3
        5.825826           0.290150E-4       -0.595906E-3
        5.835835          -0.541050E-5       -0.562900E-3
        5.845845          -0.317758E-4       -0.529090E-3
        5.855855          -0.507008E-4       -0.495443E-3
        5.865866          -0.630110E-4       -0.462703E-3
        5.875876          -0.689085E-4       -0.432408E-3
        5.885885          -0.688655E-4       -0.404792E-3
        5.895895          -0.637259E-4       -0.382380E-3
        5.905906          -0.548890E-4       -0.366063E-3
        5.915915          -0.449837E-4       -0.357539E-3
        5.925925          -0.371160E-4       -0.354976E-3
        5.935935          -0.335823E-4       -0.357236E-3
        5.945946          -0.355421E-4       -0.361802E-3
        5.955956          -0.422023E-4       -0.364814E-3
        5.965966          -0.520750E-4       -0.365947E-3
        5.975976          -0.627549E-4       -0.362558E-3
        5.985986          -0.715288E-4       -0.356489E-3
        5.995996          -0.774648E-4       -0.350050E-3
        6.006006          -0.806260E-4       -0.344186E-3
        6.016016          -0.812827E-4       -0.341331E-3
        6.026026          -0.810336E-4       -0.343369E-3
        6.036036          -0.827336E-4       -0.350023E-3
        6.046046          -0.890033E-4       -0.362360E-3
        6.056056          -0.102900E-3       -0.377740E-3
        6.066066          -0.126753E-3       -0.392929E-3
        6.076076          -0.161422E-3       -0.402912E-3
        6.086086          -0.204086E-3       -0.402557E-3
        6.096096          -0.249501E-3       -0.387905E-3
        6.106106          -0.292673E-3       -0.360145E-3
        6.116116          -0.327605E-3       -0.319934E-3
        6.126126          -0.350802E-3       -0.272614E-3
        6.136136          -0.361412E-3       -0.222527E-3
        6.146146          -0.360657E-3       -0.173896E-3
        6.156156          -0.350150E-3       -0.130153E-3
        6.166166          -0.333146E-3       -0.923344E-4
        6.176176          -0.311992E-3       -0.618094E-4
        6.186186          -0.289093E-3       -0.383069E-4
        6.196196          -0.265934E-3       -0.208605E-4
        6.206206          -0.244224E-3       -0.859301E-5
        6.216216          -0.224695E-3       -0.377073E-6
        6.226226          -0.207660E-3        0.479889E-5
        6.236236          -0.193649E-3        0.833531E-5
        6.246246          -0.182250E-3        0.107715E-4
        6.256256          -0.173398E-3        0.134750E-4
        6.266266          -0.166424E-3        0.164360E-4
        6.276276          -0.161052E-3        0.202937E-4
        6.286286          -0.156891E-3        0.258362E-4
        6.296296          -0.153032E-3        0.326523E-4
        6.306306          -0.149098E-3        0.412481E-4
        6.316316          -0.144367E-3        0.515529E-4
        6.326326          -0.138255E-3        0.628928E-4
        6.336336          -0.130460E-3        0.751170E-4
        6.346346          -0.120651E-3        0.874882E-4
        6.356356          -0.108740E-3        0.994530E-4
        6.366366          -0.949599E-4        0.110521E-3
        6.376376          -0.795320E-4        0.120617E-3
        6.386386          -0.628565E-4        0.128854E-3
        6.396396          -0.452608E-4        0.135417E-3
        6.406406          -0.272111E-4        0.140393E-3
        6.416416          -0.892425E-5        0.143461E-3
        6.426426           0.926106E-5        0.145448E-3
        6.436436           0.272196E-4        0.146037E-3
        6.446446           0.449572E-4        0.145822E-3
        6.456456           0.627014E-4        0.145033E-3
        6.466466           0.807826E-4        0.143838E-3
        6.476476           0.996192E-4        0.142031E-3
        6.486486           0.119695E-3        0.139354E-3
        6.496496           0.141272E-3        0.135157E-3
        6.506506           0.164361E-3        0.128472E-3
        6.516516           0.188696E-3        0.118837E-3
        6.526526           0.213552E-3        0.105249E-3
        6.536536           0.237749E-3        0.868811E-4
        6.546546           0.259917E-3        0.635972E-4
        6.556556           0.278388E-3        0.357311E-4
        6.566566           0.291482E-3        0.457734E-5
        6.576576           0.297964E-3       -0.277741E-4
        6.586586           0.298194E-3       -0.589277E-4
        6.596596           0.293315E-3       -0.863643E-4
        6.606606           0.286134E-3       -0.108515E-3
        6.616616           0.279568E-3       -0.125757E-3
        6.626626           0.276296E-3       -0.139717E-3
        6.636636           0.277831E-3       -0.153448E-3
        6.646646           0.284005E-3       -0.170246E-3
        6.656656           0.293118E-3       -0.192939E-3
        6.666666           0.302573E-3       -0.224257E-3
        6.676676           0.308450E-3       -0.265268E-3
        6.686686           0.305670E-3       -0.315879E-3
        6.696696           0.289681E-3       -0.373677E-3
        6.706707           0.255684E-3       -0.433744E-3
        6.716716           0.201699E-3       -0.488853E-3
        6.726726           0.128733E-3       -0.530576E-3
        6.736736           0.426791E-4       -0.551076E-3
        6.746747          -0.471820E-4       -0.545968E-3
        6.756756          -0.131105E-3       -0.515625E-3
        6.766766          -0.199650E-3       -0.465116E-3
        6.776776          -0.248608E-3       -0.402598E-3
        6.786787          -0.277008E-3       -0.335964E-3
        6.796796          -0.287526E-3       -0.272122E-3
        6.806807          -0.283725E-3       -0.215379E-3
        6.816816          -0.270327E-3       -0.168038E-3
        6.826826          -0.251421E-3       -0.129992E-3
        6.836837          -0.229808E-3       -0.100924E-3
        6.846846          -0.207902E-3       -0.795682E-4
        6.856857          -0.186994E-3       -0.645333E-4
        6.866867          -0.167950E-3       -0.542771E-4
        6.876876          -0.151216E-3       -0.476910E-4
        6.886887          -0.136901E-3       -0.439754E-4
        6.896896          -0.125024E-3       -0.419841E-4
        6.906906          -0.115403E-3       -0.412116E-4
        6.916917          -0.107969E-3       -0.415180E-4
        6.926927          -0.102515E-3       -0.420623E-4
        6.936936          -0.991752E-4       -0.429056E-4
        6.946947          -0.979902E-4       -0.431964E-4
        6.956956          -0.987953E-4       -0.423398E-4
        6.966967          -0.101200E-3       -0.398376E-4
        6.976976          -0.104381E-3       -0.348572E-4
        6.986986          -0.107416E-3       -0.269283E-4
        6.996997          -0.109053E-3       -0.164679E-4
        7.007007          -0.108494E-3       -0.411578E-5
        7.017016          -0.105248E-3        0.909896E-5
        7.027027          -0.990369E-4        0.225480E-4
        7.037036          -0.901253E-4        0.352918E-4
        7.047047          -0.788301E-4        0.466440E-4
        7.057057          -0.654375E-4        0.562063E-4
        7.067066          -0.505161E-4        0.635398E-4
        7.077077          -0.347125E-4        0.684103E-4
        7.087087          -0.186017E-4        0.705771E-4
        7.097096          -0.277073E-5        0.704605E-4
        7.107107           0.121855E-4        0.682750E-4
        7.117116           0.261779E-4        0.645035E-4
        7.127127           0.391184E-4        0.595447E-4
        7.137137           0.512335E-4        0.537256E-4
        7.147147           0.627474E-4        0.471110E-4
        7.157157           0.736365E-4        0.394457E-4
        7.167167           0.839533E-4        0.307413E-4
        7.177176           0.937478E-4        0.208757E-4
        7.187187           0.102780E-3        0.933188E-5
        7.197196           0.110265E-3       -0.366471E-5
        7.207206           0.115974E-3       -0.184009E-4
        7.217217           0.118923E-3       -0.342864E-4
        7.227227           0.118793E-3       -0.507858E-4
        7.237237           0.115109E-3       -0.668894E-4
        7.247247           0.108027E-3       -0.813363E-4
        7.257257           0.982952E-4       -0.928446E-4
        7.267267           0.873916E-4       -0.100984E-3
        7.277277           0.764859E-4       -0.105487E-3
        7.287286           0.665747E-4       -0.106988E-3
        7.297297           0.588224E-4       -0.106518E-3
        7.307307           0.534537E-4       -0.105160E-3
        7.317317           0.500579E-4       -0.104124E-3
        7.327327           0.487421E-4       -0.103999E-3
        7.337337           0.481284E-4       -0.105454E-3
        7.347347           0.476269E-4       -0.108991E-3
        7.357357           0.463592E-4       -0.114562E-3
        7.367367           0.427030E-4       -0.121570E-3
        7.377377           0.362613E-4       -0.129388E-3
        7.387387           0.264406E-4       -0.136440E-3
        7.397398           0.133141E-4       -0.140985E-3
        7.407407          -0.254392E-5       -0.141569E-3
        7.417417          -0.187432E-4       -0.137023E-3
        7.427427          -0.333584E-4       -0.126962E-3
        7.437437          -0.443190E-4       -0.112951E-3
        7.447447          -0.501626E-4       -0.963810E-4
        7.457457          -0.503676E-4       -0.795221E-4
        7.467467          -0.458018E-4       -0.640559E-4
        7.477477          -0.374687E-4       -0.515735E-4
        7.487487          -0.265949E-4       -0.427306E-4
        7.497497          -0.145716E-4       -0.377297E-4
        7.507507          -0.240714E-5       -0.362975E-4
        7.517517           0.901088E-5       -0.379684E-4
        7.527527           0.192536E-4       -0.425261E-4
        7.537537           0.277341E-4       -0.494086E-4
        7.547547           0.340783E-4       -0.582652E-4
        7.557557           0.379233E-4       -0.688057E-4
        7.567567           0.390047E-4       -0.802772E-4
        7.577577           0.366838E-4       -0.922202E-4
        7.587587           0.307508E-4       -0.103487E-3
        7.597597           0.213132E-4       -0.113121E-3
        7.607607           0.902373E-5       -0.119418E-3
        7.617618          -0.502854E-5       -0.121982E-3
        7.627627          -0.189625E-4       -0.119858E-3
        7.637637          -0.316051E-4       -0.113930E-3
        7.647647          -0.412553E-4       -0.105160E-3
        7.657657          -0.477728E-4       -0.949154E-4
        7.667667          -0.510961E-4       -0.842363E-4
        7.677677          -0.519945E-4       -0.744788E-4
        7.687687          -0.511668E-4       -0.656678E-4
        7.697698          -0.491783E-4       -0.582995E-4
        7.707707          -0.466579E-4       -0.517600E-4
        7.717717          -0.437449E-4       -0.458182E-4
        7.727727          -0.403886E-4       -0.404021E-4
        7.737737          -0.366941E-4       -0.356405E-4
        7.747747          -0.324274E-4       -0.312894E-4
        7.757757          -0.276805E-4       -0.273950E-4
        7.767767          -0.225534E-4       -0.240346E-4
        7.777778          -0.169103E-4       -0.216043E-4
        7.787787          -0.109634E-4       -0.198313E-4
        7.797797          -0.473067E-5       -0.187787E-4
        7.807807           0.181878E-5       -0.185895E-4
        7.817817           0.850334E-5       -0.193496E-4
        7.827827           0.153987E-4       -0.211567E-4
        7.837838           0.224234E-4       -0.240161E-4
        7.847847           0.294138E-4       -0.283221E-4
        7.857858           0.360759E-4       -0.342319E-4
        7.867867           0.420739E-4       -0.421648E-4
        7.877877           0.468466E-4       -0.519704E-4
        7.887887           0.496411E-4       -0.637717E-4
        7.897897           0.493185E-4       -0.773563E-4
        7.907907           0.451722E-4       -0.916610E-4
        7.917918           0.366614E-4       -0.105339E-3
        7.927927           0.236125E-4       -0.116850E-3
        7.937938           0.683410E-5       -0.124146E-3
        7.947948          -0.117370E-4       -0.126068E-3
        7.957957          -0.301262E-4       -0.122433E-3
        7.967968          -0.460041E-4       -0.113376E-3
        7.977977          -0.581125E-4       -0.100882E-3
        7.987987          -0.658156E-4       -0.866004E-4
        7.997998          -0.691309E-4       -0.719541E-4
        8.008007          -0.688548E-4       -0.583938E-4
        8.018017          -0.659609E-4       -0.466168E-4
        8.028028          -0.612274E-4       -0.367419E-4
        8.038037          -0.554290E-4       -0.288048E-4
        8.048048          -0.491234E-4       -0.228600E-4
        8.058058          -0.426499E-4       -0.185532E-4
        8.068068          -0.363778E-4       -0.154911E-4
        8.078078          -0.302973E-4       -0.135680E-4
        8.088087          -0.246713E-4       -0.126191E-4
        8.098097          -0.193779E-4       -0.125219E-4
        8.108108          -0.146692E-4       -0.131735E-4
        8.118117          -0.104572E-4       -0.143269E-4
        8.128128          -0.686757E-5       -0.159490E-4
        8.138138          -0.394264E-5       -0.179120E-4
        8.148148          -0.170326E-5       -0.200700E-4
        8.158158          -0.189117E-6       -0.223850E-4
        8.168168           0.628931E-6       -0.244312E-4
        8.178178           0.858705E-6       -0.262252E-4
        8.188188           0.671736E-6       -0.275245E-4
        8.198197           0.309482E-6       -0.281619E-4
        8.208207          -0.158458E-7       -0.282894E-4
        8.218218          -0.821093E-7       -0.279965E-4
        8.228228           0.195749E-6       -0.274916E-4
        8.238238           0.790874E-6       -0.269242E-4
        8.248248           0.170140E-5       -0.263668E-4
        8.258258           0.282330E-5       -0.259049E-4
        8.268268           0.413511E-5       -0.256251E-4
        8.278277           0.549433E-5       -0.257521E-4
        8.288287           0.694754E-5       -0.257774E-4
        8.298298           0.842364E-5       -0.261151E-4
        8.308308           0.993404E-5       -0.265785E-4
        8.318318           0.114455E-4       -0.271679E-4
        8.328328           0.129367E-4       -0.281702E-4
        8.338338           0.143899E-4       -0.293337E-4
        8.348348           0.157243E-4       -0.306311E-4
        8.358357           0.169185E-4       -0.323047E-4
        8.368367           0.178685E-4       -0.341305E-4
        8.378378           0.184969E-4       -0.362525E-4
        8.388388           0.187613E-4       -0.384908E-4
        8.398398           0.185584E-4       -0.407940E-4
        8.408408           0.179549E-4       -0.429656E-4
        8.418418           0.169264E-4       -0.449950E-4
        8.428429           0.155655E-4       -0.468406E-4
        8.438437           0.139663E-4       -0.481203E-4
        8.448447           0.122249E-4       -0.490975E-4
        8.458458           0.104142E-4       -0.498014E-4
        8.468468           0.858682E-5       -0.501838E-4
        8.478477           0.685007E-5       -0.502847E-4
        8.488488           0.517322E-5       -0.500675E-4
        8.498498           0.363770E-5       -0.495955E-4
        8.508509           0.225727E-5       -0.488840E-4
        8.518518           0.107531E-5       -0.480373E-4
        8.528527           0.103092E-6       -0.470171E-4
        8.538538          -0.613129E-6       -0.458035E-4
        8.548548          -0.107967E-5       -0.447659E-4
        8.558558          -0.131551E-5       -0.435931E-4
        8.568568          -0.135869E-5       -0.426094E-4
        8.578578          -0.128544E-5       -0.417698E-4
        8.588589          -0.115061E-5       -0.410390E-4
        8.598598          -0.101210E-5       -0.402436E-4
        8.608608          -0.860574E-6       -0.396072E-4
        8.618618          -0.695761E-6       -0.388433E-4
        8.628628          -0.414565E-6       -0.380543E-4
        8.638638           0.619527E-7       -0.371621E-4
        8.648648           0.762450E-6       -0.362827E-4
        8.658658           0.174499E-5       -0.355580E-4
        8.668669           0.293379E-5       -0.350613E-4
        8.678679           0.428249E-5       -0.348737E-4
        8.688688           0.570851E-5       -0.350552E-4
        8.698698           0.709589E-5       -0.356255E-4
        8.708708           0.833723E-5       -0.364611E-4
        8.718718           0.932536E-5       -0.377468E-4
        8.728728           0.999288E-5       -0.391091E-4
        8.738738           0.102912E-4       -0.408542E-4
        8.748748           0.102098E-4       -0.423084E-4
        8.758759           0.977678E-5       -0.437851E-4
        8.768768           0.907556E-5       -0.451356E-4
        8.778779           0.816139E-5       -0.463431E-4
        8.788788           0.711506E-5       -0.471657E-4
        8.798798           0.598947E-5       -0.478561E-4
        8.808808           0.482875E-5       -0.484086E-4
        8.818818           0.366459E-5       -0.488043E-4
        8.828828           0.250937E-5       -0.490447E-4
        8.838839           0.136383E-5       -0.491621E-4
        8.848848           0.230414E-6       -0.491514E-4
        8.858859          -0.897753E-6       -0.490312E-4
        8.868869          -0.201139E-5       -0.488888E-4
        8.878878          -0.311497E-5       -0.485083E-4
        8.888888          -0.419966E-5       -0.481484E-4
        8.898898          -0.521520E-5       -0.476504E-4
        8.908908          -0.620050E-5       -0.469935E-4
        8.918919          -0.709897E-5       -0.462745E-4
        8.928928          -0.788775E-5       -0.454980E-4
        8.938939          -0.860237E-5       -0.446827E-4
        8.948949          -0.925523E-5       -0.438389E-4
        8.958959          -0.986127E-5       -0.429435E-4
        8.968968          -0.104452E-4       -0.420283E-4
        8.978978          -0.110020E-4       -0.410627E-4
        8.988988          -0.115022E-4       -0.398568E-4
        8.998999          -0.118684E-4       -0.386539E-4
        9.009008          -0.120583E-4       -0.372499E-4
        9.019018          -0.119719E-4       -0.358264E-4
        9.029029          -0.116274E-4       -0.344102E-4
        9.039039          -0.109907E-4       -0.330448E-4
        9.049048          -0.101167E-4       -0.319462E-4
        9.059058          -0.909113E-5       -0.311711E-4
        9.069068          -0.798203E-5       -0.306554E-4
        9.079079          -0.689870E-5       -0.304524E-4
        9.089088          -0.593030E-5       -0.305707E-4
        9.099098          -0.518187E-5       -0.309632E-4
        9.109109          -0.470133E-5       -0.315031E-4
        9.119119          -0.457096E-5       -0.320937E-4
        9.129129          -0.477602E-5       -0.326644E-4
        9.139138          -0.527121E-5       -0.329973E-4
        9.149148          -0.595851E-5       -0.330331E-4
        9.159159          -0.668487E-5       -0.327541E-4
        9.169168          -0.731738E-5       -0.321471E-4
        9.179178          -0.775075E-5       -0.313540E-4
        9.189189          -0.796213E-5       -0.304438E-4
        9.199199          -0.793710E-5       -0.294979E-4
        9.209209          -0.773785E-5       -0.285636E-4
        9.219219          -0.740186E-5       -0.277375E-4
        9.229228          -0.696723E-5       -0.269380E-4
        9.239239          -0.646105E-5       -0.262967E-4
        9.249249          -0.589348E-5       -0.256855E-4
        9.259258          -0.525527E-5       -0.250715E-4
        9.269269          -0.453463E-5       -0.245400E-4
        9.279279          -0.370700E-5       -0.241576E-4
        9.289289          -0.278663E-5       -0.238516E-4
        9.299299          -0.180307E-5       -0.238075E-4
        9.309309          -0.820662E-6       -0.239329E-4
        9.319319           0.793763E-7       -0.243077E-4
        9.329329           0.829053E-6       -0.248150E-4
        9.339338           0.137595E-5       -0.254610E-4
        9.349349           0.171477E-5       -0.261659E-4
        9.359359           0.184761E-5       -0.268309E-4
        9.369369           0.182855E-5       -0.274555E-4
        9.379379           0.169159E-5       -0.280236E-4
        9.389389           0.146422E-5       -0.283853E-4
        9.399399           0.119316E-5       -0.287260E-4
        9.409409           0.874171E-6       -0.290018E-4
        9.419418           0.537235E-6       -0.291509E-4
        9.429429           0.177451E-6       -0.292519E-4
        9.439439          -0.197235E-6       -0.293185E-4
        9.449449          -0.584824E-6       -0.292720E-4
        9.459459          -0.979938E-6       -0.291499E-4
        9.469469          -0.136511E-5       -0.289769E-4
        9.479479          -0.171939E-5       -0.286315E-4
        9.489489          -0.201940E-5       -0.282560E-4
        9.499498          -0.223921E-5       -0.278077E-4
        9.509509          -0.235586E-5       -0.272777E-4
        9.519519          -0.237168E-5       -0.267830E-4
        9.529529          -0.228674E-5       -0.263020E-4
        9.539539          -0.212259E-5       -0.258694E-4
        9.549549          -0.190547E-5       -0.254481E-4
        9.559559          -0.165742E-5       -0.251471E-4
        9.569570          -0.139526E-5       -0.248817E-4
        9.579578          -0.112921E-5       -0.246631E-4
        9.589589          -0.872134E-6       -0.244748E-4
        9.599599          -0.629176E-6       -0.243304E-4
        9.609609          -0.400716E-6       -0.241952E-4
        9.619619          -0.188946E-6       -0.241047E-4
        9.629629           0.908612E-8       -0.239647E-4
        9.639639           0.192951E-6       -0.239075E-4
        9.649650           0.365218E-6       -0.237944E-4
        9.659659           0.529314E-6       -0.237616E-4
        9.669669           0.683478E-6       -0.236403E-4
        9.679679           0.835421E-6       -0.235641E-4
        9.689689           0.979810E-6       -0.234109E-4
        9.699699           0.112441E-5       -0.233961E-4
        9.709709           0.127125E-5       -0.232840E-4
        9.719719           0.141711E-5       -0.231329E-4
        9.729730           0.156942E-5       -0.230457E-4
        9.739739           0.171826E-5       -0.229401E-4
        9.749749           0.188339E-5       -0.227691E-4
        9.759759           0.205806E-5       -0.226176E-4
        9.769769           0.224212E-5       -0.224971E-4
        9.779779           0.243995E-5       -0.223759E-4
        9.789789           0.265645E-5       -0.222333E-4
        9.799799           0.289149E-5       -0.220349E-4
        9.809810           0.315424E-5       -0.218766E-4
        9.819819           0.343966E-5       -0.217435E-4
        9.829829           0.375832E-5       -0.215774E-4
        9.839839           0.411399E-5       -0.214095E-4
        9.849849           0.450898E-5       -0.212728E-4
        9.859859           0.495193E-5       -0.211131E-4
        9.869869           0.544264E-5       -0.210494E-4
        9.879879           0.598658E-5       -0.209786E-4
        9.889890           0.658361E-5       -0.210238E-4
        9.899899           0.722897E-5       -0.210847E-4
        9.909909           0.792214E-5       -0.212287E-4
        9.919919           0.864116E-5       -0.215342E-4
        9.929929           0.936334E-5       -0.219670E-4
        9.939939           0.100672E-4       -0.225056E-4
        9.949949           0.107105E-4       -0.231857E-4
        9.959959           0.112506E-4       -0.239708E-4
        9.969970           0.116816E-4       -0.248925E-4
        9.979980           0.119883E-4       -0.258926E-4
        9.989989           0.121769E-4       -0.269029E-4
        10.00000           0.122514E-4       -0.279666E-4
# 
# 09/17/2024 at 13:23 yambo_rt @ baym [start]
# 09/17/2024 at 13:23                 [end]
#
# .-Input file  yambo.in
# | optics                           # [R] Linear Response optical properties
# | dipoles                          # [R] Oscillator strenghts (or dipoles)
# | bse                              # [R][BSE] Bethe Salpeter Equation.
# | BoseTemp= 0.000000         eV    # Bosonic Temperature
# | FFTGvecs=  3525            RL    # [FFT] Plane-waves
# | BS_nCPU_LinAlg_INV= 1            # [PARALLEL] CPUs for Linear Algebra (if -1 it is automatically set)
# | BS_nCPU_LinAlg_DIAGO= 1          # [PARALLEL] CPUs for Linear Algebra (if -1 it is automatically set)
# | BSKmod= "IP"                     # [BSE] IP/Hartree/HF/ALDA/SEX/BSfxc
# | BSEmod= "retarded"               # [BSE] resonant/retarded/coupling
# | % DipBands
# |   5 | 14 |                           # [DIP] Bands range for dipoles
# | %
# | DipComputed= "R V P"             # [DIP] [default R P V; extra P2 Spin Orb]
# | BSENGexx= 19641            RL    # [BSK] Exchange components
# | % BSEQptR
# |  1 | 1 |                             # [BSK] Transferred momenta range
# | %
# | % BSEBands
# |   5 | 14 |                           # [BSK] Bands range
# | %
# | % BEnRange
# |   0.00000 | 10.00000 |         eV    # [BSS] Energy range
# | %
# | % BDmRange
# |  0.100000 | 0.100000 |         eV    # [BSS] Damping range
# | %
# | BEnSteps= 1000                   # [BSS] Energy steps
# | % BLongDir
# |  0.100000E-4 |  0.00000    |  0.00000    # [BSS] [cc] Electric Field
# | %
# | BSEprop= "abs kerr jdos"         # [BSS] Can be any among abs/jdos/kerr/magn/dich/photolum/esrt
# | BSEdips= "xy"                    # [BSS] Can be "trace/none" or "xy/xz/yz" to define off-diagonal rotation plane
