#                                                                     
#                                                                     
# Y88b    /   e           e    e      888~~\    ,88~-_                
#  Y88b  /   d8b         d8b  d8b     888   |  d888   \               
#   Y88b/   /Y88b       d888bdY88b    888 _/  88888    |              
#    Y8Y   /  Y88b     / Y88Y Y888b   888  \  88888    |              
#     Y   /____Y88b   /   YY   Y888b  888   |  Y888   /               
#    /   /      Y88b /          Y888b 888__/    `88_-~                
#                                                                     
#                                                                     
# Version 5.2.0 Revision 23411 Hash (prev commit) d7901dc72b          
#                 Branch is yoda/develop                              
#         MPI+OpenMP+SLK+SLEPC+HDF5_MPI_IO Build                      
#                http://www.yambo-code.eu                             
#
# MOKE parameters @ Q(1):   1.00000000      0.00000000      0.00000000    [q->0 direction]
# [DIP] Rotation plane                            : xy
#
# Moke units: Radiants
#
# [GEN] GF Energies                               : Perdew, Burke & Ernzerhof(X)+Perdew, Burke & Ernzerhof(C)
# [GEN] Green`s Function                          : Retarded
#
# [GEN] Gauge                                     : Length
# [GEN] [r,Vnl] included                          : yes
#
# DIP band range                                  :   6  14
# DIP band range limits                           :  14   6
# DIP e/h energy range                            :  -1.00000000     -1.00000000    [eV]
# RL vectors in the sum                           :   3525
# [r,Vnl] included                                : yes
# Bands ordered                                   : yes
# Direct v evaluation                             : no
# Approach used                                   : G-space v
# Dipoles computed                                : R V P [G-space]
# Wavefunctions                                   : Perdew, Burke & Ernzerhof(X)+Perdew, Burke & Ernzerhof(C)
#
#
#    E[1] [eV]          Im(moke)           Re(moke)
#
        0.000000          -0.000000          -0.143611E-3
        0.010010           0.247318E-7       -0.143414E-3
        0.020020           0.486879E-7       -0.143494E-3
        0.030030           0.735255E-7       -0.143637E-3
        0.040040           0.952249E-7       -0.143529E-3
        0.050050           0.120314E-6       -0.143383E-3
        0.060060           0.144749E-6       -0.143699E-3
        0.070070           0.167843E-6       -0.143616E-3
        0.080080           0.193836E-6       -0.143336E-3
        0.090090           0.216813E-6       -0.143296E-3
        0.100100           0.242315E-6       -0.143540E-3
        0.110110           0.264877E-6       -0.143547E-3
        0.120120           0.289641E-6       -0.143355E-3
        0.130130           0.314029E-6       -0.143485E-3
        0.140140           0.336355E-6       -0.143220E-3
        0.150150           0.362621E-6       -0.143338E-3
        0.160160           0.385012E-6       -0.142974E-3
        0.170170           0.409752E-6       -0.142658E-3
        0.180180           0.433981E-6       -0.142902E-3
        0.190190           0.459259E-6       -0.142842E-3
        0.200200           0.484261E-6       -0.142940E-3
        0.210210           0.506514E-6       -0.142473E-3
        0.220220           0.529857E-6       -0.142551E-3
        0.230230           0.557801E-6       -0.142465E-3
        0.240240           0.584955E-6       -0.142741E-3
        0.250250           0.607885E-6       -0.142806E-3
        0.260260           0.631549E-6       -0.142556E-3
        0.270270           0.660391E-6       -0.142426E-3
        0.280280           0.682454E-6       -0.142274E-3
        0.290290           0.712801E-6       -0.142190E-3
        0.300300           0.737727E-6       -0.142058E-3
        0.310310           0.763243E-6       -0.142003E-3
        0.320320           0.793399E-6       -0.142311E-3
        0.330330           0.819887E-6       -0.142468E-3
        0.340340           0.848442E-6       -0.141889E-3
        0.350350           0.871866E-6       -0.141905E-3
        0.360360           0.896931E-6       -0.141586E-3
        0.370370           0.925385E-6       -0.141441E-3
        0.380380           0.955644E-6       -0.141457E-3
        0.390390           0.982468E-6       -0.141520E-3
        0.400400           0.100961E-5       -0.141271E-3
        0.410410           0.103832E-5       -0.141217E-3
        0.420420           0.106783E-5       -0.140943E-3
        0.430430           0.109564E-5       -0.141420E-3
        0.440440           0.112395E-5       -0.141130E-3
        0.450450           0.115649E-5       -0.140976E-3
        0.460460           0.118480E-5       -0.140767E-3
        0.470470           0.121294E-5       -0.140719E-3
        0.480480           0.124445E-5       -0.140594E-3
        0.490490           0.127346E-5       -0.140293E-3
        0.500500           0.130325E-5       -0.140208E-3
        0.510511           0.133204E-5       -0.139718E-3
        0.520521           0.136788E-5       -0.140203E-3
        0.530531           0.140525E-5       -0.139981E-3
        0.540541           0.142701E-5       -0.139556E-3
        0.550551           0.146889E-5       -0.139582E-3
        0.560561           0.149222E-5       -0.139262E-3
        0.570571           0.153223E-5       -0.139042E-3
        0.580581           0.156728E-5       -0.139195E-3
        0.590591           0.160572E-5       -0.139109E-3
        0.600601           0.163521E-5       -0.138844E-3
        0.610611           0.166730E-5       -0.138531E-3
        0.620621           0.170472E-5       -0.138420E-3
        0.630631           0.174437E-5       -0.138555E-3
        0.640641           0.178246E-5       -0.138492E-3
        0.650651           0.182549E-5       -0.138077E-3
        0.660661           0.185689E-5       -0.138054E-3
        0.670671           0.189438E-5       -0.137654E-3
        0.680681           0.192620E-5       -0.137537E-3
        0.690691           0.197496E-5       -0.137322E-3
        0.700701           0.200323E-5       -0.136843E-3
        0.710711           0.205523E-5       -0.137096E-3
        0.720721           0.208798E-5       -0.136627E-3
        0.730731           0.213918E-5       -0.136655E-3
        0.740741           0.217585E-5       -0.136276E-3
        0.750751           0.221948E-5       -0.136101E-3
        0.760761           0.227625E-5       -0.136140E-3
        0.770771           0.231754E-5       -0.135897E-3
        0.780781           0.235595E-5       -0.135526E-3
        0.790791           0.240141E-5       -0.135438E-3
        0.800801           0.246225E-5       -0.135619E-3
        0.810811           0.250156E-5       -0.134983E-3
        0.820821           0.253876E-5       -0.134847E-3
        0.830831           0.259088E-5       -0.134481E-3
        0.840841           0.264495E-5       -0.133984E-3
        0.850851           0.269423E-5       -0.133771E-3
        0.860861           0.275565E-5       -0.133900E-3
        0.870871           0.280667E-5       -0.133348E-3
        0.880881           0.286302E-5       -0.133004E-3
        0.890891           0.291266E-5       -0.132509E-3
        0.900901           0.297083E-5       -0.132385E-3
        0.910911           0.302440E-5       -0.132149E-3
        0.920921           0.308466E-5       -0.131785E-3
        0.930931           0.315402E-5       -0.131641E-3
        0.940941           0.320779E-5       -0.131310E-3
        0.950951           0.329207E-5       -0.131331E-3
        0.960961           0.336167E-5       -0.130995E-3
        0.970971           0.340949E-5       -0.130861E-3
        0.980981           0.348218E-5       -0.130045E-3
        0.990991           0.354605E-5       -0.129528E-3
        1.001001           0.362141E-5       -0.129435E-3
        1.011011           0.368603E-5       -0.128880E-3
        1.021021           0.378488E-5       -0.128613E-3
        1.031031           0.385356E-5       -0.128055E-3
        1.041041           0.393316E-5       -0.127780E-3
        1.051051           0.400662E-5       -0.127291E-3
        1.061061           0.407392E-5       -0.126637E-3
        1.071071           0.417075E-5       -0.126723E-3
        1.081081           0.425918E-5       -0.126419E-3
        1.091091           0.435672E-5       -0.126029E-3
        1.101101           0.445018E-5       -0.125550E-3
        1.111111           0.454347E-5       -0.125187E-3
        1.121121           0.461181E-5       -0.124620E-3
        1.131131           0.471915E-5       -0.124042E-3
        1.141141           0.483630E-5       -0.123664E-3
        1.151151           0.496338E-5       -0.123225E-3
        1.161161           0.506187E-5       -0.123113E-3
        1.171171           0.516775E-5       -0.122016E-3
        1.181181           0.527431E-5       -0.121760E-3
        1.191191           0.542153E-5       -0.121585E-3
        1.201201           0.551835E-5       -0.120714E-3
        1.211211           0.566156E-5       -0.120114E-3
        1.221221           0.579767E-5       -0.119723E-3
        1.231231           0.592315E-5       -0.118932E-3
        1.241241           0.607515E-5       -0.118529E-3
        1.251251           0.621301E-5       -0.117794E-3
        1.261261           0.637036E-5       -0.117180E-3
        1.271271           0.655912E-5       -0.116818E-3
        1.281281           0.669080E-5       -0.115963E-3
        1.291291           0.685834E-5       -0.115638E-3
        1.301301           0.702735E-5       -0.114673E-3
        1.311311           0.722045E-5       -0.114274E-3
        1.321321           0.742239E-5       -0.113640E-3
        1.331331           0.761679E-5       -0.112610E-3
        1.341341           0.783025E-5       -0.112062E-3
        1.351351           0.804344E-5       -0.111270E-3
        1.361361           0.826894E-5       -0.110556E-3
        1.371371           0.851982E-5       -0.109724E-3
        1.381381           0.875897E-5       -0.108915E-3
        1.391391           0.901657E-5       -0.108051E-3
        1.401401           0.927568E-5       -0.106694E-3
        1.411411           0.959240E-5       -0.106511E-3
        1.421421           0.988846E-5       -0.105444E-3
        1.431431           0.101752E-4       -0.104498E-3
        1.441441           0.105013E-4       -0.103512E-3
        1.451451           0.108650E-4       -0.102522E-3
        1.461461           0.112213E-4       -0.101550E-3
        1.471471           0.116107E-4       -0.100671E-3
        1.481481           0.120063E-4       -0.993043E-4
        1.491491           0.124431E-4       -0.981463E-4
        1.501501           0.129026E-4       -0.968028E-4
        1.511511           0.134196E-4       -0.959187E-4
        1.521521           0.139615E-4       -0.944552E-4
        1.531531           0.146114E-4       -0.932422E-4
        1.541541           0.152156E-4       -0.918323E-4
        1.551551           0.159648E-4       -0.904568E-4
        1.561561           0.167843E-4       -0.889534E-4
        1.571571           0.176637E-4       -0.872682E-4
        1.581581           0.186819E-4       -0.859551E-4
        1.591591           0.198093E-4       -0.846276E-4
        1.601601           0.210617E-4       -0.830081E-4
        1.611611           0.224267E-4       -0.808972E-4
        1.621622           0.239003E-4       -0.792904E-4
        1.631632           0.255483E-4       -0.778206E-4
        1.641642           0.273817E-4       -0.763886E-4
        1.651652           0.292620E-4       -0.746920E-4
        1.661662           0.314494E-4       -0.738228E-4
        1.671672           0.336302E-4       -0.723375E-4
        1.681682           0.360068E-4       -0.714836E-4
        1.691692           0.384923E-4       -0.708263E-4
        1.701702           0.408422E-4       -0.702909E-4
        1.711712           0.432079E-4       -0.702695E-4
        1.721722           0.452981E-4       -0.703910E-4
        1.731732           0.471547E-4       -0.704166E-4
        1.741742           0.486999E-4       -0.712449E-4
        1.751752           0.498882E-4       -0.711104E-4
        1.761762           0.507857E-4       -0.711366E-4
        1.771772           0.514535E-4       -0.707259E-4
        1.781782           0.521057E-4       -0.706272E-4
        1.791792           0.527547E-4       -0.703311E-4
        1.801802           0.534494E-4       -0.689776E-4
        1.811812           0.543986E-4       -0.680962E-4
        1.821822           0.555150E-4       -0.661154E-4
        1.831832           0.568205E-4       -0.654839E-4
        1.841842           0.583476E-4       -0.643902E-4
        1.851852           0.598158E-4       -0.631788E-4
        1.861862           0.612930E-4       -0.616366E-4
        1.871872           0.626034E-4       -0.611882E-4
        1.881882           0.637922E-4       -0.604499E-4
        1.891892           0.646362E-4       -0.591135E-4
        1.901902           0.652151E-4       -0.583929E-4
        1.911912           0.656950E-4       -0.572196E-4
        1.921922           0.659917E-4       -0.551612E-4
        1.931932           0.664596E-4       -0.528522E-4
        1.941942           0.669212E-4       -0.493839E-4
        1.951952           0.677152E-4       -0.461165E-4
        1.961962           0.687863E-4       -0.422445E-4
        1.971972           0.701855E-4       -0.376073E-4
        1.981982           0.719111E-4       -0.332016E-4
        1.991992           0.742698E-4       -0.281609E-4
        2.002002           0.769836E-4       -0.230721E-4
        2.012012           0.800202E-4       -0.175491E-4
        2.022022           0.838502E-4       -0.117773E-4
        2.032032           0.879901E-4       -0.523675E-5
        2.042042           0.928332E-4        0.142804E-5
        2.052052           0.983879E-4        0.793369E-5
        2.062062           0.104541E-3        0.146451E-4
        2.072072           0.111510E-3        0.221747E-4
        2.082082           0.119387E-3        0.298801E-4
        2.092092           0.128143E-3        0.383068E-4
        2.102102           0.137897E-3        0.466320E-4
        2.112112           0.148932E-3        0.550808E-4
        2.122122           0.161540E-3        0.641530E-4
        2.132132           0.175473E-3        0.737726E-4
        2.142142           0.191070E-3        0.832344E-4
        2.152152           0.209025E-3        0.924490E-4
        2.162162           0.229327E-3        0.101410E-3
        2.172172           0.252361E-3        0.110222E-3
        2.182182           0.277686E-3        0.119150E-3
        2.192192           0.307027E-3        0.128130E-3
        2.202202           0.340108E-3        0.134228E-3
        2.212212           0.377538E-3        0.139046E-3
        2.222222           0.419409E-3        0.141685E-3
        2.232232           0.467153E-3        0.141119E-3
        2.242242           0.521364E-3        0.135544E-3
        2.252252           0.581272E-3        0.123688E-3
        2.262262           0.648394E-3        0.101778E-3
        2.272272           0.720905E-3        0.687448E-4
        2.282282           0.799116E-3        0.202275E-4
        2.292292           0.879635E-3       -0.462787E-4
        2.302302           0.957235E-3       -0.137031E-3
        2.312312           0.001029          -0.253463E-3
        2.322322           0.001082          -0.398398E-3
        2.332332           0.001107          -0.570613E-3
        2.342342           0.001093          -0.762637E-3
        2.352352           0.001028          -0.964392E-3
        2.362362           0.906528E-3       -0.001156
        2.372372           0.728208E-3       -0.001319
        2.382382           0.505185E-3       -0.001430
        2.392392           0.259625E-3       -0.001475
        2.402402           0.157812E-4       -0.001450
        2.412412          -0.202011E-3       -0.001364
        2.422422          -0.374818E-3       -0.001232
        2.432432          -0.495822E-3       -0.001074
        2.442442          -0.566381E-3       -0.912467E-3
        2.452452          -0.595402E-3       -0.760032E-3
        2.462462          -0.591675E-3       -0.625468E-3
        2.472472          -0.566361E-3       -0.513527E-3
        2.482482          -0.527737E-3       -0.422193E-3
        2.492492          -0.483824E-3       -0.351342E-3
        2.502502          -0.438732E-3       -0.297076E-3
        2.512512          -0.394593E-3       -0.256597E-3
        2.522522          -0.353916E-3       -0.227030E-3
        2.532532          -0.316269E-3       -0.205839E-3
        2.542542          -0.283536E-3       -0.190532E-3
        2.552552          -0.254285E-3       -0.180957E-3
        2.562562          -0.228760E-3       -0.174807E-3
        2.572572          -0.207636E-3       -0.171586E-3
        2.582582          -0.189363E-3       -0.169198E-3
        2.592592          -0.174411E-3       -0.168914E-3
        2.602602          -0.162258E-3       -0.168808E-3
        2.612612          -0.152695E-3       -0.169353E-3
        2.622622          -0.145322E-3       -0.170069E-3
        2.632632          -0.140160E-3       -0.171057E-3
        2.642642          -0.136858E-3       -0.171297E-3
        2.652653          -0.135525E-3       -0.170678E-3
        2.662663          -0.135634E-3       -0.169039E-3
        2.672673          -0.137365E-3       -0.166264E-3
        2.682683          -0.140532E-3       -0.161275E-3
        2.692693          -0.144643E-3       -0.154442E-3
        2.702703          -0.149530E-3       -0.144949E-3
        2.712713          -0.154323E-3       -0.132156E-3
        2.722723          -0.158282E-3       -0.115921E-3
        2.732733          -0.160052E-3       -0.953330E-4
        2.742743          -0.157913E-3       -0.710567E-4
        2.752753          -0.149886E-3       -0.438727E-4
        2.762763          -0.134296E-3       -0.154190E-4
        2.772773          -0.110314E-3        0.111910E-4
        2.782783          -0.784074E-4        0.325697E-4
        2.792793          -0.406114E-4        0.454912E-4
        2.802803          -0.623040E-6        0.482796E-4
        2.812813           0.377675E-4        0.408038E-4
        2.822823           0.710233E-4        0.253421E-4
        2.832833           0.973444E-4        0.470784E-5
        2.842843           0.116586E-3       -0.179772E-4
        2.852853           0.129568E-3       -0.405080E-4
        2.862863           0.137839E-3       -0.612916E-4
        2.872873           0.142887E-3       -0.795719E-4
        2.882883           0.146222E-3       -0.956791E-4
        2.892893           0.148808E-3       -0.109602E-3
        2.902903           0.151272E-3       -0.122272E-3
        2.912913           0.154140E-3       -0.134014E-3
        2.922923           0.157529E-3       -0.146002E-3
        2.932933           0.161273E-3       -0.158538E-3
        2.942943           0.164754E-3       -0.172433E-3
        2.952953           0.167619E-3       -0.188629E-3
        2.962963           0.168295E-3       -0.206263E-3
        2.972973           0.166177E-3       -0.226119E-3
        2.982983           0.159774E-3       -0.246355E-3
        2.992993           0.148554E-3       -0.265850E-3
        3.003003           0.132912E-3       -0.282840E-3
        3.013013           0.113587E-3       -0.295547E-3
        3.023023           0.922823E-4       -0.303290E-3
        3.033033           0.709284E-4       -0.305839E-3
        3.043043           0.508281E-4       -0.303774E-3
        3.053053           0.326723E-4       -0.297833E-3
        3.063063           0.166826E-4       -0.289011E-3
        3.073073           0.323368E-5       -0.278567E-3
        3.083083          -0.818701E-5       -0.266188E-3
        3.093093          -0.177143E-4       -0.252262E-3
        3.103103          -0.256706E-4       -0.235484E-3
        3.113113          -0.307617E-4       -0.215561E-3
        3.123123          -0.319824E-4       -0.192422E-3
        3.133133          -0.274190E-4       -0.166298E-3
        3.143143          -0.149722E-4       -0.137489E-3
        3.153153           0.709959E-5       -0.108693E-3
        3.163163           0.419956E-4       -0.835532E-4
        3.173173           0.883945E-4       -0.660117E-4
        3.183183           0.145515E-3       -0.612781E-4
        3.193193           0.209526E-3       -0.739990E-4
        3.203203           0.274181E-3       -0.108434E-3
        3.213213           0.333212E-3       -0.165739E-3
        3.223223           0.376145E-3       -0.244984E-3
        3.233233           0.395765E-3       -0.340239E-3
        3.243243           0.384950E-3       -0.442096E-3
        3.253253           0.343939E-3       -0.538369E-3
        3.263263           0.275869E-3       -0.618244E-3
        3.273273           0.190629E-3       -0.674475E-3
        3.283283           0.977547E-4       -0.703080E-3
        3.293293           0.924855E-5       -0.707131E-3
        3.303303          -0.684520E-4       -0.692820E-3
        3.313313          -0.132827E-3       -0.665887E-3
        3.323323          -0.184213E-3       -0.635215E-3
        3.333333          -0.226259E-3       -0.603367E-3
        3.343343          -0.259134E-3       -0.572714E-3
        3.353353          -0.288306E-3       -0.545643E-3
        3.363363          -0.315366E-3       -0.520556E-3
        3.373373          -0.342439E-3       -0.496802E-3
        3.383383          -0.370456E-3       -0.473956E-3
        3.393393          -0.401128E-3       -0.449859E-3
        3.403403          -0.433788E-3       -0.422015E-3
        3.413413          -0.469034E-3       -0.388755E-3
        3.423423          -0.505037E-3       -0.347099E-3
        3.433433          -0.540594E-3       -0.296236E-3
        3.443443          -0.571206E-3       -0.233253E-3
        3.453453          -0.592803E-3       -0.158444E-3
        3.463463          -0.599180E-3       -0.721512E-4
        3.473473          -0.584419E-3        0.213442E-4
        3.483483          -0.546046E-3        0.113498E-3
        3.493493          -0.482543E-3        0.196040E-3
        3.503503          -0.397623E-3        0.259054E-3
        3.513513          -0.299561E-3        0.296346E-3
        3.523524          -0.199421E-3        0.303738E-3
        3.533533          -0.107748E-3        0.284397E-3
        3.543543          -0.321413E-4        0.244534E-3
        3.553553           0.243623E-4        0.193377E-3
        3.563564           0.616270E-4        0.137831E-3
        3.573573           0.815467E-4        0.835711E-4
        3.583583           0.884928E-4        0.337170E-4
        3.593593           0.853255E-4       -0.956701E-5
        3.603603           0.757793E-4       -0.457743E-4
        3.613613           0.614695E-4       -0.749566E-4
        3.623623           0.444450E-4       -0.977406E-4
        3.633634           0.259533E-4       -0.114397E-3
        3.643643           0.730994E-5       -0.126200E-3
        3.653653          -0.112138E-4       -0.132959E-3
        3.663663          -0.283755E-4       -0.135669E-3
        3.673674          -0.441173E-4       -0.135188E-3
        3.683683          -0.574153E-4       -0.131941E-3
        3.693693          -0.685393E-4       -0.127001E-3
        3.703704          -0.776380E-4       -0.120985E-3
        3.713714          -0.848640E-4       -0.114808E-3
        3.723723          -0.910110E-4       -0.108743E-3
        3.733733          -0.966615E-4       -0.102952E-3
        3.743744          -0.102542E-3       -0.968256E-4
        3.753754          -0.108708E-3       -0.901302E-4
        3.763763          -0.115178E-3       -0.817292E-4
        3.773773          -0.121399E-3       -0.709026E-4
        3.783784          -0.126117E-3       -0.571368E-4
        3.793794          -0.127551E-3       -0.409519E-4
        3.803803          -0.124782E-3       -0.234883E-4
        3.813814          -0.116968E-3       -0.688573E-5
        3.823824          -0.104539E-3        0.667501E-5
        3.833834          -0.899856E-4        0.160689E-4
        3.843843          -0.748808E-4        0.207678E-4
        3.853854          -0.608284E-4        0.213588E-4
        3.863864          -0.495327E-4        0.193220E-4
        3.873873          -0.408895E-4        0.159732E-4
        3.883883          -0.347399E-4        0.126074E-4
        3.893894          -0.301033E-4        0.988662E-5
        3.903904          -0.267067E-4        0.833550E-5
        3.913913          -0.234531E-4        0.762057E-5
        3.923924          -0.198394E-4        0.739654E-5
        3.933934          -0.159730E-4        0.728810E-5
        3.943944          -0.119047E-4        0.692133E-5
        3.953954          -0.793811E-5        0.620630E-5
        3.963964          -0.424204E-5        0.516136E-5
        3.973974          -0.871415E-6        0.389839E-5
        3.983984           0.203190E-5        0.251894E-5
        3.993994           0.464241E-5        0.122688E-5
        4.004004           0.668439E-5       -0.482087E-7
        4.014014           0.850078E-5       -0.900177E-6
        4.024024           0.102047E-4       -0.154778E-5
        4.034034           0.119884E-4       -0.173790E-5
        4.044044           0.141803E-4       -0.182906E-5
        4.054054           0.168496E-4       -0.224310E-5
        4.064064           0.199350E-4       -0.340319E-5
        4.074074           0.230805E-4       -0.590067E-5
        4.084084           0.255138E-4       -0.101607E-4
        4.094094           0.259240E-4       -0.163794E-4
        4.104104           0.229002E-4       -0.239178E-4
        4.114114           0.150487E-4       -0.313113E-4
        4.124124           0.157348E-5       -0.361920E-4
        4.134134          -0.170085E-4       -0.355228E-4
        4.144144          -0.385227E-4       -0.264507E-4
        4.154154          -0.597303E-4       -0.709924E-5
        4.164164          -0.762295E-4        0.226617E-4
        4.174174          -0.838722E-4        0.615539E-4
        4.184184          -0.790945E-4        0.106461E-3
        4.194194          -0.598369E-4        0.153197E-3
        4.204204          -0.247931E-4        0.196722E-3
        4.214214           0.250686E-4        0.231746E-3
        4.224224           0.871491E-4        0.252735E-3
        4.234234           0.156436E-3        0.255543E-3
        4.244244           0.226368E-3        0.237743E-3
        4.254254           0.289430E-3        0.199719E-3
        4.264264           0.338595E-3        0.145333E-3
        4.274274           0.369274E-3        0.808788E-4
        4.284284           0.379913E-3        0.136981E-4
        4.294294           0.372896E-3       -0.490104E-4
        4.304304           0.351693E-3       -0.102786E-3
        4.314314           0.321654E-3       -0.144945E-3
        4.324324           0.287496E-3       -0.175428E-3
        4.334334           0.252759E-3       -0.195535E-3
        4.344344           0.219474E-3       -0.207415E-3
        4.354354           0.189137E-3       -0.212929E-3
        4.364364           0.161695E-3       -0.213787E-3
        4.374374           0.137102E-3       -0.211306E-3
        4.384384           0.115077E-3       -0.206175E-3
        4.394394           0.954281E-4       -0.198760E-3
        4.404404           0.779764E-4       -0.189001E-3
        4.414414           0.630286E-4       -0.177352E-3
        4.424424           0.509286E-4       -0.163560E-3
        4.434434           0.421388E-4       -0.148116E-3
        4.444444           0.373418E-4       -0.131864E-3
        4.454454           0.367494E-4       -0.115696E-3
        4.464464           0.404926E-4       -0.100983E-3
        4.474474           0.477855E-4       -0.892545E-4
        4.484484           0.574641E-4       -0.814480E-4
        4.494494           0.675469E-4       -0.780536E-4
        4.504504           0.764461E-4       -0.785437E-4
        4.514514           0.828990E-4       -0.817726E-4
        4.524524           0.862721E-4       -0.863360E-4
        4.534534           0.866732E-4       -0.906489E-4
        4.544544           0.846058E-4       -0.935758E-4
        4.554554           0.813129E-4       -0.940654E-4
        4.564565           0.781792E-4       -0.920820E-4
        4.574574           0.762444E-4       -0.880136E-4
        4.584584           0.764640E-4       -0.828602E-4
        4.594594           0.789640E-4       -0.775007E-4
        4.604605           0.834970E-4       -0.729830E-4
        4.614614           0.896139E-4       -0.698517E-4
        4.624624           0.965627E-4       -0.685417E-4
        4.634634           0.103718E-3       -0.690149E-4
        4.644644           0.110669E-3       -0.711433E-4
        4.654655           0.116819E-3       -0.745721E-4
        4.664664           0.122075E-3       -0.787675E-4
        4.674675           0.126700E-3       -0.833691E-4
        4.684684           0.130859E-3       -0.879411E-4
        4.694695           0.135206E-3       -0.927383E-4
        4.704704           0.140178E-3       -0.981264E-4
        4.714715           0.145715E-3       -0.104968E-3
        4.724724           0.151501E-3       -0.114090E-3
        4.734735           0.156442E-3       -0.126148E-3
        4.744744           0.158988E-3       -0.141304E-3
        4.754755           0.157343E-3       -0.158659E-3
        4.764764           0.150685E-3       -0.176274E-3
        4.774775           0.138989E-3       -0.191602E-3
        4.784785           0.124208E-3       -0.202482E-3
        4.794795           0.109539E-3       -0.208620E-3
        4.804804           0.974967E-4       -0.211802E-3
        4.814815           0.887356E-4       -0.215968E-3
        4.824825           0.807317E-4       -0.224253E-3
        4.834835           0.692303E-4       -0.237152E-3
        4.844844           0.495969E-4       -0.252206E-3
        4.854855           0.198506E-4       -0.264053E-3
        4.864865          -0.181403E-4       -0.266677E-3
        4.874875          -0.592553E-4       -0.255935E-3
        4.884884          -0.971867E-4       -0.231710E-3
        4.894895          -0.126181E-3       -0.196378E-3
        4.904905          -0.142882E-3       -0.154885E-3
        4.914915          -0.147313E-3       -0.112955E-3
        4.924924          -0.141444E-3       -0.748034E-4
        4.934935          -0.128371E-3       -0.427674E-4
        4.944945          -0.111736E-3       -0.175572E-4
        4.954955          -0.940367E-4        0.165498E-5
        4.964964          -0.768003E-4        0.162530E-4
        4.974975          -0.608823E-4        0.276063E-4
        4.984985          -0.465262E-4        0.369888E-4
        4.994995          -0.334524E-4        0.453585E-4
        5.005005          -0.213062E-4        0.536396E-4
        5.015015          -0.950094E-5        0.621727E-4
        5.025025           0.264443E-5        0.711981E-4
        5.035035           0.157368E-4        0.808925E-4
        5.045045           0.305491E-4        0.909455E-4
        5.055055           0.477410E-4        0.100974E-3
        5.065065           0.678347E-4        0.110221E-3
        5.075075           0.911176E-4        0.117793E-3
        5.085085           0.117409E-3        0.122438E-3
        5.095095           0.146264E-3        0.123328E-3
        5.105105           0.176918E-3        0.119854E-3
        5.115115           0.208762E-3        0.111293E-3
        5.125125           0.241034E-3        0.973597E-4
        5.135135           0.273318E-3        0.774995E-4
        5.145144           0.304661E-3        0.507498E-4
        5.155155           0.333776E-3        0.159856E-4
        5.165165           0.357975E-3       -0.278502E-4
        5.175175           0.373778E-3       -0.806813E-4
        5.185184           0.376866E-3       -0.140692E-3
        5.195195           0.363622E-3       -0.203604E-3
        5.205205           0.332491E-3       -0.263207E-3
        5.215215           0.285219E-3       -0.312824E-3
        5.225225           0.226331E-3       -0.346811E-3
        5.235235           0.162485E-3       -0.362667E-3
        5.245245           0.100546E-3       -0.361069E-3
        5.255255           0.454983E-4       -0.345062E-3
        5.265265           0.545456E-6       -0.319287E-3
        5.275275          -0.336596E-4       -0.288103E-3
        5.285285          -0.579955E-4       -0.255264E-3
        5.295295          -0.742069E-4       -0.223195E-3
        5.305305          -0.842329E-4       -0.193385E-3
        5.315315          -0.897605E-4       -0.166263E-3
        5.325325          -0.922842E-4       -0.141765E-3
        5.335335          -0.929143E-4       -0.119715E-3
        5.345345          -0.920174E-4       -0.996582E-4
        5.355355          -0.904182E-4       -0.812753E-4
        5.365365          -0.879823E-4       -0.641238E-4
        5.375375          -0.850696E-4       -0.479616E-4
        5.385385          -0.816736E-4       -0.324073E-4
        5.395395          -0.776092E-4       -0.172798E-4
        5.405405          -0.729948E-4       -0.293277E-5
        5.415415          -0.675275E-4        0.110188E-4
        5.425425          -0.615695E-4        0.243554E-4
        5.435435          -0.548067E-4        0.370997E-4
        5.445445          -0.476501E-4        0.491912E-4
        5.455455          -0.401707E-4        0.604595E-4
        5.465465          -0.324334E-4        0.712975E-4
        5.475475          -0.248134E-4        0.817430E-4
        5.485485          -0.169720E-4        0.920362E-4
        5.495495          -0.873946E-5        0.102328E-3
        5.505505          -0.321368E-6        0.112648E-3
        5.515515           0.882219E-5        0.123012E-3
        5.525526           0.184760E-4        0.133169E-3
        5.535535           0.288980E-4        0.143086E-3
        5.545545           0.396550E-4        0.152590E-3
        5.555555           0.508917E-4        0.161844E-3
        5.565566           0.622836E-4        0.170917E-3
        5.575575           0.739015E-4        0.180196E-3
        5.585585           0.857979E-4        0.189942E-3
        5.595595           0.984964E-4        0.200490E-3
        5.605606           0.112318E-3        0.211847E-3
        5.615615           0.127841E-3        0.224036E-3
        5.625625           0.145627E-3        0.236827E-3
        5.635635           0.165975E-3        0.249981E-3
        5.645645           0.189570E-3        0.262998E-3
        5.655655           0.216714E-3        0.275612E-3
        5.665665           0.248020E-3        0.286827E-3
        5.675675           0.284074E-3        0.296065E-3
        5.685685           0.325363E-3        0.301634E-3
        5.695695           0.371745E-3        0.301936E-3
        5.705705           0.422716E-3        0.294783E-3
        5.715715           0.476934E-3        0.277270E-3
        5.725725           0.531215E-3        0.248118E-3
        5.735735           0.581668E-3        0.206062E-3
        5.745746           0.624066E-3        0.151673E-3
        5.755755           0.654243E-3        0.882351E-4
        5.765765           0.669559E-3        0.200323E-4
        5.775775           0.669196E-3       -0.481021E-4
        5.785786           0.655105E-3       -0.110887E-3
        5.795795           0.630605E-3       -0.165395E-3
        5.805805           0.599610E-3       -0.209750E-3
        5.815815           0.565688E-3       -0.244204E-3
        5.825826           0.531175E-3       -0.270321E-3
        5.835835           0.497134E-3       -0.289936E-3
        5.845845           0.464929E-3       -0.303329E-3
        5.855855           0.433765E-3       -0.311715E-3
        5.865866           0.404894E-3       -0.315421E-3
        5.875876           0.378974E-3       -0.313898E-3
        5.885885           0.357159E-3       -0.308222E-3
        5.895895           0.341060E-3       -0.299678E-3
        5.905906           0.332208E-3       -0.290328E-3
        5.915915           0.329233E-3       -0.283489E-3
        5.925925           0.331100E-3       -0.282197E-3
        5.935935           0.333654E-3       -0.287178E-3
        5.945946           0.333371E-3       -0.298404E-3
        5.955956           0.327721E-3       -0.312453E-3
        5.965966           0.316327E-3       -0.325454E-3
        5.975976           0.300219E-3       -0.334452E-3
        5.985986           0.284135E-3       -0.337814E-3
        5.995996           0.269195E-3       -0.336335E-3
        6.006006           0.258434E-3       -0.331582E-3
        6.016016           0.253506E-3       -0.325826E-3
        6.026026           0.253562E-3       -0.321845E-3
        6.036036           0.258455E-3       -0.322059E-3
        6.046046           0.266123E-3       -0.328585E-3
        6.056056           0.273252E-3       -0.343078E-3
        6.066066           0.275791E-3       -0.365563E-3
        6.076076           0.270340E-3       -0.393704E-3
        6.086086           0.254613E-3       -0.423960E-3
        6.096096           0.228137E-3       -0.450952E-3
        6.106106           0.192728E-3       -0.471320E-3
        6.116116           0.151925E-3       -0.482143E-3
        6.126126           0.110193E-3       -0.482447E-3
        6.136136           0.706389E-4       -0.473182E-3
        6.146146           0.357485E-4       -0.456962E-3
        6.156156           0.681741E-5       -0.435393E-3
        6.166166          -0.156103E-4       -0.411225E-3
        6.176176          -0.322634E-4       -0.386011E-3
        6.186186          -0.432788E-4       -0.361399E-3
        6.196196          -0.499910E-4       -0.338416E-3
        6.206206          -0.531761E-4       -0.317663E-3
        6.216216          -0.539513E-4       -0.299570E-3
        6.226226          -0.524638E-4       -0.284493E-3
        6.236236          -0.508061E-4       -0.272006E-3
        6.246246          -0.485251E-4       -0.262356E-3
        6.256256          -0.473682E-4       -0.254704E-3
        6.266266          -0.470609E-4       -0.249287E-3
        6.276276          -0.482673E-4       -0.245395E-3
        6.286286          -0.516150E-4       -0.242296E-3
        6.296296          -0.569551E-4       -0.239525E-3
        6.306306          -0.647367E-4       -0.236288E-3
        6.316316          -0.745923E-4       -0.231877E-3
        6.326326          -0.861555E-4       -0.225361E-3
        6.336336          -0.989464E-4       -0.216318E-3
        6.346346          -0.112004E-3       -0.204365E-3
        6.356356          -0.124756E-3       -0.189351E-3
        6.366366          -0.136011E-3       -0.171548E-3
        6.376376          -0.145194E-3       -0.151431E-3
        6.386386          -0.152175E-3       -0.129493E-3
        6.396396          -0.156517E-3       -0.106356E-3
        6.406406          -0.158120E-3       -0.827110E-4
        6.416416          -0.157310E-3       -0.590821E-4
        6.426426          -0.154321E-3       -0.360488E-4
        6.436436          -0.149449E-3       -0.138207E-4
        6.446446          -0.143657E-3        0.749244E-5
        6.456456          -0.137588E-3        0.283451E-4
        6.466466          -0.131333E-3        0.492050E-4
        6.476476          -0.124616E-3        0.708475E-4
        6.486486          -0.117893E-3        0.942905E-4
        6.496496          -0.109445E-3        0.119804E-3
        6.506506          -0.980624E-4        0.147520E-3
        6.516516          -0.834982E-4        0.177372E-3
        6.526526          -0.639066E-4        0.208736E-3
        6.536536          -0.381763E-4        0.239963E-3
        6.546546          -0.619675E-5        0.269603E-3
        6.556556           0.318107E-4        0.295582E-3
        6.566566           0.747707E-4        0.316229E-3
        6.576576           0.120703E-3        0.330338E-3
        6.586586           0.167035E-3        0.337682E-3
        6.596596           0.212065E-3        0.340341E-3
        6.606606           0.254389E-3        0.340645E-3
        6.616616           0.294986E-3        0.341339E-3
        6.626626           0.337480E-3        0.344355E-3
        6.636636           0.385172E-3        0.349960E-3
        6.646646           0.442225E-3        0.355300E-3
        6.656656           0.511747E-3        0.356797E-3
        6.666666           0.595186E-3        0.347924E-3
        6.676676           0.692049E-3        0.321618E-3
        6.686686           0.798294E-3        0.270091E-3
        6.696696           0.905196E-3        0.184946E-3
        6.706707           0.999186E-3        0.620886E-4
        6.716716           0.001065          -0.951435E-4
        6.726726           0.001086          -0.276686E-3
        6.736736           0.001055          -0.464856E-3
        6.746747           0.969848E-3       -0.637629E-3
        6.756756           0.841744E-3       -0.776859E-3
        6.766766           0.688398E-3       -0.869788E-3
        6.776776           0.527609E-3       -0.916079E-3
        6.786787           0.376100E-3       -0.919936E-3
        6.796796           0.242862E-3       -0.892118E-3
        6.806807           0.133804E-3       -0.843096E-3
        6.816816           0.489073E-4       -0.781577E-3
        6.826826          -0.142085E-4       -0.716082E-3
        6.836837          -0.580682E-4       -0.650720E-3
        6.846846          -0.868120E-4       -0.589307E-3
        6.856857          -0.103589E-3       -0.533596E-3
        6.866867          -0.110894E-3       -0.484826E-3
        6.876876          -0.111824E-3       -0.442937E-3
        6.886887          -0.108275E-3       -0.407834E-3
        6.896896          -0.102008E-3       -0.379138E-3
        6.906906          -0.940994E-4       -0.356298E-3
        6.916917          -0.856820E-4       -0.339298E-3
        6.926927          -0.772984E-4       -0.327308E-3
        6.936936          -0.696589E-4       -0.320432E-3
        6.946947          -0.646970E-4       -0.318727E-3
        6.956956          -0.637167E-4       -0.321355E-3
        6.966967          -0.681654E-4       -0.327243E-3
        6.976976          -0.795887E-4       -0.333835E-3
        6.986986          -0.981496E-4       -0.338072E-3
        6.996997          -0.122610E-3       -0.337957E-3
        7.007007          -0.150513E-3       -0.330818E-3
        7.017016          -0.179563E-3       -0.316424E-3
        7.027027          -0.207468E-3       -0.294990E-3
        7.037036          -0.232388E-3       -0.266613E-3
        7.047047          -0.253226E-3       -0.232871E-3
        7.057057          -0.267267E-3       -0.194934E-3
        7.067066          -0.274974E-3       -0.154538E-3
        7.077077          -0.275506E-3       -0.113166E-3
        7.087087          -0.268906E-3       -0.734850E-4
        7.097096          -0.256375E-3       -0.369394E-4
        7.107107          -0.239723E-3       -0.467950E-5
        7.117116          -0.220591E-3        0.234807E-4
        7.127127          -0.200556E-3        0.476350E-4
        7.137137          -0.180103E-3        0.691617E-4
        7.147147          -0.159486E-3        0.884149E-4
        7.157157          -0.138383E-3        0.106625E-3
        7.167167          -0.115908E-3        0.124221E-3
        7.177176          -0.917492E-4        0.140616E-3
        7.187187          -0.639992E-4        0.155866E-3
        7.197196          -0.332138E-4        0.167903E-3
        7.207206           0.948524E-6        0.175582E-3
        7.217217           0.378607E-4        0.177036E-3
        7.227227           0.745441E-4        0.170295E-3
        7.237237           0.109428E-3        0.155327E-3
        7.247247           0.138333E-3        0.132688E-3
        7.257257           0.159427E-3        0.105028E-3
        7.267267           0.171389E-3        0.759474E-4
        7.277277           0.174123E-3        0.474071E-4
        7.287286           0.169693E-3        0.232722E-4
        7.297297           0.160892E-3        0.535321E-5
        7.307307           0.149771E-3       -0.686662E-5
        7.317317           0.138811E-3       -0.135397E-4
        7.327327           0.129350E-3       -0.158151E-4
        7.337337           0.122149E-3       -0.146117E-4
        7.347347           0.117382E-3       -0.118349E-4
        7.357357           0.115552E-3       -0.826989E-5
        7.367367           0.116829E-3       -0.515680E-5
        7.377377           0.119783E-3       -0.333499E-5
        7.387387           0.123681E-3       -0.366433E-5
        7.397398           0.127493E-3       -0.682638E-5
        7.407407           0.129511E-3       -0.116082E-4
        7.417417           0.128545E-3       -0.189615E-4
        7.427427           0.123113E-3       -0.254482E-4
        7.437437           0.114921E-3       -0.294781E-4
        7.447447           0.103140E-3       -0.299072E-4
        7.457457           0.901956E-4       -0.251686E-4
        7.467467           0.780323E-4       -0.143845E-4
        7.477477           0.682546E-4        0.132598E-5
        7.487487           0.638914E-4        0.211767E-4
        7.497497           0.641435E-4        0.434466E-4
        7.507507           0.706345E-4        0.676485E-4
        7.517517           0.837070E-4        0.917878E-4
        7.527527           0.103570E-3        0.114023E-3
        7.537537           0.130283E-3        0.133697E-3
        7.547547           0.163150E-3        0.147994E-3
        7.557557           0.202274E-3        0.155482E-3
        7.567567           0.245405E-3        0.152889E-3
        7.577577           0.290571E-3        0.138504E-3
        7.587587           0.333257E-3        0.110690E-3
        7.597597           0.367993E-3        0.690576E-4
        7.607607           0.390211E-3        0.174036E-4
        7.617618           0.395298E-3       -0.396431E-4
        7.627627           0.382986E-3       -0.945377E-4
        7.637637           0.355744E-3       -0.141608E-3
        7.647647           0.317522E-3       -0.176319E-3
        7.657657           0.274734E-3       -0.196613E-3
        7.667667           0.231521E-3       -0.203887E-3
        7.677677           0.192626E-3       -0.200608E-3
        7.687687           0.159773E-3       -0.189246E-3
        7.697698           0.132033E-3       -0.172459E-3
        7.707707           0.110998E-3       -0.152645E-3
        7.717717           0.955221E-4       -0.131425E-3
        7.727727           0.847743E-4       -0.109982E-3
        7.737737           0.777759E-4       -0.886700E-4
        7.747747           0.739346E-4       -0.676813E-4
        7.757757           0.726727E-4       -0.474637E-4
        7.767767           0.741836E-4       -0.276908E-4
        7.777778           0.774758E-4       -0.784920E-5
        7.787787           0.826111E-4        0.122178E-4
        7.797797           0.897758E-4        0.326199E-4
        7.807807           0.998440E-4        0.532916E-4
        7.817817           0.113377E-3        0.750491E-4
        7.827827           0.130240E-3        0.971558E-4
        7.837838           0.153418E-3        0.118917E-3
        7.847847           0.182624E-3        0.139712E-3
        7.857858           0.219017E-3        0.157560E-3
        7.867867           0.263208E-3        0.170322E-3
        7.877877           0.316190E-3        0.173595E-3
        7.887887           0.375404E-3        0.164879E-3
        7.897897           0.437699E-3        0.139507E-3
        7.907907           0.497217E-3        0.951046E-4
        7.917918           0.546166E-3        0.304390E-4
        7.927927           0.577217E-3       -0.497523E-4
        7.937938           0.584126E-3       -0.138621E-3
        7.947948           0.564392E-3       -0.227338E-3
        7.957957           0.519506E-3       -0.304597E-3
        7.967968           0.457136E-3       -0.363365E-3
        7.977977           0.385811E-3       -0.400508E-3
        7.987987           0.313670E-3       -0.416108E-3
        7.997998           0.246377E-3       -0.413897E-3
        8.008007           0.189153E-3       -0.398519E-3
        8.018017           0.141426E-3       -0.374670E-3
        8.028028           0.105063E-3       -0.345705E-3
        8.038037           0.768094E-4       -0.314887E-3
        8.048048           0.581733E-4       -0.283907E-3
        8.058058           0.449431E-4       -0.254818E-3
        8.068068           0.361992E-4       -0.226770E-3
        8.078078           0.327810E-4       -0.201577E-3
        8.088087           0.322043E-4       -0.178789E-3
        8.098097           0.341829E-4       -0.157882E-3
        8.108108           0.394114E-4       -0.140284E-3
        8.118117           0.456880E-4       -0.124326E-3
        8.128128           0.530762E-4       -0.111193E-3
        8.138138           0.631994E-4       -0.100534E-3
        8.148148           0.731830E-4       -0.936362E-4
        8.158158           0.813458E-4       -0.895468E-4
        8.168168           0.902009E-4       -0.888327E-4
        8.178178           0.950858E-4       -0.903092E-4
        8.188188           0.980730E-4       -0.935098E-4
        8.198197           0.962228E-4       -0.964896E-4
        8.208207           0.922687E-4       -0.981134E-4
        8.218218           0.858712E-4       -0.971262E-4
        8.228228           0.787948E-4       -0.937889E-4
        8.238238           0.720740E-4       -0.873838E-4
        8.248248           0.669040E-4       -0.788669E-4
        8.258258           0.620309E-4       -0.688791E-4
        8.268268           0.602694E-4       -0.578928E-4
        8.278277           0.599832E-4       -0.459876E-4
        8.288287           0.612524E-4       -0.349912E-4
        8.298298           0.635381E-4       -0.231443E-4
        8.308308           0.676626E-4       -0.120900E-4
        8.318318           0.728616E-4       -0.136836E-5
        8.328328           0.798187E-4        0.890116E-5
        8.338338           0.871273E-4        0.187966E-4
        8.348348           0.961094E-4        0.284966E-4
        8.358357           0.106824E-3        0.363359E-4
        8.368367           0.118443E-3        0.438307E-4
        8.378378           0.131542E-3        0.492484E-4
        8.388388           0.145606E-3        0.533566E-4
        8.398398           0.159966E-3        0.544763E-4
        8.408408           0.174614E-3        0.529912E-4
        8.418418           0.188362E-3        0.498682E-4
        8.428429           0.200868E-3        0.440303E-4
        8.438437           0.211266E-3        0.368247E-4
        8.448447           0.220641E-3        0.286365E-4
        8.458458           0.227565E-3        0.196983E-4
        8.468468           0.232647E-3        0.105504E-4
        8.478477           0.236638E-3        0.145038E-5
        8.488488           0.239174E-3       -0.777272E-5
        8.498498           0.240114E-3       -0.164140E-4
        8.508509           0.239236E-3       -0.247884E-4
        8.518518           0.237423E-3       -0.318153E-4
        8.528527           0.234969E-3       -0.387272E-4
        8.538538           0.231535E-3       -0.443176E-4
        8.548548           0.227231E-3       -0.482010E-4
        8.558558           0.222545E-3       -0.511238E-4
        8.568568           0.217595E-3       -0.523830E-4
        8.578578           0.213793E-3       -0.530135E-4
        8.588589           0.210441E-3       -0.519350E-4
        8.598598           0.207262E-3       -0.503568E-4
        8.608608           0.205434E-3       -0.483477E-4
        8.618618           0.204835E-3       -0.461767E-4
        8.628628           0.204159E-3       -0.439870E-4
        8.638638           0.204249E-3       -0.417532E-4
        8.648648           0.204543E-3       -0.400097E-4
        8.658658           0.206142E-3       -0.385126E-4
        8.668669           0.207539E-3       -0.369755E-4
        8.678679           0.209325E-3       -0.359677E-4
        8.688688           0.210833E-3       -0.353504E-4
        8.698698           0.212889E-3       -0.347291E-4
        8.708708           0.215017E-3       -0.340962E-4
        8.718718           0.217398E-3       -0.338153E-4
        8.728728           0.219020E-3       -0.338449E-4
        8.738738           0.221728E-3       -0.340934E-4
        8.748748           0.223319E-3       -0.342388E-4
        8.758759           0.226764E-3       -0.350221E-4
        8.768768           0.228409E-3       -0.358554E-4
        8.778779           0.231098E-3       -0.369223E-4
        8.788788           0.233501E-3       -0.383080E-4
        8.798798           0.235664E-3       -0.397762E-4
        8.808808           0.238167E-3       -0.418387E-4
        8.818818           0.240250E-3       -0.441831E-4
        8.828828           0.241983E-3       -0.468932E-4
        8.838839           0.244177E-3       -0.497140E-4
        8.848848           0.245194E-3       -0.532265E-4
        8.858859           0.246009E-3       -0.567738E-4
        8.868869           0.247403E-3       -0.610989E-4
        8.878878           0.247055E-3       -0.653024E-4
        8.888888           0.245933E-3       -0.694958E-4
        8.898898           0.244171E-3       -0.737165E-4
        8.908908           0.242648E-3       -0.778462E-4
        8.918919           0.239519E-3       -0.811986E-4
        8.928928           0.235839E-3       -0.838338E-4
        8.938939           0.231969E-3       -0.860640E-4
        8.948949           0.227572E-3       -0.872414E-4
        8.958959           0.223649E-3       -0.882792E-4
        8.968968           0.219798E-3       -0.890595E-4
        8.978978           0.216056E-3       -0.892057E-4
        8.988988           0.211441E-3       -0.887812E-4
        8.998999           0.206952E-3       -0.877081E-4
        9.009008           0.202184E-3       -0.854526E-4
        9.019018           0.197333E-3       -0.820888E-4
        9.029029           0.193241E-3       -0.777204E-4
        9.039039           0.190317E-3       -0.720343E-4
        9.049048           0.188809E-3       -0.658018E-4
        9.059058           0.189294E-3       -0.589353E-4
        9.069068           0.191094E-3       -0.524124E-4
        9.079079           0.194956E-3       -0.464601E-4
        9.089088           0.200627E-3       -0.415677E-4
        9.099098           0.207334E-3       -0.387034E-4
        9.109109           0.215202E-3       -0.378454E-4
        9.119119           0.222615E-3       -0.402947E-4
        9.129129           0.228985E-3       -0.445695E-4
        9.139138           0.233482E-3       -0.514181E-4
        9.149148           0.234973E-3       -0.596056E-4
        9.159159           0.233596E-3       -0.678839E-4
        9.169168           0.229563E-3       -0.748193E-4
        9.179178           0.223447E-3       -0.798322E-4
        9.189189           0.216097E-3       -0.824268E-4
        9.199199           0.208808E-3       -0.831893E-4
        9.209209           0.201792E-3       -0.817295E-4
        9.219219           0.195729E-3       -0.793421E-4
        9.229228           0.189494E-3       -0.758929E-4
        9.239239           0.184815E-3       -0.717067E-4
        9.249249           0.180480E-3       -0.670331E-4
        9.259258           0.176601E-3       -0.615149E-4
        9.269269           0.172680E-3       -0.550092E-4
        9.279279           0.170357E-3       -0.473587E-4
        9.289289           0.169218E-3       -0.386803E-4
        9.299299           0.169808E-3       -0.295112E-4
        9.309309           0.172752E-3       -0.205008E-4
        9.319319           0.177546E-3       -0.120341E-4
        9.329329           0.184156E-3       -0.504172E-5
        9.339338           0.192049E-3       -0.110227E-7
        9.349349           0.200415E-3        0.313655E-5
        9.359359           0.207719E-3        0.444220E-5
        9.369369           0.214973E-3        0.448573E-5
        9.379379           0.221618E-3        0.326243E-5
        9.389389           0.226618E-3        0.131671E-5
        9.399399           0.231394E-3       -0.945848E-6
        9.409409           0.235248E-3       -0.344038E-5
        9.419418           0.237982E-3       -0.615350E-5
        9.429429           0.241015E-3       -0.879011E-5
        9.439439           0.242799E-3       -0.115675E-4
        9.449449           0.244491E-3       -0.142330E-4
        9.459459           0.245645E-3       -0.169908E-4
        9.469469           0.246011E-3       -0.197067E-4
        9.479479           0.246048E-3       -0.220623E-4
        9.489489           0.245458E-3       -0.240848E-4
        9.499498           0.244160E-3       -0.256049E-4
        9.509509           0.242931E-3       -0.263019E-4
        9.519519           0.241546E-3       -0.266742E-4
        9.529529           0.240857E-3       -0.265945E-4
        9.539539           0.239951E-3       -0.257176E-4
        9.549549           0.239065E-3       -0.247168E-4
        9.559559           0.239050E-3       -0.236553E-4
        9.569570           0.239157E-3       -0.224090E-4
        9.579578           0.239587E-3       -0.210631E-4
        9.589589           0.240080E-3       -0.198221E-4
        9.599599           0.241174E-3       -0.187550E-4
        9.609609           0.241901E-3       -0.177073E-4
        9.619619           0.243082E-3       -0.167246E-4
        9.629629           0.243877E-3       -0.158439E-4
        9.639639           0.245580E-3       -0.153248E-4
        9.649650           0.246293E-3       -0.146728E-4
        9.659659           0.247531E-3       -0.139487E-4
        9.669669           0.249171E-3       -0.134015E-4
        9.679679           0.250058E-3       -0.129764E-4
        9.689689           0.251174E-3       -0.122965E-4
        9.699699           0.252467E-3       -0.120792E-4
        9.709709           0.253944E-3       -0.116678E-4
        9.719719           0.254898E-3       -0.114109E-4
        9.729730           0.256290E-3       -0.110876E-4
        9.739739           0.257168E-3       -0.107248E-4
        9.749749           0.258334E-3       -0.105151E-4
        9.759759           0.259778E-3       -0.102877E-4
        9.769769           0.260638E-3       -0.102026E-4
        9.779779           0.261548E-3       -0.100260E-4
        9.789789           0.262706E-3       -0.984705E-5
        9.799799           0.264112E-3       -0.954213E-5
        9.809810           0.264623E-3       -0.945956E-5
        9.819819           0.265644E-3       -0.935385E-5
        9.829829           0.266893E-3       -0.913545E-5
        9.839839           0.268345E-3       -0.914568E-5
        9.849849           0.269208E-3       -0.894740E-5
        9.859859           0.270138E-3       -0.882797E-5
        9.869869           0.270991E-3       -0.862995E-5
        9.879879           0.272448E-3       -0.866434E-5
        9.889890           0.272591E-3       -0.845116E-5
        9.899899           0.274107E-3       -0.848467E-5
        9.909909           0.275565E-3       -0.835098E-5
        9.919919           0.275854E-3       -0.824279E-5
        9.929929           0.277665E-3       -0.831509E-5
        9.939939           0.278104E-3       -0.806289E-5
        9.949949           0.278981E-3       -0.803990E-5
        9.959959           0.280243E-3       -0.788458E-5
        9.969970           0.281209E-3       -0.802450E-5
        9.979980           0.282352E-3       -0.789705E-5
        9.989989           0.282645E-3       -0.798730E-5
        10.00000           0.283699E-3       -0.792380E-5
# 
# 01/27/2025 at 11:23 yambo_rt @ baym [start]
# 01/27/2025 at 11:23                 [end]
#
# .-Input file  yambo.in
# | optics                           # [R] Linear Response optical properties
# | dipoles                          # [R] Oscillator strenghts (or dipoles)
# | bse                              # [R][BSE] Bethe Salpeter Equation.
# | BoseTemp= 0.000000         eV    # Bosonic Temperature
# | FFTGvecs=  3525            RL    # [FFT] Plane-waves
# | DIP_Threads= 1                   # [OPENMP/X] Number of threads for dipoles
# | BS_nCPU_LinAlg_INV= 1            # [PARALLEL] CPUs for Linear Algebra (if -1 it is automatically set)
# | BS_nCPU_LinAlg_DIAGO= 1          # [PARALLEL] CPUs for Linear Algebra (if -1 it is automatically set)
# | X_Threads= 1                     # [OPENMP/X] Number of threads for response functions
# | K_Threads= 1                     # [OPENMP/BSK] Number of threads for response functions
# | BSKmod= "IP"                     # [BSE] IP/Hartree/HF/ALDA/SEX/BSfxc
# | BSEmod= "retarded"               # [BSE] resonant/retarded/coupling
# | % DipBands
# |   6 | 14 |                           # [DIP] Bands range for dipoles
# | %
# | DipComputed= "R V P [G-space]"   # [DIP] [default R P V; extra P2 Spin Orb]
# | BSENGexx= 19641            RL    # [BSK] Exchange components
# | KfnRTdb= "f @ 20 fs < 08_rt/ndb.RT_carriers" # [EXTRT BSK BSS] Database
# | % BSEQptR
# |  1 | 1 |                             # [BSK] Transferred momenta range
# | %
# | % BSEBands
# |   6 | 14 |                           # [BSK] Bands range
# | %
# | RTOccMode= "R"                   # [RT-BSE] (K)ernel/(R)esiduals. BSE components to be corrected with the TD occupations
# | ForceEqTrans                   # [RT-BSE] Use only equilibrium transitions
# | % BEnRange
# |   0.00000 | 10.00000 |         eV    # [BSS] Energy range
# | %
# | % BDmRange
# |  0.100000 | 0.100000 |         eV    # [BSS] Damping range
# | %
# | BEnSteps= 1000                   # [BSS] Energy steps
# | % BLongDir
# |  1.000000 | 0.000000 | 0.000000 |        # [BSS] [cc] Electric Field versor
# | %
# | BSEprop= " abs jdos kerr"        # [BSS] Can be any among abs/jdos/kerr/asymm/anHAll/magn/dich/photolum/esrt
# | BSEdips= "xy"                    # [BSS] Can be "trace/none" or "xy/xz/yz" to define off-diagonal rotation plane
