#                                                                     
#   __   __     _        __  __       ____      U  ___  u             
#   \ \ / / U  /"\  U u |" \/ "| u U | __") u    \/"_ \/              
#    \ V /   \/ _ \/   \| |\/| |/   \|  _ \/     | | | |              
#   U_|"|_u  / ___ \    | |  | |     | |_) | .-,_| |_| |              
#     |_|   /_/   \_\   |_|  |_|     |____/   \_)-\___/               
# .-,//|(_   \\    >>  <<,-,,-.     _|| \\_        \\                 
#  \_) (__) (__)  (__)  (./  \.)   (__) (__)      (__)                
#                                                                     
#                                                                     
# Version 5.2.0 Revision 23129 Hash (prev commit) 3a51862bc           
#            Branch is phys-levels_degeneracy                         
#                    MPI+HDF5_IO Build                                
#                http://www.yambo-code.eu                             
#
# Off-diagonal Absorption @ Q(1):   1.00000000      0.00000000      0.00000000    [q->0 direction]
# [DIP] Rotation plane                            : xy
#
# [GEN] GF Energies                               : Perdew, Burke & Ernzerhof(X)+Perdew, Burke & Ernzerhof(C)
# [GEN] Green`s Function                          : Retarded
#
# [GEN] Gauge                                     : Length
# [GEN] [r,Vnl] included                          : yes
#
# DIP band range                                  :   5  14
# DIP band range limits                           :  14   5
# DIP e/h energy range                            :  -1.00000000     -1.00000000    [eV]
# RL vectors in the sum                           :   3525
# [r,Vnl] included                                : yes
# Bands ordered                                   : yes
# Direct v evaluation                             : no
# Approach used                                   : G-space v
# Dipoles computed                                : R V P
# Wavefunctions                                   : Perdew, Burke & Ernzerhof(X)+Perdew, Burke & Ernzerhof(C)
#
# Anomalous Hall effect (B_Hall)                  
# B_Hall (IP)                                     :  0.865476206E-3 [fs]^-1
#                                                 :  0.962972164    [Ohm*cm]^-1
#                                                 :   395611.656    [e^2/hbar]
#
#    E[1] [eV]          Im(off)            Re(off)
#
        0.000000           0.000000           0.388114E-4
        0.010010           0.972055E-6        0.389036E-4
        0.020020           0.194259E-5        0.390548E-4
        0.030030           0.291531E-5        0.388919E-4
        0.040040           0.388908E-5        0.389976E-4
        0.050050           0.485999E-5        0.387472E-4
        0.060060           0.583119E-5        0.390394E-4
        0.070070           0.680335E-5        0.387548E-4
        0.080080           0.777484E-5        0.389890E-4
        0.090090           0.874737E-5        0.389600E-4
        0.100100           0.972135E-5        0.388399E-4
        0.110110           0.106926E-4        0.389008E-4
        0.120120           0.116641E-4        0.388939E-4
        0.130130           0.126363E-4        0.388912E-4
        0.140140           0.136096E-4        0.390085E-4
        0.150150           0.145815E-4        0.389690E-4
        0.160160           0.155548E-4        0.388200E-4
        0.170170           0.165262E-4        0.384332E-4
        0.180180           0.175001E-4        0.386976E-4
        0.190190           0.184722E-4        0.386181E-4
        0.200200           0.194458E-4        0.387302E-4
        0.210210           0.204184E-4        0.385222E-4
        0.220220           0.213910E-4        0.383423E-4
        0.230230           0.223640E-4        0.385244E-4
        0.240240           0.233347E-4        0.387934E-4
        0.250250           0.243130E-4        0.387256E-4
        0.260260           0.252830E-4        0.387125E-4
        0.270270           0.262572E-4        0.386461E-4
        0.280280           0.272311E-4        0.384960E-4
        0.290290           0.282030E-4        0.384476E-4
        0.300300           0.291774E-4        0.386760E-4
        0.310310           0.301484E-4        0.385258E-4
        0.320320           0.311227E-4        0.391031E-4
        0.330330           0.320982E-4        0.389273E-4
        0.340340           0.330711E-4        0.383201E-4
        0.350350           0.340457E-4        0.387263E-4
        0.360360           0.350209E-4        0.384711E-4
        0.370370           0.359941E-4        0.386255E-4
        0.380380           0.369661E-4        0.383902E-4
        0.390390           0.379454E-4        0.384186E-4
        0.400400           0.389169E-4        0.386027E-4
        0.410410           0.398914E-4        0.386543E-4
        0.420420           0.408651E-4        0.383320E-4
        0.430430           0.418404E-4        0.386017E-4
        0.440440           0.428162E-4        0.385208E-4
        0.450450           0.437891E-4        0.383789E-4
        0.460460           0.447642E-4        0.384871E-4
        0.470470           0.457384E-4        0.386219E-4
        0.480480           0.467153E-4        0.384204E-4
        0.490490           0.476898E-4        0.383019E-4
        0.500500           0.486633E-4        0.383157E-4
        0.510511           0.496432E-4        0.382237E-4
        0.520521           0.506157E-4        0.383197E-4
        0.530531           0.515901E-4        0.380914E-4
        0.540541           0.525704E-4        0.381254E-4
        0.550551           0.535385E-4        0.383228E-4
        0.560561           0.545245E-4        0.381945E-4
        0.570571           0.554925E-4        0.379703E-4
        0.580581           0.564721E-4        0.381528E-4
        0.590591           0.574518E-4        0.381521E-4
        0.600601           0.584225E-4        0.381419E-4
        0.610611           0.593974E-4        0.378752E-4
        0.620621           0.603774E-4        0.381258E-4
        0.630631           0.613569E-4        0.380784E-4
        0.640641           0.623258E-4        0.380254E-4
        0.650651           0.632972E-4        0.380653E-4
        0.660661           0.642823E-4        0.382749E-4
        0.670671           0.652586E-4        0.380394E-4
        0.680681           0.662420E-4        0.378797E-4
        0.690691           0.672120E-4        0.378727E-4
        0.700701           0.681853E-4        0.375548E-4
        0.710711           0.691577E-4        0.379164E-4
        0.720721           0.701402E-4        0.376718E-4
        0.730731           0.711178E-4        0.376913E-4
        0.740741           0.720970E-4        0.375607E-4
        0.750751           0.730685E-4        0.377471E-4
        0.760761           0.740430E-4        0.375535E-4
        0.770771           0.750144E-4        0.376708E-4
        0.780781           0.759927E-4        0.377266E-4
        0.790791           0.769748E-4        0.375827E-4
        0.800801           0.779405E-4        0.375970E-4
        0.810811           0.789178E-4        0.372594E-4
        0.820821           0.798981E-4        0.373924E-4
        0.830831           0.808687E-4        0.371060E-4
        0.840841           0.818350E-4        0.370649E-4
        0.850851           0.828141E-4        0.370304E-4
        0.860861           0.837895E-4        0.371886E-4
        0.870871           0.847621E-4        0.371171E-4
        0.880881           0.857324E-4        0.366833E-4
        0.890891           0.867052E-4        0.366121E-4
        0.900901           0.876709E-4        0.363096E-4
        0.910911           0.886452E-4        0.363267E-4
        0.920921           0.896142E-4        0.363801E-4
        0.930931           0.905899E-4        0.365365E-4
        0.940941           0.915545E-4        0.363598E-4
        0.950951           0.925164E-4        0.362397E-4
        0.960961           0.934769E-4        0.362613E-4
        0.970971           0.944692E-4        0.363267E-4
        0.980981           0.954204E-4        0.358413E-4
        0.990991           0.963821E-4        0.356987E-4
        1.001001           0.973532E-4        0.357704E-4
        1.011011           0.983136E-4        0.355589E-4
        1.021021           0.992507E-4        0.352814E-4
        1.031031           0.100208E-3        0.349832E-4
        1.041041           0.101185E-3        0.352515E-4
        1.051051           0.102140E-3        0.348377E-4
        1.061061           0.103101E-3        0.344653E-4
        1.071071           0.104055E-3        0.346906E-4
        1.081081           0.105011E-3        0.345058E-4
        1.091091           0.105955E-3        0.343251E-4
        1.101101           0.106911E-3        0.338961E-4
        1.111111           0.107847E-3        0.339803E-4
        1.121121           0.108814E-3        0.334238E-4
        1.131131           0.109756E-3        0.332831E-4
        1.141141           0.110684E-3        0.331668E-4
        1.151151           0.111604E-3        0.332381E-4
        1.161161           0.112552E-3        0.332116E-4
        1.171171           0.113471E-3        0.325933E-4
        1.181181           0.114418E-3        0.326241E-4
        1.191191           0.115325E-3        0.322338E-4
        1.201201           0.116250E-3        0.318716E-4
        1.211211           0.117159E-3        0.315499E-4
        1.221221           0.118077E-3        0.314318E-4
        1.231231           0.118978E-3        0.312665E-4
        1.241241           0.119887E-3        0.307269E-4
        1.251251           0.120797E-3        0.300129E-4
        1.261261           0.121672E-3        0.301494E-4
        1.271271           0.122551E-3        0.298773E-4
        1.281281           0.123422E-3        0.293963E-4
        1.291291           0.124316E-3        0.291058E-4
        1.301301           0.125169E-3        0.286216E-4
        1.311311           0.126041E-3        0.283786E-4
        1.321321           0.126882E-3        0.279839E-4
        1.331331           0.127725E-3        0.271331E-4
        1.341341           0.128540E-3        0.268507E-4
        1.351351           0.129380E-3        0.266298E-4
        1.361361           0.130182E-3        0.261416E-4
        1.371371           0.130958E-3        0.256610E-4
        1.381381           0.131772E-3        0.250059E-4
        1.391391           0.132532E-3        0.242255E-4
        1.401401           0.133290E-3        0.232534E-4
        1.411411           0.134034E-3        0.231806E-4
        1.421421           0.134735E-3        0.225885E-4
        1.431431           0.135465E-3        0.220515E-4
        1.441441           0.136143E-3        0.209672E-4
        1.451451           0.136814E-3        0.202332E-4
        1.461461           0.137472E-3        0.196107E-4
        1.471471           0.138108E-3        0.191307E-4
        1.481481           0.138673E-3        0.179061E-4
        1.491491           0.139236E-3        0.170292E-4
        1.501501           0.139746E-3        0.161912E-4
        1.511511           0.140205E-3        0.151606E-4
        1.521521           0.140639E-3        0.141703E-4
        1.531531           0.140993E-3        0.133524E-4
        1.541541           0.141291E-3        0.119817E-4
        1.551551           0.141472E-3        0.105929E-4
        1.561561           0.141573E-3        0.971215E-5
        1.571571           0.141551E-3        0.808797E-5
        1.581581           0.141432E-3        0.701263E-5
        1.591591           0.141157E-3        0.584229E-5
        1.601601           0.140724E-3        0.455085E-5
        1.611611           0.140108E-3        0.244284E-5
        1.621622           0.139399E-3        0.638417E-6
        1.631632           0.138471E-3       -0.428226E-6
        1.641642           0.137319E-3       -0.176239E-5
        1.651652           0.136075E-3       -0.291751E-5
        1.661662           0.134507E-3       -0.349804E-5
        1.671672           0.132835E-3       -0.494234E-5
        1.681682           0.131059E-3       -0.514495E-5
        1.691692           0.129078E-3       -0.559525E-5
        1.701702           0.127167E-3       -0.604702E-5
        1.711712           0.125338E-3       -0.535439E-5
        1.721722           0.123735E-3       -0.498238E-5
        1.731732           0.122447E-3       -0.408128E-5
        1.741742           0.121494E-3       -0.277503E-5
        1.751752           0.120967E-3       -0.232547E-5
        1.761762           0.120706E-3       -0.154198E-5
        1.771772           0.120695E-3       -0.172449E-5
        1.781782           0.120732E-3       -0.156278E-5
        1.791792           0.120728E-3       -0.185420E-5
        1.801802           0.120628E-3       -0.299658E-5
        1.811812           0.120153E-3       -0.352811E-5
        1.821822           0.119374E-3       -0.536954E-5
        1.831832           0.118414E-3       -0.568013E-5
        1.841842           0.117262E-3       -0.657503E-5
        1.851852           0.115998E-3       -0.749343E-5
        1.861862           0.114715E-3       -0.850138E-5
        1.871872           0.113583E-3       -0.878078E-5
        1.881882           0.112736E-3       -0.911642E-5
        1.891892           0.112249E-3       -0.962081E-5
        1.901902           0.111961E-3       -0.103081E-4
        1.911912           0.111770E-3       -0.118314E-4
        1.921922           0.111728E-3       -0.134460E-4
        1.931932           0.111481E-3       -0.163504E-4
        1.941942           0.110979E-3       -0.200447E-4
        1.951952           0.110150E-3       -0.242344E-4
        1.961962           0.108761E-3       -0.280255E-4
        1.971972           0.106689E-3       -0.344985E-4
        1.981982           0.104091E-3       -0.401494E-4
        1.991992           0.100589E-3       -0.461959E-4
        2.002002           0.962540E-4       -0.527727E-4
        2.012012           0.912517E-4       -0.595022E-4
        2.022022           0.850292E-4       -0.670709E-4
        2.032032           0.778827E-4       -0.761533E-4
        2.042042           0.695559E-4       -0.838705E-4
        2.052052           0.599252E-4       -0.925179E-4
        2.062062           0.489767E-4       -0.101495E-3
        2.072072           0.361710E-4       -0.110846E-3
        2.082082           0.215084E-4       -0.120971E-3
        2.092092           0.488723E-5       -0.131776E-3
        2.102102          -0.139087E-4       -0.142027E-3
        2.112112          -0.354707E-4       -0.152159E-3
        2.122122          -0.603802E-4       -0.163389E-3
        2.132132          -0.885981E-4       -0.174555E-3
        2.142142          -0.120266E-3       -0.184856E-3
        2.152152          -0.157598E-3       -0.193852E-3
        2.162162          -0.199612E-3       -0.200723E-3
        2.172172          -0.248216E-3       -0.205233E-3
        2.182182          -0.302556E-3       -0.208247E-3
        2.192192          -0.365343E-3       -0.207155E-3
        2.202202          -0.435827E-3       -0.197897E-3
        2.212212          -0.515562E-3       -0.179860E-3
        2.222222          -0.604369E-3       -0.151791E-3
        2.232232          -0.703651E-3       -0.109810E-3
        2.242242          -0.811535E-3       -0.457043E-4
        2.252252          -0.926031E-3        0.409352E-4
        2.262262          -0.001043           0.163412E-3
        2.272272          -0.001154           0.321479E-3
        2.282282          -0.001250           0.526708E-3
        2.292292          -0.001313           0.776921E-3
        2.302302          -0.001320           0.001072
        2.312312          -0.001255           0.001398
        2.322322          -0.001094           0.001731
        2.332332          -0.828029E-3        0.002034
        2.342342          -0.468323E-3        0.002265
        2.352352          -0.439285E-4        0.002387
        2.362362           0.398637E-3        0.002379
        2.372372           0.811273E-3        0.002246
        2.382382           0.001150           0.002014
        2.392392           0.001389           0.001723
        2.402402           0.001531           0.001414
        2.412412           0.001587           0.001118
        2.422422           0.001576           0.856204E-3
        2.432432           0.001521           0.636028E-3
        2.442442           0.001439           0.460658E-3
        2.452452           0.001345           0.324223E-3
        2.462462           0.001248           0.221651E-3
        2.472472           0.001153           0.147422E-3
        2.482482           0.001064           0.945408E-4
        2.492492           0.983890E-3        0.591066E-4
        2.502502           0.912886E-3        0.370271E-4
        2.512512           0.850051E-3        0.232931E-4
        2.522522           0.795705E-3        0.175102E-4
        2.532532           0.748261E-3        0.168154E-4
        2.542542           0.707860E-3        0.192946E-4
        2.552552           0.672957E-3        0.261471E-4
        2.562562           0.643451E-3        0.335159E-4
        2.572572           0.619998E-3        0.428739E-4
        2.582582           0.599978E-3        0.515540E-4
        2.592592           0.584599E-3        0.614850E-4
        2.602602           0.572960E-3        0.703581E-4
        2.612612           0.564971E-3        0.797386E-4
        2.622622           0.560073E-3        0.876176E-4
        2.632632           0.558411E-3        0.951303E-4
        2.642642           0.559507E-3        0.100255E-3
        2.652653           0.563515E-3        0.104521E-3
        2.662663           0.569862E-3        0.104275E-3
        2.672673           0.578637E-3        0.102013E-3
        2.682683           0.589364E-3        0.954124E-4
        2.692693           0.601198E-3        0.839638E-4
        2.702703           0.613603E-3        0.668066E-4
        2.712713           0.624605E-3        0.424200E-4
        2.722723           0.632371E-3        0.104828E-4
        2.732733           0.633538E-3       -0.297518E-4
        2.742743           0.624441E-3       -0.773859E-4
        2.752753           0.601051E-3       -0.128863E-3
        2.762763           0.560110E-3       -0.179718E-3
        2.772773           0.500951E-3       -0.223282E-3
        2.782783           0.426295E-3       -0.251493E-3
        2.792793           0.342302E-3       -0.258238E-3
        2.802803           0.257338E-3       -0.241347E-3
        2.812813           0.180256E-3       -0.202865E-3
        2.822823           0.117318E-3       -0.148406E-3
        2.832833           0.716464E-4       -0.854132E-4
        2.842843           0.417634E-4       -0.188163E-4
        2.852853           0.256474E-4        0.446964E-4
        2.862863           0.189315E-4        0.104332E-3
        2.872873           0.182772E-4        0.158306E-3
        2.882883           0.211698E-4        0.208286E-3
        2.892893           0.253945E-4        0.255703E-3
        2.902903           0.306142E-4        0.302516E-3
        2.912913           0.363392E-4        0.349277E-3
        2.922923           0.435446E-4        0.400201E-3
        2.932933           0.538939E-4        0.455538E-3
        2.942943           0.710207E-4        0.516937E-3
        2.952953           0.981544E-4        0.584316E-3
        2.962963           0.140109E-3        0.654287E-3
        2.972973           0.201184E-3        0.724570E-3
        2.982983           0.282587E-3        0.785759E-3
        2.992993           0.384132E-3        0.829651E-3
        3.003003           0.498962E-3        0.848672E-3
        3.013013           0.617717E-3        0.836820E-3
        3.023023           0.729366E-3        0.795616E-3
        3.033033           0.824502E-3        0.729961E-3
        3.043043           0.897104E-3        0.646920E-3
        3.053053           0.946083E-3        0.552696E-3
        3.063063           0.971573E-3        0.455348E-3
        3.073073           0.976269E-3        0.361539E-3
        3.083083           0.961777E-3        0.270952E-3
        3.093093           0.930192E-3        0.187222E-3
        3.103103           0.879903E-3        0.111999E-3
        3.113113           0.811145E-3        0.481185E-4
        3.123123           0.726217E-3        0.317886E-5
        3.133133           0.629171E-3       -0.178161E-4
        3.143143           0.524215E-3       -0.109460E-4
        3.153153           0.421650E-3        0.251419E-4
        3.163163           0.328479E-3        0.943614E-4
        3.173173           0.253635E-3        0.188385E-3
        3.183183           0.204914E-3        0.305579E-3
        3.193193           0.185021E-3        0.438159E-3
        3.203203           0.200827E-3        0.578066E-3
        3.213213           0.253138E-3        0.718674E-3
        3.223223           0.344881E-3        0.846130E-3
        3.233233           0.470169E-3        0.951172E-3
        3.243243           0.622132E-3        0.001019
        3.253253           0.784304E-3        0.001046
        3.263263           0.941944E-3        0.001031
        3.273273           0.001083           0.982621E-3
        3.283283           0.001199           0.909917E-3
        3.293293           0.001288           0.828455E-3
        3.303303           0.001352           0.747748E-3
        3.313313           0.001399           0.672113E-3
        3.323323           0.001439           0.607640E-3
        3.333333           0.001477           0.548976E-3
        3.343343           0.001514           0.498855E-3
        3.353353           0.001559           0.450978E-3
        3.363363           0.001611           0.401279E-3
        3.373373           0.001671           0.343463E-3
        3.383383           0.001741           0.274117E-3
        3.393393           0.001817           0.186265E-3
        3.403403           0.001892           0.742412E-4
        3.413413           0.001962          -0.694664E-4
        3.423423           0.002012          -0.247239E-3
        3.433433           0.002032          -0.459202E-3
        3.443443           0.001999          -0.697817E-3
        3.453453           0.001903          -0.946807E-3
        3.463463           0.001729          -0.001182
        3.473473           0.001477          -0.001371
        3.483483           0.001174          -0.001485
        3.493493           0.847506E-3       -0.001503
        3.503503           0.536705E-3       -0.001423
        3.513513           0.273392E-3       -0.001264
        3.523524           0.819577E-4       -0.001049
        3.533533          -0.325954E-4       -0.815774E-3
        3.543543          -0.766041E-4       -0.585347E-3
        3.553553          -0.649340E-4       -0.377126E-3
        3.563564          -0.161667E-4       -0.201346E-3
        3.573573           0.595743E-4       -0.602724E-4
        3.583583           0.150044E-3        0.519605E-4
        3.593593           0.246599E-3        0.134317E-3
        3.603603           0.343843E-3        0.193350E-3
        3.613613           0.440086E-3        0.231995E-3
        3.623623           0.532623E-3        0.254734E-3
        3.633634           0.621475E-3        0.262015E-3
        3.643643           0.705048E-3        0.257691E-3
        3.653653           0.783228E-3        0.241118E-3
        3.663663           0.854947E-3        0.212706E-3
        3.673674           0.919709E-3        0.173993E-3
        3.683683           0.974641E-3        0.129146E-3
        3.693693           0.001020           0.785681E-4
        3.703704           0.001057           0.211304E-4
        3.713714           0.001086          -0.357368E-4
        3.723723           0.001109          -0.968577E-4
        3.733733           0.001126          -0.159812E-3
        3.743744           0.001136          -0.230154E-3
        3.753754           0.001136          -0.306109E-3
        3.763763           0.001122          -0.389286E-3
        3.773773           0.001088          -0.475373E-3
        3.783784           0.001030          -0.558410E-3
        3.793794           0.947097E-3       -0.625945E-3
        3.803803           0.845811E-3       -0.669644E-3
        3.813814           0.736254E-3       -0.681334E-3
        3.823824           0.632596E-3       -0.658722E-3
        3.833834           0.546749E-3       -0.612257E-3
        3.843843           0.485283E-3       -0.549896E-3
        3.853854           0.448756E-3       -0.482690E-3
        3.863864           0.433556E-3       -0.422632E-3
        3.873873           0.432409E-3       -0.373787E-3
        3.883883           0.437302E-3       -0.337206E-3
        3.893894           0.442395E-3       -0.311075E-3
        3.903904           0.442754E-3       -0.292105E-3
        3.913913           0.438611E-3       -0.275440E-3
        3.923924           0.431094E-3       -0.253911E-3
        3.933934           0.423082E-3       -0.229553E-3
        3.943944           0.418667E-3       -0.200545E-3
        3.953954           0.419719E-3       -0.170705E-3
        3.963964           0.426352E-3       -0.140220E-3
        3.973974           0.439166E-3       -0.111984E-3
        3.983984           0.456199E-3       -0.883765E-4
        3.993994           0.476515E-3       -0.688174E-4
        4.004004           0.498757E-3       -0.561596E-4
        4.014014           0.518362E-3       -0.474000E-4
        4.024024           0.537851E-3       -0.421605E-4
        4.034034           0.554993E-3       -0.374288E-4
        4.044044           0.573562E-3       -0.336178E-4
        4.054054           0.596736E-3       -0.324562E-4
        4.064064           0.623362E-3       -0.377854E-4
        4.074074           0.652439E-3       -0.548969E-4
        4.084084           0.676790E-3       -0.874240E-4
        4.094094           0.687919E-3       -0.135031E-3
        4.104104           0.676761E-3       -0.192111E-3
        4.114114           0.637041E-3       -0.248994E-3
        4.124124           0.568652E-3       -0.290875E-3
        4.134134           0.478992E-3       -0.304863E-3
        4.144144           0.381858E-3       -0.282896E-3
        4.154154           0.292238E-3       -0.224183E-3
        4.164164           0.224390E-3       -0.136639E-3
        4.174174           0.186302E-3       -0.303348E-4
        4.184184           0.179918E-3        0.813250E-4
        4.194194           0.201058E-3        0.188116E-3
        4.204204           0.244806E-3        0.283897E-3
        4.214214           0.304496E-3        0.365292E-3
        4.224224           0.374944E-3        0.431080E-3
        4.234234           0.451694E-3        0.482302E-3
        4.244244           0.532123E-3        0.520526E-3
        4.254254           0.614620E-3        0.546586E-3
        4.264264           0.697608E-3        0.561293E-3
        4.274274           0.780181E-3        0.565808E-3
        4.284284           0.861559E-3        0.559530E-3
        4.294294           0.940816E-3        0.544215E-3
        4.304304           0.001017           0.519320E-3
        4.314314           0.001089           0.486237E-3
        4.324324           0.001157           0.444337E-3
        4.334334           0.001220           0.395259E-3
        4.344344           0.001277           0.337049E-3
        4.354354           0.001327           0.270809E-3
        4.364364           0.001367           0.195082E-3
        4.374374           0.001395           0.110908E-3
        4.384384           0.001406           0.205734E-4
        4.394394           0.001397          -0.712299E-4
        4.404404           0.001366          -0.158184E-3
        4.414414           0.001314          -0.232842E-3
        4.424424           0.001246          -0.287396E-3
        4.434434           0.001169          -0.317002E-3
        4.444444           0.001093          -0.319647E-3
        4.454454           0.001027          -0.298453E-3
        4.464464           0.979032E-3       -0.258077E-3
        4.474474           0.953924E-3       -0.208117E-3
        4.484484           0.951820E-3       -0.156965E-3
        4.494494           0.970899E-3       -0.114041E-3
        4.504504           0.001004          -0.852865E-4
        4.514514           0.001045          -0.737949E-4
        4.524524           0.001086          -0.796625E-4
        4.534534           0.001120          -0.996160E-4
        4.544544           0.001141          -0.128800E-3
        4.554554           0.001150          -0.159708E-3
        4.564565           0.001147          -0.184000E-3
        4.574574           0.001138          -0.198791E-3
        4.584584           0.001131          -0.202356E-3
        4.594594           0.001132          -0.197900E-3
        4.604605           0.001145          -0.192788E-3
        4.614614           0.001168          -0.192099E-3
        4.624624           0.001198          -0.202436E-3
        4.634634           0.001228          -0.224393E-3
        4.644644           0.001255          -0.258080E-3
        4.654655           0.001272          -0.300656E-3
        4.664664           0.001278          -0.346897E-3
        4.674675           0.001273          -0.391989E-3
        4.684684           0.001259          -0.431353E-3
        4.694695           0.001242          -0.464914E-3
        4.704704           0.001224          -0.492366E-3
        4.714715           0.001207          -0.517909E-3
        4.724724           0.001190          -0.543075E-3
        4.734735           0.001172          -0.569280E-3
        4.744744           0.001149          -0.596630E-3
        4.754755           0.001119          -0.620871E-3
        4.764764           0.001083          -0.639996E-3
        4.774775           0.001045          -0.647004E-3
        4.784785           0.001010          -0.642624E-3
        4.794795           0.985207E-3       -0.627484E-3
        4.804804           0.976316E-3       -0.610272E-3
        4.814815           0.983839E-3       -0.600346E-3
        4.824825           0.001003          -0.607299E-3
        4.834835           0.001025          -0.637192E-3
        4.844844           0.001035          -0.691495E-3
        4.854855           0.001021          -0.766282E-3
        4.864865           0.972624E-3       -0.849529E-3
        4.874875           0.883700E-3       -0.922884E-3
        4.884884           0.760058E-3       -0.968829E-3
        4.894895           0.614353E-3       -0.972716E-3
        4.904905           0.466839E-3       -0.925996E-3
        4.914915           0.337555E-3       -0.833750E-3
        4.924924           0.241826E-3       -0.707715E-3
        4.934935           0.186377E-3       -0.563646E-3
        4.944945           0.170285E-3       -0.417100E-3
        4.954955           0.187500E-3       -0.278822E-3
        4.964964           0.230943E-3       -0.155138E-3
        4.974975           0.292905E-3       -0.482636E-4
        4.984985           0.367193E-3        0.411967E-4
        4.994995           0.449995E-3        0.114947E-3
        5.005005           0.538407E-3        0.175441E-3
        5.015015           0.632276E-3        0.223293E-3
        5.025025           0.731093E-3        0.259741E-3
        5.035035           0.834913E-3        0.284662E-3
        5.045045           0.944115E-3        0.296207E-3
        5.055055           0.001058           0.293803E-3
        5.065065           0.001176           0.274607E-3
        5.075075           0.001296           0.237076E-3
        5.085085           0.001414           0.179232E-3
        5.095095           0.001528           0.100193E-3
        5.105105           0.001635          -0.175058E-5
        5.115115           0.001730          -0.126256E-3
        5.125125           0.001809          -0.274205E-3
        5.135135           0.001866          -0.447174E-3
        5.145144           0.001893          -0.643759E-3
        5.155155           0.001878          -0.861237E-3
        5.165165           0.001809          -0.001090
        5.175175           0.001677          -0.001313
        5.185184           0.001476          -0.001506
        5.195195           0.001217          -0.001641
        5.205205           0.923405E-3       -0.001697
        5.215215           0.626607E-3       -0.001664
        5.225225           0.360612E-3       -0.001547
        5.235235           0.151364E-3       -0.001369
        5.245245           0.116717E-4       -0.001156
        5.255255          -0.590834E-4       -0.936121E-3
        5.265265          -0.712090E-4       -0.730870E-3
        5.275275          -0.400615E-4       -0.553591E-3
        5.285285           0.186001E-4       -0.408443E-3
        5.295295           0.920970E-4       -0.294869E-3
        5.305305           0.170342E-3       -0.209041E-3
        5.315315           0.247830E-3       -0.145907E-3
        5.325325           0.321233E-3       -0.999609E-4
        5.335335           0.388760E-3       -0.667963E-4
        5.345345           0.450728E-3       -0.433332E-4
        5.355355           0.506954E-3       -0.265289E-4
        5.365365           0.558355E-3       -0.152840E-4
        5.375375           0.605702E-3       -0.751806E-5
        5.385385           0.649731E-3       -0.243821E-5
        5.395395           0.691012E-3        0.103009E-6
        5.405405           0.729837E-3        0.352258E-6
        5.415415           0.766907E-3       -0.131583E-5
        5.425425           0.801748E-3       -0.484002E-5
        5.435435           0.835379E-3       -0.102183E-4
        5.445445           0.866668E-3       -0.172499E-4
        5.455455           0.896048E-3       -0.257281E-4
        5.465465           0.923621E-3       -0.351593E-4
        5.475475           0.949445E-3       -0.450978E-4
        5.485485           0.973873E-3       -0.552816E-4
        5.495495           0.997675E-3       -0.660269E-4
        5.505505           0.001020          -0.772228E-4
        5.515515           0.001043          -0.888561E-4
        5.525526           0.001064          -0.101275E-3
        5.535535           0.001085          -0.114632E-3
        5.545545           0.001105          -0.128224E-3
        5.555555           0.001124          -0.142429E-3
        5.565566           0.001143          -0.156460E-3
        5.575575           0.001161          -0.170582E-3
        5.585585           0.001180          -0.185016E-3
        5.595595           0.001201          -0.200076E-3
        5.605606           0.001222          -0.216468E-3
        5.615615           0.001243          -0.234957E-3
        5.625625           0.001266          -0.256233E-3
        5.635635           0.001288          -0.280212E-3
        5.645645           0.001310          -0.307492E-3
        5.655655           0.001331          -0.337856E-3
        5.665665           0.001350          -0.371661E-3
        5.675675           0.001368          -0.408814E-3
        5.685685           0.001385          -0.450308E-3
        5.695695           0.001399          -0.496966E-3
        5.705705           0.001408          -0.549256E-3
        5.715715           0.001411          -0.607580E-3
        5.725725           0.001404          -0.670920E-3
        5.735735           0.001386          -0.737191E-3
        5.745746           0.001352          -0.802572E-3
        5.755755           0.001304          -0.862179E-3
        5.765765           0.001243          -0.910447E-3
        5.775775           0.001173          -0.943002E-3
        5.785786           0.001101          -0.958841E-3
        5.795795           0.001032          -0.958251E-3
        5.805805           0.969713E-3       -0.944932E-3
        5.815815           0.916974E-3       -0.922367E-3
        5.825826           0.874363E-3       -0.894658E-3
        5.835835           0.840435E-3       -0.864199E-3
        5.845845           0.814884E-3       -0.832923E-3
        5.855855           0.796479E-3       -0.802088E-3
        5.865866           0.784368E-3       -0.772048E-3
        5.875876           0.779151E-3       -0.744328E-3
        5.885885           0.779470E-3       -0.719813E-3
        5.895895           0.784764E-3       -0.700025E-3
        5.905906           0.793605E-3       -0.686606E-3
        5.915915           0.803329E-3       -0.680221E-3
        5.925925           0.810916E-3       -0.680536E-3
        5.935935           0.814260E-3       -0.685638E-3
        5.945946           0.811901E-3       -0.692891E-3
        5.955956           0.804434E-3       -0.699284E-3
        5.965966           0.793964E-3       -0.702811E-3
        5.975976           0.782495E-3       -0.702451E-3
        5.985986           0.773069E-3       -0.699897E-3
        5.995996           0.765768E-3       -0.695730E-3
        6.006006           0.761578E-3       -0.693367E-3
        6.016016           0.760073E-3       -0.693633E-3
        6.026026           0.758479E-3       -0.698169E-3
        6.036036           0.755248E-3       -0.707917E-3
        6.046046           0.747368E-3       -0.723499E-3
        6.056056           0.731263E-3       -0.741810E-3
        6.066066           0.705151E-3       -0.760036E-3
        6.076076           0.668534E-3       -0.773405E-3
        6.086086           0.623857E-3       -0.776220E-3
        6.096096           0.575359E-3       -0.765411E-3
        6.106106           0.529535E-3       -0.740783E-3
        6.116116           0.491516E-3       -0.704442E-3
        6.126126           0.464872E-3       -0.660829E-3
        6.136136           0.450405E-3       -0.614463E-3
        6.146146           0.446901E-3       -0.569421E-3
        6.156156           0.453058E-3       -0.529478E-3
        6.166166           0.465079E-3       -0.495839E-3
        6.176176           0.481286E-3       -0.468962E-3
        6.186186           0.499130E-3       -0.449390E-3
        6.196196           0.516358E-3       -0.435993E-3
        6.206206           0.531819E-3       -0.427475E-3
        6.216216           0.544798E-3       -0.423076E-3
        6.226226           0.554779E-3       -0.422201E-3
        6.236236           0.561405E-3       -0.422494E-3
        6.246246           0.564843E-3       -0.424104E-3
        6.256256           0.565427E-3       -0.425551E-3
        6.266266           0.563431E-3       -0.426609E-3
        6.276276           0.559355E-3       -0.426729E-3
        6.286286           0.553528E-3       -0.425222E-3
        6.296296           0.546725E-3       -0.422467E-3
        6.306306           0.539401E-3       -0.418117E-3
        6.316316           0.532157E-3       -0.412124E-3
        6.326326           0.525502E-3       -0.404777E-3
        6.336336           0.519793E-3       -0.396813E-3
        6.346346           0.515331E-3       -0.388371E-3
        6.356356           0.512063E-3       -0.380310E-3
        6.366366           0.509716E-3       -0.373088E-3
        6.376376           0.508111E-3       -0.366984E-3
        6.386386           0.506728E-3       -0.362447E-3
        6.396396           0.505055E-3       -0.359542E-3
        6.406406           0.502792E-3       -0.358143E-3
        6.416416           0.499464E-3       -0.358247E-3
        6.426426           0.494730E-3       -0.359614E-3
        6.436436           0.488317E-3       -0.361945E-3
        6.446446           0.480238E-3       -0.364668E-3
        6.456456           0.470491E-3       -0.367771E-3
        6.466466           0.459373E-3       -0.371002E-3
        6.476476           0.447260E-3       -0.374532E-3
        6.486486           0.434375E-3       -0.378210E-3
        6.496496           0.420895E-3       -0.383079E-3
        6.506506           0.406599E-3       -0.389349E-3
        6.516516           0.391083E-3       -0.398195E-3
        6.526526           0.373563E-3       -0.410353E-3
        6.536536           0.352667E-3       -0.426009E-3
        6.546546           0.326682E-3       -0.445565E-3
        6.556556           0.293609E-3       -0.468416E-3
        6.566566           0.251915E-3       -0.492929E-3
        6.576576           0.199735E-3       -0.516953E-3
        6.586586           0.137091E-3       -0.537769E-3
        6.596596           0.651165E-4       -0.552508E-3
        6.606606          -0.139731E-4       -0.559585E-3
        6.616616          -0.976171E-4       -0.558290E-3
        6.626626          -0.183237E-3       -0.550377E-3
        6.636636          -0.270319E-3       -0.537892E-3
        6.646646          -0.358914E-3       -0.523257E-3
        6.656656          -0.451537E-3       -0.509173E-3
        6.666666          -0.551407E-3       -0.496959E-3
        6.676676          -0.662996E-3       -0.486166E-3
        6.686686          -0.791250E-3       -0.475977E-3
        6.696696          -0.941928E-3       -0.461668E-3
        6.706707          -0.001120          -0.436634E-3
        6.716716          -0.001328          -0.391214E-3
        6.726726          -0.001564          -0.314009E-3
        6.736736          -0.001822          -0.193837E-3
        6.746747          -0.002094          -0.222472E-4
        6.756756          -0.002367           0.205266E-3
        6.766766          -0.002629           0.488891E-3
        6.776776          -0.002872           0.826876E-3
        6.786787          -0.003089           0.001217
        6.796796          -0.003275           0.001660
        6.806807          -0.003421           0.002156
        6.816816          -0.003516           0.002708
        6.826826          -0.003545           0.003315
        6.836837          -0.003490           0.003973
        6.846846          -0.003326           0.004667
        6.856857          -0.003035           0.005375
        6.866867          -0.002603           0.006064
        6.876876          -0.002027           0.006691
        6.886887          -0.001325           0.007214
        6.896896          -0.528389E-3        0.007597
        6.906906           0.317969E-3        0.007818
        6.916917           0.001165           0.007875
        6.926927           0.001970           0.007783
        6.936936           0.002699           0.007570
        6.946947           0.003335           0.007268
        6.956956           0.003872           0.006910
        6.966967           0.004313           0.006523
        6.976976           0.004669           0.006129
        6.986986           0.004951           0.005743
        6.996997           0.005172           0.005374
        7.007007           0.005344           0.005028
        7.017016           0.005479           0.004706
        7.027027           0.005584           0.004409
        7.037036           0.005666           0.004135
        7.047047           0.005731           0.003884
        7.057057           0.005783           0.003652
        7.067066           0.005825           0.003438
        7.077077           0.005859           0.003239
        7.087087           0.005887           0.003055
        7.097096           0.005911           0.002883
        7.107107           0.005930           0.002723
        7.117116           0.005946           0.002574
        7.127127           0.005960           0.002434
        7.137137           0.005973           0.002304
        7.147147           0.005985           0.002181
        7.157157           0.005997           0.002066
        7.167167           0.006009           0.001957
        7.177176           0.006022           0.001853
        7.187187           0.006036           0.001754
        7.197196           0.006049           0.001658
        7.207206           0.006062           0.001566
        7.217217           0.006074           0.001476
        7.227227           0.006084           0.001390
        7.237237           0.006093           0.001309
        7.247247           0.006101           0.001232
        7.257257           0.006107           0.001161
        7.267267           0.006115           0.001096
        7.277277           0.006124           0.001037
        7.287286           0.006136           0.983558E-3
        7.297297           0.006152           0.933832E-3
        7.307307           0.006172           0.887066E-3
        7.317317           0.006197           0.841584E-3
        7.327327           0.006225           0.796664E-3
        7.337337           0.006257           0.751498E-3
        7.347347           0.006290           0.705664E-3
        7.357357           0.006325           0.658825E-3
        7.367367           0.006359           0.611496E-3
        7.377377           0.006393           0.564417E-3
        7.387387           0.006425           0.518658E-3
        7.397398           0.006457           0.476117E-3
        7.407407           0.006488           0.438117E-3
        7.417417           0.006521           0.405630E-3
        7.427427           0.006557           0.378719E-3
        7.437437           0.006600           0.356287E-3
        7.447447           0.006650           0.336569E-3
        7.457457           0.006708           0.317162E-3
        7.467467           0.006773           0.296300E-3
        7.477477           0.006844           0.272588E-3
        7.487487           0.006921           0.245100E-3
        7.497497           0.007001           0.213638E-3
        7.507507           0.007085           0.178281E-3
        7.517517           0.007170           0.139192E-3
        7.527527           0.007257           0.969234E-4
        7.537537           0.007345           0.516324E-4
        7.547547           0.007435           0.394924E-5
        7.557557           0.007525          -0.462388E-4
        7.567567           0.007615          -0.982751E-4
        7.577577           0.007706          -0.151770E-3
        7.587587           0.007796          -0.205770E-3
        7.597597           0.007887          -0.259164E-3
        7.607607           0.007979          -0.310938E-3
        7.617618           0.008072          -0.360167E-3
        7.627627           0.008171          -0.406418E-3
        7.637637           0.008274          -0.450687E-3
        7.647647           0.008385          -0.493809E-3
        7.657657           0.008505          -0.537693E-3
        7.667667           0.008632          -0.583502E-3
        7.677677           0.008766          -0.632687E-3
        7.687687           0.008908          -0.685740E-3
        7.697698           0.009057          -0.742577E-3
        7.707707           0.009212          -0.803904E-3
        7.717717           0.009374          -0.869573E-3
        7.727727           0.009542          -0.939185E-3
        7.737737           0.009718          -0.001014
        7.747747           0.009902          -0.001093
        7.757757           0.010093          -0.001179
        7.767767           0.010293          -0.001270
        7.777778           0.010502          -0.001368
        7.787787           0.010721          -0.001473
        7.797797           0.010949          -0.001586
        7.807807           0.011187          -0.001708
        7.817817           0.011436          -0.001840
        7.827827           0.011696          -0.001982
        7.837838           0.011968          -0.002136
        7.847847           0.012252          -0.002303
        7.857858           0.012550          -0.002485
        7.867867           0.012860          -0.002683
        7.877877           0.013184          -0.002900
        7.887887           0.013521          -0.003136
        7.897897           0.013872          -0.003395
        7.907907           0.014236          -0.003676
        7.917918           0.014614          -0.003983
        7.927927           0.015005          -0.004315
        7.937938           0.015413          -0.004676
        7.947948           0.015840          -0.005068
        7.957957           0.016287          -0.005495
        7.967968           0.016757          -0.005964
        7.977977           0.017253          -0.006482
        7.987987           0.017773          -0.007059
        7.997998           0.018317          -0.007706
        8.008007           0.018881          -0.008433
        8.018017           0.019461          -0.009252
        8.028028           0.020050          -0.010178
        8.038037           0.020640          -0.011224
        8.048048           0.021219          -0.012407
        8.058058           0.021770          -0.013745
        8.068068           0.022272          -0.015258
        8.078078           0.022694          -0.016963
        8.088087           0.022999          -0.018879
        8.098097           0.023135          -0.021019
        8.108108           0.023039          -0.023387
        8.118117           0.022634          -0.025971
        8.128128           0.021834          -0.028738
        8.138138           0.020545          -0.031620
        8.148148           0.018682          -0.034510
        8.158158           0.016190          -0.037257
        8.168168           0.013060          -0.039673
        8.178178           0.009360          -0.041555
        8.188188           0.005238          -0.042725
        8.198197           0.913436E-3       -0.043061
        8.208207          -0.003361          -0.042539
        8.218218          -0.007343          -0.041230
        8.228228          -0.010848          -0.039284
        8.238238          -0.013769          -0.036893
        8.248248          -0.016073          -0.034248
        8.258258          -0.017791          -0.031516
        8.268268          -0.018990          -0.028823
        8.278277          -0.019754          -0.026255
        8.288287          -0.020168          -0.023863
        8.298298          -0.020309          -0.021670
        8.308308          -0.020245          -0.019684
        8.318318          -0.020030          -0.017898
        8.328328          -0.019708          -0.016299
        8.338338          -0.019311          -0.014872
        8.348348          -0.018866          -0.013600
        8.358357          -0.018391          -0.012466
        8.368367          -0.017901          -0.011454
        8.378378          -0.017407          -0.010550
        8.388388          -0.016915          -0.009742
        8.398398          -0.016431          -0.009017
        8.408408          -0.015958          -0.008365
        8.418418          -0.015500          -0.007778
        8.428429          -0.015057          -0.007248
        8.438437          -0.014631          -0.006768
        8.448447          -0.014220          -0.006332
        8.458458          -0.013827          -0.005935
        8.468468          -0.013449          -0.005573
        8.478477          -0.013088          -0.005242
        8.488488          -0.012742          -0.004939
        8.498498          -0.012410          -0.004660
        8.508509          -0.012092          -0.004403
        8.518518          -0.011788          -0.004167
        8.528527          -0.011497          -0.003948
        8.538538          -0.011218          -0.003746
        8.548548          -0.010950          -0.003558
        8.558558          -0.010694          -0.003384
        8.568568          -0.010447          -0.003222
        8.578578          -0.010211          -0.003071
        8.588589          -0.009984          -0.002931
        8.598598          -0.009766          -0.002800
        8.608608          -0.009557          -0.002677
        8.618618          -0.009355          -0.002562
        8.628628          -0.009162          -0.002454
        8.638638          -0.008975          -0.002352
        8.648648          -0.008795          -0.002257
        8.658658          -0.008622          -0.002167
        8.668669          -0.008455          -0.002083
        8.678679          -0.008293          -0.002003
        8.688688          -0.008137          -0.001928
        8.698698          -0.007986          -0.001858
        8.708708          -0.007841          -0.001792
        8.718718          -0.007701          -0.001730
        8.728728          -0.007565          -0.001671
        8.738738          -0.007435          -0.001616
        8.748748          -0.007309          -0.001563
        8.758759          -0.007188          -0.001513
        8.768768          -0.007070          -0.001466
        8.778779          -0.006957          -0.001420
        8.788788          -0.006847          -0.001377
        8.798798          -0.006741          -0.001335
        8.808808          -0.006638          -0.001295
        8.818818          -0.006538          -0.001257
        8.828828          -0.006441          -0.001220
        8.838839          -0.006347          -0.001185
        8.848848          -0.006255          -0.001151
        8.858859          -0.006166          -0.001118
        8.868869          -0.006080          -0.001087
        8.878878          -0.005996          -0.001057
        8.888888          -0.005914          -0.001028
        8.898898          -0.005835          -0.001001
        8.908908          -0.005757          -0.973697E-3
        8.918919          -0.005682          -0.947742E-3
        8.928928          -0.005608          -0.922705E-3
        8.938939          -0.005536          -0.898584E-3
        8.948949          -0.005466          -0.875261E-3
        8.958959          -0.005398          -0.852775E-3
        8.968968          -0.005331          -0.831115E-3
        8.978978          -0.005266          -0.809999E-3
        8.988988          -0.005203          -0.789579E-3
        8.998999          -0.005141          -0.769681E-3
        9.009008          -0.005080          -0.750283E-3
        9.019018          -0.005020          -0.731442E-3
        9.029029          -0.004962          -0.713282E-3
        9.039039          -0.004904          -0.695802E-3
        9.049048          -0.004848          -0.679041E-3
        9.059058          -0.004793          -0.663134E-3
        9.069068          -0.004738          -0.648007E-3
        9.079079          -0.004685          -0.633642E-3
        9.089088          -0.004634          -0.620070E-3
        9.099098          -0.004583          -0.607197E-3
        9.109109          -0.004534          -0.594915E-3
        9.119119          -0.004486          -0.583022E-3
        9.129129          -0.004440          -0.571528E-3
        9.139138          -0.004394          -0.560177E-3
        9.149148          -0.004350          -0.548916E-3
        9.159159          -0.004307          -0.537649E-3
        9.169168          -0.004265          -0.526389E-3
        9.179178          -0.004223          -0.515273E-3
        9.189189          -0.004182          -0.504278E-3
        9.199199          -0.004142          -0.493584E-3
        9.209209          -0.004102          -0.483207E-3
        9.219219          -0.004063          -0.473168E-3
        9.229228          -0.004024          -0.463442E-3
        9.239239          -0.003986          -0.454065E-3
        9.249249          -0.003949          -0.445020E-3
        9.259258          -0.003912          -0.436249E-3
        9.269269          -0.003876          -0.427701E-3
        9.279279          -0.003840          -0.419520E-3
        9.289289          -0.003805          -0.411700E-3
        9.299299          -0.003771          -0.404221E-3
        9.309309          -0.003737          -0.397191E-3
        9.319319          -0.003703          -0.390516E-3
        9.329329          -0.003671          -0.384221E-3
        9.339338          -0.003639          -0.378243E-3
        9.349349          -0.003608          -0.372507E-3
        9.359359          -0.003578          -0.366878E-3
        9.369369          -0.003548          -0.361282E-3
        9.379379          -0.003519          -0.355830E-3
        9.389389          -0.003490          -0.350417E-3
        9.399399          -0.003462          -0.345052E-3
        9.409409          -0.003435          -0.339740E-3
        9.419418          -0.003408          -0.334407E-3
        9.429429          -0.003382          -0.329239E-3
        9.439439          -0.003355          -0.324105E-3
        9.449449          -0.003330          -0.319030E-3
        9.459459          -0.003305          -0.313990E-3
        9.469469          -0.003280          -0.308978E-3
        9.479479          -0.003255          -0.303974E-3
        9.489489          -0.003231          -0.298993E-3
        9.499498          -0.003207          -0.294023E-3
        9.509509          -0.003184          -0.289094E-3
        9.519519          -0.003160          -0.284299E-3
        9.529529          -0.003137          -0.279640E-3
        9.539539          -0.003114          -0.275087E-3
        9.549549          -0.003092          -0.270675E-3
        9.559559          -0.003070          -0.266414E-3
        9.569570          -0.003048          -0.262302E-3
        9.579578          -0.003026          -0.258319E-3
        9.589589          -0.003005          -0.254429E-3
        9.599599          -0.002984          -0.250750E-3
        9.609609          -0.002963          -0.247043E-3
        9.619619          -0.002943          -0.243497E-3
        9.629629          -0.002923          -0.239977E-3
        9.639639          -0.002903          -0.236615E-3
        9.649650          -0.002883          -0.233276E-3
        9.659659          -0.002864          -0.230005E-3
        9.669669          -0.002845          -0.226783E-3
        9.679679          -0.002826          -0.223674E-3
        9.689689          -0.002808          -0.220624E-3
        9.699699          -0.002790          -0.217529E-3
        9.709709          -0.002772          -0.214581E-3
        9.719719          -0.002754          -0.211662E-3
        9.729730          -0.002736          -0.208773E-3
        9.739739          -0.002719          -0.205925E-3
        9.749749          -0.002702          -0.203164E-3
        9.759759          -0.002685          -0.200478E-3
        9.769769          -0.002668          -0.197744E-3
        9.779779          -0.002652          -0.195038E-3
        9.789789          -0.002636          -0.192496E-3
        9.799799          -0.002619          -0.189902E-3
        9.809810          -0.002603          -0.187385E-3
        9.819819          -0.002588          -0.184884E-3
        9.829829          -0.002572          -0.182431E-3
        9.839839          -0.002557          -0.180051E-3
        9.849849          -0.002541          -0.177761E-3
        9.859859          -0.002526          -0.175486E-3
        9.869869          -0.002511          -0.173289E-3
        9.879879          -0.002496          -0.171149E-3
        9.889890          -0.002481          -0.169082E-3
        9.899899          -0.002467          -0.167156E-3
        9.909909          -0.002452          -0.165387E-3
        9.919919          -0.002438          -0.163722E-3
        9.929929          -0.002423          -0.162274E-3
        9.939939          -0.002409          -0.160911E-3
        9.949949          -0.002395          -0.159769E-3
        9.959959          -0.002382          -0.158758E-3
        9.969970          -0.002368          -0.157886E-3
        9.979980          -0.002355          -0.157147E-3
        9.989989          -0.002342          -0.156421E-3
        10.00000          -0.002330          -0.155844E-3
# 
# 09/17/2024 at 13:23 yambo_rt @ baym [start]
# 09/17/2024 at 13:23                 [end]
#
# .-Input file  yambo.in
# | optics                           # [R] Linear Response optical properties
# | dipoles                          # [R] Oscillator strenghts (or dipoles)
# | bse                              # [R][BSE] Bethe Salpeter Equation.
# | BoseTemp= 0.000000         eV    # Bosonic Temperature
# | FFTGvecs=  3525            RL    # [FFT] Plane-waves
# | BS_nCPU_LinAlg_INV= 1            # [PARALLEL] CPUs for Linear Algebra (if -1 it is automatically set)
# | BS_nCPU_LinAlg_DIAGO= 1          # [PARALLEL] CPUs for Linear Algebra (if -1 it is automatically set)
# | BSKmod= "IP"                     # [BSE] IP/Hartree/HF/ALDA/SEX/BSfxc
# | BSEmod= "retarded"               # [BSE] resonant/retarded/coupling
# | % DipBands
# |   5 | 14 |                           # [DIP] Bands range for dipoles
# | %
# | DipComputed= "R V P"             # [DIP] [default R P V; extra P2 Spin Orb]
# | BSENGexx= 19641            RL    # [BSK] Exchange components
# | KfnRTdb= "f @ 20 fs < 08_rt/ndb.RT_carriers" # [EXTRT BSK BSS] Database
# | % BSEQptR
# |  1 | 1 |                             # [BSK] Transferred momenta range
# | %
# | % BSEBands
# |   5 | 14 |                           # [BSK] Bands range
# | %
# | RTOccMode= "R"                   # [RT-BSE] (K)ernel/(R)esiduals. BSE components to be corrected with the TD occupations
# | ForceEqTrans                   # [RT-BSE] Use only equilibrium transitions
# | % BEnRange
# |   0.00000 | 10.00000 |         eV    # [BSS] Energy range
# | %
# | % BDmRange
# |  0.100000 | 0.100000 |         eV    # [BSS] Damping range
# | %
# | BEnSteps= 1000                   # [BSS] Energy steps
# | % BLongDir
# |  0.100000E-4 |  0.00000    |  0.00000    # [BSS] [cc] Electric Field
# | %
# | BSEprop= "abs kerr jdos"         # [BSS] Can be any among abs/jdos/kerr/magn/dich/photolum/esrt
# | BSEdips= "xy"                    # [BSS] Can be "trace/none" or "xy/xz/yz" to define off-diagonal rotation plane
