#                                                                     
#                                                                     
# Y88b    /   e           e    e      888~~\    ,88~-_                
#  Y88b  /   d8b         d8b  d8b     888   |  d888   \               
#   Y88b/   /Y88b       d888bdY88b    888 _/  88888    |              
#    Y8Y   /  Y88b     / Y88Y Y888b   888  \  88888    |              
#     Y   /____Y88b   /   YY   Y888b  888   |  Y888   /               
#    /   /      Y88b /          Y888b 888__/    `88_-~                
#                                                                     
#                                                                     
# Version 5.2.0 Revision 23411 Hash (prev commit) d7901dc72b          
#                 Branch is yoda/develop                              
#         MPI+OpenMP+SLK+SLEPC+HDF5_MPI_IO Build                      
#                http://www.yambo-code.eu                             
#
# Off-diagonal Absorption @ Q(1):   1.00000000      0.00000000      0.00000000    [q->0 direction]
# [DIP] Rotation plane                            : xy
#
# [GEN] GF Energies                               : Perdew, Burke & Ernzerhof(X)+Perdew, Burke & Ernzerhof(C)
# [GEN] Green`s Function                          : Retarded
#
# [GEN] Gauge                                     : Length
# [GEN] [r,Vnl] included                          : yes
#
# DIP band range                                  :   6  14
# DIP band range limits                           :  14   6
# DIP e/h energy range                            :  -1.00000000     -1.00000000    [eV]
# RL vectors in the sum                           :   3525
# [r,Vnl] included                                : yes
# Bands ordered                                   : yes
# Direct v evaluation                             : no
# Approach used                                   : G-space v
# Dipoles computed                                : R V P [G-space]
# Wavefunctions                                   : Perdew, Burke & Ernzerhof(X)+Perdew, Burke & Ernzerhof(C)
#
# Anomalous Hall effect (B_Hall)                  
# B_Hall (IP)                                     : -0.141452404E-6 [fs]^-1
#                                                 : -0.157387025E-3 [Ohm*cm]^-1
#                                                 :  -64.6583023    [e^2/hbar]
#
#    E[1] [eV]          Im(off)            Re(off)
#
        0.000000           0.000000           0.118416E-3
        0.010010           0.301417E-8        0.118256E-3
        0.020020           0.669515E-8        0.118325E-3
        0.030030           0.971003E-8        0.118448E-3
        0.040040           0.152013E-7        0.118368E-3
        0.050050           0.178369E-7        0.118258E-3
        0.060060           0.214258E-7        0.118532E-3
        0.070070           0.257777E-7        0.118478E-3
        0.080080           0.274653E-7        0.118265E-3
        0.090090           0.319157E-7        0.118251E-3
        0.100100           0.347495E-7        0.118475E-3
        0.110110           0.396805E-7        0.118506E-3
        0.120120           0.424237E-7        0.118374E-3
        0.130130           0.461221E-7        0.118511E-3
        0.140140           0.506803E-7        0.118324E-3
        0.150150           0.528610E-7        0.118455E-3
        0.160160           0.570449E-7        0.118190E-3
        0.170170           0.593280E-7        0.117968E-3
        0.180180           0.636146E-7        0.118211E-3
        0.190190           0.661911E-7        0.118205E-3
        0.200200           0.695340E-7        0.118332E-3
        0.210210           0.732622E-7        0.117993E-3
        0.220220           0.779474E-7        0.118109E-3
        0.230230           0.782578E-7        0.118090E-3
        0.240240           0.806681E-7        0.118374E-3
        0.250250           0.858454E-7        0.118486E-3
        0.260260           0.891240E-7        0.118339E-3
        0.270270           0.886000E-7        0.118294E-3
        0.280280           0.936051E-7        0.118232E-3
        0.290290           0.920464E-7        0.118229E-3
        0.300300           0.947795E-7        0.118189E-3
        0.310310           0.974245E-7        0.118216E-3
        0.320320           0.981724E-7        0.118546E-3
        0.330330           0.101308E-6        0.118754E-3
        0.340340           0.986440E-7        0.118351E-3
        0.350350           0.103605E-6        0.118447E-3
        0.360360           0.105242E-6        0.118265E-3
        0.370370           0.105079E-6        0.118230E-3
        0.380380           0.104448E-6        0.118333E-3
        0.390390           0.107064E-6        0.118477E-3
        0.400400           0.107404E-6        0.118363E-3
        0.410410           0.107755E-6        0.118414E-3
        0.420420           0.105925E-6        0.118284E-3
        0.430430           0.110962E-6        0.118785E-3
        0.440440           0.110105E-6        0.118646E-3
        0.450450           0.106689E-6        0.118623E-3
        0.460460           0.106427E-6        0.118558E-3
        0.470470           0.107604E-6        0.118629E-3
        0.480480           0.105366E-6        0.118637E-3
        0.490490           0.103806E-6        0.118501E-3
        0.500500           0.103402E-6        0.118548E-3
        0.510511           0.100345E-6        0.118255E-3
        0.520521           0.999671E-7        0.118790E-3
        0.530531           0.920808E-7        0.118729E-3
        0.540541           0.955395E-7        0.118498E-3
        0.550551           0.861583E-7        0.118653E-3
        0.560561           0.892653E-7        0.118515E-3
        0.570571           0.791523E-7        0.118464E-3
        0.580581           0.770530E-7        0.118735E-3
        0.590591           0.697327E-7        0.118805E-3
        0.600601           0.682372E-7        0.118724E-3
        0.610611           0.639970E-7        0.118604E-3
        0.620621           0.573934E-7        0.118659E-3
        0.630631           0.516645E-7        0.118929E-3
        0.640641           0.451919E-7        0.119031E-3
        0.650651           0.304535E-7        0.118834E-3
        0.660661           0.303025E-7        0.118976E-3
        0.670671           0.204586E-7        0.118795E-3
        0.680681           0.189184E-7        0.118861E-3
        0.690691           0.159222E-8        0.118845E-3
        0.700701          -0.133522E-8        0.118603E-3
        0.710711          -0.154774E-7        0.118998E-3
        0.720721          -0.221705E-7        0.118769E-3
        0.730731          -0.383633E-7        0.118974E-3
        0.740741          -0.472969E-7        0.118828E-3
        0.750751          -0.595396E-7        0.118863E-3
        0.760761          -0.802331E-7        0.119086E-3
        0.770771          -0.912853E-7        0.119067E-3
        0.780781          -0.101646E-6        0.118937E-3
        0.790791          -0.114076E-6        0.119058E-3
        0.800801          -0.135906E-6        0.119419E-3
        0.810811          -0.151044E-6        0.119063E-3
        0.820821          -0.156729E-6        0.119151E-3
        0.830831          -0.179143E-6        0.119038E-3
        0.840841          -0.205433E-6        0.118811E-3
        0.850851          -0.223029E-6        0.118837E-3
        0.860861          -0.245737E-6        0.119172E-3
        0.870871          -0.270413E-6        0.118903E-3
        0.880881          -0.296487E-6        0.118821E-3
        0.890891          -0.319196E-6        0.118606E-3
        0.900901          -0.343204E-6        0.118726E-3
        0.910911          -0.364990E-6        0.118749E-3
        0.920921          -0.395119E-6        0.118659E-3
        0.930931          -0.429499E-6        0.118770E-3
        0.940941          -0.453273E-6        0.118715E-3
        0.950951          -0.498054E-6        0.118982E-3
        0.960961          -0.536321E-6        0.118927E-3
        0.970971          -0.550936E-6        0.119060E-3
        0.980981          -0.601599E-6        0.118574E-3
        0.990991          -0.638605E-6        0.118361E-3
        1.001001          -0.677665E-6        0.118540E-3
        1.011011          -0.716396E-6        0.118298E-3
        1.021021          -0.780792E-6        0.118322E-3
        1.031031          -0.823719E-6        0.118082E-3
        1.041041          -0.870886E-6        0.118103E-3
        1.051051          -0.917150E-6        0.117930E-3
        1.061061          -0.961556E-6        0.117606E-3
        1.071071          -0.101705E-5        0.117972E-3
        1.081081          -0.107355E-5        0.117979E-3
        1.091091          -0.114075E-5        0.117908E-3
        1.101101          -0.120647E-5        0.117756E-3
        1.111111          -0.126957E-5        0.117715E-3
        1.121121          -0.131432E-5        0.117485E-3
        1.131131          -0.139645E-5        0.117247E-3
        1.141141          -0.148327E-5        0.117200E-3
        1.151151          -0.158146E-5        0.117098E-3
        1.161161          -0.164446E-5        0.117309E-3
        1.171171          -0.174033E-5        0.116584E-3
        1.181181          -0.181539E-5        0.116664E-3
        1.191191          -0.192751E-5        0.116825E-3
        1.201201          -0.201052E-5        0.116319E-3
        1.211211          -0.213146E-5        0.116077E-3
        1.221221          -0.224032E-5        0.116038E-3
        1.231231          -0.235083E-5        0.115614E-3
        1.241241          -0.247669E-5        0.115568E-3
        1.251251          -0.259913E-5        0.115201E-3
        1.261261          -0.273788E-5        0.114954E-3
        1.271271          -0.290072E-5        0.114956E-3
        1.281281          -0.302330E-5        0.114475E-3
        1.291291          -0.316570E-5        0.114519E-3
        1.301301          -0.333057E-5        0.113931E-3
        1.311311          -0.350250E-5        0.113908E-3
        1.321321          -0.369184E-5        0.113653E-3
        1.331331          -0.388805E-5        0.113003E-3
        1.341341          -0.408882E-5        0.112837E-3
        1.351351          -0.429891E-5        0.112427E-3
        1.361361          -0.452033E-5        0.112097E-3
        1.371371          -0.477325E-5        0.111650E-3
        1.381381          -0.501530E-5        0.111226E-3
        1.391391          -0.528008E-5        0.110748E-3
        1.401401          -0.556674E-5        0.109763E-3
        1.411411          -0.587128E-5        0.109986E-3
        1.421421          -0.619008E-5        0.109299E-3
        1.431431          -0.649721E-5        0.108738E-3
        1.441441          -0.684954E-5        0.108135E-3
        1.451451          -0.724421E-5        0.107529E-3
        1.461461          -0.763387E-5        0.106940E-3
        1.471471          -0.805786E-5        0.106451E-3
        1.481481          -0.851245E-5        0.105446E-3
        1.491491          -0.900630E-5        0.104660E-3
        1.501501          -0.953685E-5        0.103676E-3
        1.511511          -0.101138E-4        0.103181E-3
        1.521521          -0.107485E-4        0.102066E-3
        1.531531          -0.114946E-4        0.101221E-3
        1.541541          -0.122075E-4        0.100158E-3
        1.551551          -0.130835E-4        0.991345E-4
        1.561561          -0.140510E-4        0.979704E-4
        1.571571          -0.151028E-4        0.966048E-4
        1.581581          -0.163000E-4        0.956490E-4
        1.591591          -0.176306E-4        0.946794E-4
        1.601601          -0.191286E-4        0.933883E-4
        1.611611          -0.207936E-4        0.915480E-4
        1.621622          -0.225716E-4        0.902679E-4
        1.631632          -0.245576E-4        0.891464E-4
        1.641642          -0.267724E-4        0.880739E-4
        1.651652          -0.290789E-4        0.866993E-4
        1.661662          -0.317142E-4        0.862833E-4
        1.671672          -0.344055E-4        0.851619E-4
        1.681682          -0.373150E-4        0.847795E-4
        1.691692          -0.403703E-4        0.846369E-4
        1.701702          -0.432927E-4        0.846360E-4
        1.711712          -0.462329E-4        0.852494E-4
        1.721722          -0.488702E-4        0.860296E-4
        1.731732          -0.512656E-4        0.866992E-4
        1.741742          -0.532615E-4        0.883222E-4
        1.751752          -0.549171E-4        0.887931E-4
        1.761762          -0.562297E-4        0.894516E-4
        1.771772          -0.573111E-4        0.895798E-4
        1.781782          -0.583642E-4        0.900980E-4
        1.791792          -0.594413E-4        0.903885E-4
        1.801802          -0.606715E-4        0.893893E-4
        1.811812          -0.621997E-4        0.889948E-4
        1.821822          -0.640486E-4        0.872447E-4
        1.831832          -0.660525E-4        0.871992E-4
        1.841842          -0.684054E-4        0.865998E-4
        1.851852          -0.707286E-4        0.858520E-4
        1.861862          -0.731291E-4        0.846855E-4
        1.871872          -0.752511E-4        0.849176E-4
        1.881882          -0.772743E-4        0.847803E-4
        1.891892          -0.789366E-4        0.838402E-4
        1.901902          -0.802169E-4        0.836891E-4
        1.911912          -0.814354E-4        0.829397E-4
        1.921922          -0.825273E-4        0.809899E-4
        1.931932          -0.839053E-4        0.787074E-4
        1.941942          -0.854415E-4        0.748299E-4
        1.951952          -0.874542E-4        0.712250E-4
        1.961962          -0.899767E-4        0.667819E-4
        1.971972          -0.931208E-4        0.612656E-4
        1.981982          -0.967797E-4        0.560534E-4
        1.991992          -0.101520E-3        0.499703E-4
        2.002002          -0.106902E-3        0.438017E-4
        2.012012          -0.112958E-3        0.369895E-4
        2.022022          -0.120375E-3        0.298633E-4
        2.032032          -0.128574E-3        0.215879E-4
        2.042042          -0.138075E-3        0.131603E-4
        2.052052          -0.148894E-3        0.501912E-5
        2.062062          -0.160974E-3       -0.337987E-5
        2.072072          -0.174820E-3       -0.129196E-4
        2.082082          -0.190537E-3       -0.225939E-4
        2.092092          -0.208278E-3       -0.332278E-4
        2.102102          -0.228159E-3       -0.434821E-4
        2.112112          -0.250781E-3       -0.535806E-4
        2.122122          -0.276865E-3       -0.641762E-4
        2.132132          -0.306165E-3       -0.751203E-4
        2.142142          -0.339217E-3       -0.850461E-4
        2.152152          -0.377330E-3       -0.934028E-4
        2.162162          -0.420696E-3       -0.998957E-4
        2.172172          -0.470220E-3       -0.104223E-3
        2.182182          -0.525473E-3       -0.106555E-3
        2.192192          -0.589674E-3       -0.105609E-3
        2.202202          -0.661378E-3       -0.955100E-4
        2.212212          -0.742293E-3       -0.777715E-4
        2.222222          -0.832049E-3       -0.494711E-4
        2.232232          -0.932275E-3       -0.645454E-5
        2.242242          -0.001042           0.568956E-4
        2.252252          -0.001157           0.144669E-3
        2.262262          -0.001276           0.266999E-3
        2.272272          -0.001388           0.426345E-3
        2.282282          -0.001484           0.631346E-3
        2.292292          -0.001548           0.881562E-3
        2.302302          -0.001556           0.001177
        2.312312          -0.001493           0.001504
        2.322322          -0.001332           0.001837
        2.332332          -0.001068           0.002140
        2.342342          -0.709831E-3        0.002371
        2.352352          -0.285502E-3        0.002494
        2.362362           0.155348E-3        0.002486
        2.372372           0.566757E-3        0.002354
        2.382382           0.904562E-3        0.002122
        2.392392           0.001143           0.001832
        2.402402           0.001283           0.001523
        2.412412           0.001338           0.001228
        2.422422           0.001326           0.966359E-3
        2.432432           0.001269           0.746853E-3
        2.442442           0.001186           0.571678E-3
        2.452452           0.001091           0.435487E-3
        2.462462           0.992650E-3        0.333475E-3
        2.472472           0.897215E-3        0.260179E-3
        2.482482           0.806853E-3        0.207840E-3
        2.492492           0.725830E-3        0.172881E-3
        2.502502           0.653755E-3        0.150424E-3
        2.512512           0.589789E-3        0.137927E-3
        2.522522           0.534471E-3        0.132479E-3
        2.532532           0.485564E-3        0.132570E-3
        2.542542           0.444186E-3        0.135433E-3
        2.552552           0.408431E-3        0.142395E-3
        2.562562           0.377808E-3        0.151062E-3
        2.572572           0.353259E-3        0.161066E-3
        2.582582           0.332119E-3        0.170477E-3
        2.592592           0.315759E-3        0.181188E-3
        2.602602           0.302976E-3        0.190835E-3
        2.612612           0.293875E-3        0.200301E-3
        2.622622           0.287901E-3        0.209094E-3
        2.632632           0.285328E-3        0.217405E-3
        2.642642           0.285421E-3        0.223748E-3
        2.652653           0.288486E-3        0.227813E-3
        2.662663           0.293750E-3        0.229413E-3
        2.672673           0.301582E-3        0.228132E-3
        2.682683           0.311329E-3        0.221989E-3
        2.692693           0.322314E-3        0.211545E-3
        2.702703           0.333845E-3        0.195144E-3
        2.712713           0.343921E-3        0.171671E-3
        2.722723           0.350814E-3        0.140874E-3
        2.732733           0.351104E-3        0.101413E-3
        2.742743           0.341211E-3        0.552411E-4
        2.752753           0.316980E-3        0.498242E-5
        2.762763           0.275235E-3       -0.448728E-4
        2.772773           0.215435E-3       -0.870110E-4
        2.782783           0.140122E-3       -0.114003E-3
        2.792793           0.553260E-4       -0.119542E-3
        2.802803          -0.300766E-4       -0.101554E-3
        2.812813          -0.107668E-3       -0.613781E-4
        2.822823          -0.170880E-3       -0.546892E-5
        2.832833          -0.217011E-3        0.594376E-4
        2.842843          -0.247072E-3        0.126753E-3
        2.852853          -0.263583E-3        0.192253E-3
        2.862863          -0.270427E-3        0.253351E-3
        2.872873          -0.270968E-3        0.309153E-3
        2.882883          -0.267990E-3        0.361326E-3
        2.892893          -0.263466E-3        0.410377E-3
        2.902903          -0.257784E-3        0.458932E-3
        2.912913          -0.251611E-3        0.508217E-3
        2.922923          -0.243570E-3        0.561334E-3
        2.932933          -0.232194E-3        0.618902E-3
        2.942943          -0.213891E-3        0.682152E-3
        2.952953          -0.185118E-3        0.752689E-3
        2.962963          -0.141280E-3        0.824865E-3
        2.972973          -0.781143E-4        0.897891E-3
        2.982983           0.633554E-5        0.961370E-3
        2.992993           0.111080E-3        0.001008
        3.003003           0.229664E-3        0.001029
        3.013013           0.352831E-3        0.001020
        3.023023           0.470001E-3        0.980172E-3
        3.033033           0.571194E-3        0.915688E-3
        3.043043           0.651024E-3        0.833232E-3
        3.053053           0.707474E-3        0.739642E-3
        3.063063           0.741642E-3        0.641148E-3
        3.073073           0.756138E-3        0.544389E-3
        3.083083           0.751713E-3        0.449939E-3
        3.093093           0.730464E-3        0.360565E-3
        3.103103           0.690437E-3        0.275763E-3
        3.113113           0.630868E-3        0.201486E-3
        3.123123           0.553619E-3        0.142640E-3
        3.133133           0.461595E-3        0.105465E-3
        3.143143           0.358541E-3        0.944008E-4
        3.153153           0.254001E-3        0.112536E-3
        3.163163           0.155906E-3        0.164540E-3
        3.173173           0.730433E-4        0.243725E-3
        3.183183           0.126699E-4        0.347354E-3
        3.193193          -0.193372E-4        0.468799E-3
        3.203203          -0.166455E-4        0.600315E-3
        3.213213           0.223079E-4        0.735085E-3
        3.223223           0.101107E-3        0.859213E-3
        3.233233           0.214695E-3        0.961781E-3
        3.243243           0.355128E-3        0.001029
        3.253253           0.506404E-3        0.001056
        3.263263           0.654782E-3        0.001042
        3.273273           0.787107E-3        0.995558E-3
        3.283283           0.895323E-3        0.924986E-3
        3.293293           0.976735E-3        0.845828E-3
        3.303303           0.001036           0.767680E-3
        3.313313           0.001077           0.694556E-3
        3.323323           0.001111           0.632459E-3
        3.333333           0.001143           0.576794E-3
        3.343343           0.001175           0.528744E-3
        3.353353           0.001216           0.483512E-3
        3.363363           0.001264           0.435666E-3
        3.373373           0.001321           0.380165E-3
        3.383383           0.001387           0.313683E-3
        3.393393           0.001459           0.228122E-3
        3.403403           0.001531           0.117744E-3
        3.413413           0.001598          -0.235997E-4
        3.423423           0.001644          -0.199836E-3
        3.433433           0.001661          -0.409570E-3
        3.443443           0.001627          -0.646345E-3
        3.453453           0.001527          -0.893677E-3
        3.463463           0.001350          -0.001127
        3.473473           0.001096          -0.001315
        3.483483           0.790520E-3       -0.001426
        3.493493           0.461662E-3       -0.001443
        3.503503           0.148454E-3       -0.001362
        3.513513          -0.117214E-3       -0.001201
        3.523524          -0.310227E-3       -0.986782E-3
        3.533533          -0.426160E-3       -0.750823E-3
        3.543543          -0.471320E-3       -0.518985E-3
        3.553553          -0.463084E-3       -0.309865E-3
        3.563564          -0.415490E-3       -0.131935E-3
        3.573573          -0.341618E-3        0.110892E-4
        3.583583          -0.253427E-3        0.123636E-3
        3.593593          -0.158404E-3        0.207245E-3
        3.603603          -0.630994E-4        0.267893E-3
        3.613613           0.308599E-4        0.307734E-3
        3.623623           0.121672E-3        0.330964E-3
        3.633634           0.207986E-3        0.339016E-3
        3.643643           0.290084E-3        0.335804E-3
        3.653653           0.366700E-3        0.319124E-3
        3.663663           0.436261E-3        0.292223E-3
        3.673674           0.499362E-3        0.255491E-3
        3.683683           0.552250E-3        0.211360E-3
        3.693693           0.596304E-3        0.161321E-3
        3.703704           0.631380E-3        0.106570E-3
        3.713714           0.658626E-3        0.498705E-4
        3.723723           0.679488E-3       -0.968906E-5
        3.733733           0.694753E-3       -0.725387E-4
        3.743744           0.702841E-3       -0.141908E-3
        3.753754           0.701747E-3       -0.216953E-3
        3.763763           0.685882E-3       -0.298743E-3
        3.773773           0.650341E-3       -0.384150E-3
        3.783784           0.590316E-3       -0.466061E-3
        3.793794           0.505763E-3       -0.532587E-3
        3.803803           0.402485E-3       -0.575568E-3
        3.813814           0.291364E-3       -0.586064E-3
        3.823824           0.185969E-3       -0.562083E-3
        3.833834           0.982933E-4       -0.514823E-3
        3.843843           0.349858E-4       -0.451972E-3
        3.853854          -0.307823E-5       -0.383736E-3
        3.863864          -0.199736E-4       -0.323154E-3
        3.873873          -0.228874E-4       -0.273167E-3
        3.883883          -0.196715E-4       -0.236303E-3
        3.893894          -0.164643E-4       -0.208594E-3
        3.903904          -0.178032E-4       -0.189597E-3
        3.913913          -0.239048E-4       -0.171548E-3
        3.923924          -0.332689E-4       -0.149934E-3
        3.933934          -0.427868E-4       -0.124409E-3
        3.943944          -0.488768E-4       -0.947004E-4
        3.953954          -0.496695E-4       -0.632915E-4
        3.963964          -0.444345E-4       -0.322967E-4
        3.973974          -0.335663E-4       -0.326962E-5
        3.983984          -0.180038E-4        0.213734E-4
        3.993994           0.354369E-6        0.421907E-4
        4.004004           0.205879E-4        0.557046E-4
        4.014014           0.389724E-4        0.654756E-4
        4.024024           0.568019E-4        0.717021E-4
        4.034034           0.722857E-4        0.770735E-4
        4.044044           0.894115E-4        0.821579E-4
        4.054054           0.110559E-3        0.842548E-4
        4.064064           0.135875E-3        0.797541E-4
        4.074074           0.163126E-3        0.636511E-4
        4.084084           0.186036E-3        0.325894E-4
        4.094094           0.195487E-3       -0.141709E-4
        4.104104           0.182585E-3       -0.704342E-4
        4.114114           0.141338E-3       -0.125679E-3
        4.124124           0.714616E-4       -0.166511E-3
        4.134134          -0.197899E-4       -0.179540E-3
        4.144144          -0.118531E-3       -0.156351E-3
        4.154154          -0.209773E-3       -0.966083E-4
        4.164164          -0.278967E-3       -0.751993E-5
        4.174174          -0.318470E-3        0.999267E-4
        4.184184          -0.326313E-3        0.213012E-3
        4.194194          -0.306593E-3        0.321241E-3
        4.204204          -0.264112E-3        0.418259E-3
        4.214214          -0.205823E-3        0.500921E-3
        4.224224          -0.136603E-3        0.568184E-3
        4.234234          -0.610869E-4        0.621015E-3
        4.244244           0.181845E-4        0.660695E-3
        4.254254           0.995846E-4        0.688296E-3
        4.264264           0.181535E-3        0.704746E-3
        4.274274           0.263221E-3        0.710662E-3
        4.284284           0.343819E-3        0.706066E-3
        4.294294           0.422296E-3        0.692713E-3
        4.304304           0.497952E-3        0.669488E-3
        4.314314           0.569757E-3        0.637806E-3
        4.324324           0.637359E-3        0.598124E-3
        4.334334           0.700122E-3        0.550533E-3
        4.344344           0.757520E-3        0.494053E-3
        4.354354           0.807953E-3        0.429416E-3
        4.364364           0.848866E-3        0.355315E-3
        4.374374           0.877403E-3        0.272549E-3
        4.384384           0.889637E-3        0.183427E-3
        4.394394           0.882182E-3        0.924824E-4
        4.404404           0.852281E-3        0.600329E-5
        4.414414           0.802607E-3       -0.684112E-4
        4.424424           0.736025E-3       -0.122971E-3
        4.434434           0.660428E-3       -0.152956E-3
        4.444444           0.586053E-3       -0.156514E-3
        4.454454           0.521296E-3       -0.136186E-3
        4.464464           0.474361E-3       -0.971485E-4
        4.474474           0.450168E-3       -0.484288E-4
        4.484484           0.449636E-3        0.162648E-5
        4.494494           0.469836E-3        0.432414E-4
        4.504504           0.505135E-3        0.706198E-4
        4.514514           0.548129E-3        0.804139E-4
        4.524524           0.591327E-3        0.721207E-4
        4.534534           0.627645E-3        0.489372E-4
        4.544544           0.652094E-3        0.151707E-4
        4.554554           0.662184E-3       -0.208694E-4
        4.564565           0.660626E-3       -0.524189E-4
        4.574574           0.651889E-3       -0.749805E-4
        4.584584           0.644013E-3       -0.871991E-4
        4.594594           0.642022E-3       -0.916829E-4
        4.604605           0.649504E-3       -0.946210E-4
        4.614614           0.666092E-3       -0.101391E-3
        4.624624           0.688091E-3       -0.117494E-3
        4.634634           0.710205E-3       -0.144449E-3
        4.644644           0.728091E-3       -0.181530E-3
        4.654655           0.736542E-3       -0.226166E-3
        4.664664           0.733768E-3       -0.273327E-3
        4.674675           0.721072E-3       -0.318578E-3
        4.684684           0.699945E-3       -0.357650E-3
        4.694695           0.675268E-3       -0.390005E-3
        4.704704           0.650623E-3       -0.416312E-3
        4.714715           0.627190E-3       -0.439721E-3
        4.724724           0.605015E-3       -0.462798E-3
        4.734735           0.581549E-3       -0.487011E-3
        4.744744           0.553777E-3       -0.512002E-3
        4.754755           0.519226E-3       -0.534672E-3
        4.764764           0.479238E-3       -0.550604E-3
        4.774775           0.436577E-3       -0.555753E-3
        4.784785           0.397642E-3       -0.548522E-3
        4.794795           0.369819E-3       -0.531868E-3
        4.804804           0.357537E-3       -0.512313E-3
        4.814815           0.361888E-3       -0.500321E-3
        4.824825           0.377886E-3       -0.505135E-3
        4.834835           0.396400E-3       -0.532523E-3
        4.844844           0.404223E-3       -0.584914E-3
        4.854855           0.387779E-3       -0.657593E-3
        4.864865           0.336233E-3       -0.738454E-3
        4.874875           0.244956E-3       -0.809833E-3
        4.884884           0.118764E-3       -0.854529E-3
        4.894895          -0.290644E-4       -0.856033E-3
        4.904905          -0.178476E-3       -0.807108E-3
        4.914915          -0.309743E-3       -0.712954E-3
        4.924924          -0.407663E-3       -0.585162E-3
        4.934935          -0.464619E-3       -0.438939E-3
        4.944945          -0.482342E-3       -0.290584E-3
        4.954955          -0.466433E-3       -0.150581E-3
        4.964964          -0.424158E-3       -0.249474E-4
        4.974975          -0.363152E-3        0.833097E-4
        4.984985          -0.289729E-3        0.174250E-3
        4.994995          -0.207503E-3        0.249140E-3
        5.005005          -0.119205E-3        0.310792E-3
        5.015015          -0.255167E-4        0.359716E-3
        5.025025           0.735872E-4        0.396291E-3
        5.035035           0.177819E-3        0.421001E-3
        5.045045           0.287377E-3        0.432049E-3
        5.055055           0.401773E-3        0.428134E-3
        5.065065           0.519686E-3        0.407054E-3
        5.075075           0.639216E-3        0.366981E-3
        5.085085           0.756675E-3        0.305481E-3
        5.095095           0.868973E-3        0.222145E-3
        5.105105           0.972529E-3        0.117114E-3
        5.115115           0.001064          -0.111967E-4
        5.125125           0.001138          -0.162590E-3
        5.135135           0.001190          -0.337991E-3
        5.145144           0.001212          -0.536840E-3
        5.155155           0.001191          -0.755827E-3
        5.165165           0.001117          -0.985437E-3
        5.175175           0.978204E-3       -0.001209
        5.185184           0.772114E-3       -0.001401
        5.195195           0.508047E-3       -0.001536
        5.205205           0.208842E-3       -0.001591
        5.215215          -0.929412E-4       -0.001557
        5.225225          -0.363660E-3       -0.001440
        5.235235          -0.577590E-3       -0.001260
        5.245245          -0.721730E-3       -0.001047
        5.255255          -0.796893E-3       -0.825600E-3
        5.265265          -0.813481E-3       -0.619627E-3
        5.275275          -0.786613E-3       -0.440989E-3
        5.285285          -0.732127E-3       -0.294849E-3
        5.295295          -0.663020E-3       -0.180319E-3
        5.305305          -0.589072E-3       -0.935991E-4
        5.315315          -0.515968E-3       -0.294654E-4
        5.325325          -0.447016E-3        0.175188E-4
        5.335335          -0.384000E-3        0.518072E-4
        5.345345          -0.326649E-3        0.762570E-4
        5.355355          -0.275296E-3        0.942520E-4
        5.365365          -0.228687E-3        0.106995E-3
        5.375375          -0.186496E-3        0.116290E-3
        5.385385          -0.147653E-3        0.123155E-3
        5.395395          -0.111279E-3        0.127905E-3
        5.405405          -0.777769E-4        0.130771E-3
        5.415415          -0.457211E-4        0.131814E-3
        5.425425          -0.154930E-4        0.131549E-3
        5.435435           0.135489E-4        0.129385E-3
        5.445445           0.410849E-4        0.125841E-3
        5.455455           0.668036E-4        0.120726E-3
        5.465465           0.912357E-4        0.114390E-3
        5.475475           0.113984E-3        0.107455E-3
        5.485485           0.135578E-3        0.996110E-4
        5.495495           0.156249E-3        0.908272E-4
        5.505505           0.175787E-3        0.816172E-4
        5.515515           0.194547E-3        0.713299E-4
        5.525526           0.211970E-3        0.603366E-4
        5.535535           0.228211E-3        0.484438E-4
        5.545545           0.242818E-3        0.363840E-4
        5.555555           0.256237E-3        0.242133E-4
        5.565566           0.268513E-3        0.125558E-4
        5.575575           0.280354E-3        0.160456E-5
        5.585585           0.292251E-3       -0.853415E-5
        5.595595           0.304998E-3       -0.183418E-4
        5.605606           0.318814E-3       -0.281926E-4
        5.615615           0.334049E-3       -0.387423E-4
        5.625625           0.350727E-3       -0.507072E-4
        5.635635           0.368720E-3       -0.644461E-4
        5.645645           0.387826E-3       -0.808408E-4
        5.655655           0.407952E-3       -0.100148E-3
        5.665665           0.428453E-3       -0.123283E-3
        5.675675           0.449261E-3       -0.150885E-3
        5.685685           0.469251E-3       -0.184080E-3
        5.695695           0.487273E-3       -0.223436E-3
        5.705705           0.501501E-3       -0.269715E-3
        5.715715           0.508959E-3       -0.323533E-3
        5.725725           0.507084E-3       -0.383210E-3
        5.735735           0.492491E-3       -0.446525E-3
        5.745746           0.462874E-3       -0.509799E-3
        5.755755           0.418221E-3       -0.567485E-3
        5.765765           0.360375E-3       -0.614306E-3
        5.775775           0.293191E-3       -0.646000E-3
        5.785786           0.223055E-3       -0.660715E-3
        5.795795           0.155329E-3       -0.659551E-3
        5.805805           0.947530E-4       -0.645319E-3
        5.815815           0.436413E-4       -0.622027E-3
        5.825826           0.209406E-5       -0.593397E-3
        5.835835          -0.309883E-4       -0.562097E-3
        5.845845          -0.555018E-4       -0.530198E-3
        5.855855          -0.733053E-4       -0.498124E-3
        5.865866          -0.846801E-4       -0.467443E-3
        5.875876          -0.894932E-4       -0.438602E-3
        5.885885          -0.886864E-4       -0.412930E-3
        5.895895          -0.830003E-4       -0.392012E-3
        5.905906          -0.735955E-4       -0.377580E-3
        5.915915          -0.635851E-4       -0.369743E-3
        5.925925          -0.555305E-4       -0.368967E-3
        5.935935          -0.516869E-4       -0.372663E-3
        5.945946          -0.537195E-4       -0.378598E-3
        5.955956          -0.607392E-4       -0.383662E-3
        5.965966          -0.707874E-4       -0.385770E-3
        5.975976          -0.818888E-4       -0.383877E-3
        5.985986          -0.908506E-4       -0.379910E-3
        5.995996          -0.976909E-4       -0.374444E-3
        6.006006          -0.101725E-3       -0.369986E-3
        6.016016          -0.103399E-3       -0.368715E-3
        6.026026          -0.105003E-3       -0.371464E-3
        6.036036          -0.108404E-3       -0.379475E-3
        6.046046          -0.116522E-3       -0.392271E-3
        6.056056          -0.132735E-3       -0.407844E-3
        6.066066          -0.159413E-3       -0.422282E-3
        6.076076          -0.196221E-3       -0.430634E-3
        6.086086          -0.240605E-3       -0.428241E-3
        6.096096          -0.286892E-3       -0.411498E-3
        6.106106          -0.329733E-3       -0.380540E-3
        6.116116          -0.363569E-3       -0.338040E-3
        6.126126          -0.384835E-3       -0.288972E-3
        6.136136          -0.393061E-3       -0.238047E-3
        6.146146          -0.390164E-3       -0.189758E-3
        6.156156          -0.378011E-3       -0.146670E-3
        6.166166          -0.359829E-3       -0.110559E-3
        6.176176          -0.338083E-3       -0.812841E-4
        6.186186          -0.314935E-3       -0.589697E-4
        6.196196          -0.292105E-3       -0.423976E-4
        6.206206          -0.270586E-3       -0.306784E-4
        6.216216          -0.251140E-3       -0.226254E-4
        6.226226          -0.234121E-3       -0.178628E-4
        6.236236          -0.219593E-3       -0.143869E-4
        6.246246          -0.207566E-3       -0.124132E-4
        6.256256          -0.197629E-3       -0.103233E-4
        6.266266          -0.189797E-3       -0.830293E-5
        6.276276          -0.183558E-3       -0.570521E-5
        6.286286          -0.178405E-3       -0.197148E-5
        6.296296          -0.173929E-3        0.282467E-5
        6.306306          -0.169617E-3        0.905969E-5
        6.316316          -0.164934E-3        0.165188E-4
        6.326326          -0.159244E-3        0.250297E-4
        6.336336          -0.152269E-3        0.342876E-4
        6.346346          -0.143714E-3        0.437000E-4
        6.356356          -0.133500E-3        0.529278E-4
        6.366366          -0.121732E-3        0.612230E-4
        6.376376          -0.108709E-3        0.682314E-4
        6.386386          -0.947743E-4        0.738818E-4
        6.396396          -0.802906E-4        0.779125E-4
        6.406406          -0.656805E-4        0.802661E-4
        6.416416          -0.512988E-4        0.811501E-4
        6.426426          -0.374981E-4        0.807090E-4
        6.436436          -0.244135E-4        0.791584E-4
        6.446446          -0.121904E-4        0.770715E-4
        6.456456          -0.633913E-6        0.748812E-4
        6.466466           0.105054E-4        0.727171E-4
        6.476476           0.216578E-4        0.705541E-4
        6.486486           0.332653E-4        0.687726E-4
        6.496496           0.456210E-4        0.666054E-4
        6.506506           0.588993E-4        0.635795E-4
        6.516516           0.730885E-4        0.597001E-4
        6.526526           0.881365E-4        0.541829E-4
        6.536536           0.103509E-3        0.465019E-4
        6.546546           0.118733E-3        0.365968E-4
        6.556556           0.133105E-3        0.244182E-4
        6.566566           0.146053E-3        0.102401E-4
        6.576576           0.157101E-3       -0.534730E-5
        6.586586           0.166047E-3       -0.215109E-4
        6.596596           0.173655E-3       -0.375477E-4
        6.606606           0.180674E-3       -0.528426E-4
        6.616616           0.188259E-3       -0.676413E-4
        6.626626           0.197585E-3       -0.833025E-4
        6.636636           0.209096E-3       -0.101223E-3
        6.646646           0.222099E-3       -0.123607E-3
        6.656656           0.235447E-3       -0.152294E-3
        6.666666           0.246523E-3       -0.188878E-3
        6.676676           0.252215E-3       -0.234191E-3
        6.686686           0.248596E-3       -0.287715E-3
        6.696696           0.230739E-3       -0.347141E-3
        6.706707           0.194673E-3       -0.407493E-3
        6.716716           0.139097E-3       -0.461757E-3
        6.726726           0.654057E-4       -0.501623E-3
        6.736736          -0.207089E-4       -0.519853E-3
        6.746747          -0.109922E-3       -0.512059E-3
        6.756756          -0.192280E-3       -0.479210E-3
        6.766766          -0.258643E-3       -0.426635E-3
        6.776776          -0.305185E-3       -0.362255E-3
        6.786787          -0.330616E-3       -0.294637E-3
        6.796796          -0.338143E-3       -0.230140E-3
        6.806807          -0.331746E-3       -0.173518E-3
        6.816816          -0.315727E-3       -0.126407E-3
        6.826826          -0.294607E-3       -0.890700E-4
        6.836837          -0.270955E-3       -0.608470E-4
        6.846846          -0.247231E-3       -0.402525E-4
        6.856857          -0.224734E-3       -0.259051E-4
        6.866867          -0.204326E-3       -0.166520E-4
        6.876876          -0.186325E-3       -0.110100E-4
        6.886887          -0.170836E-3       -0.804890E-5
        6.896896          -0.157814E-3       -0.692689E-5
        6.906906          -0.147073E-3       -0.710425E-5
        6.916917          -0.138650E-3       -0.812312E-5
        6.926927          -0.132220E-3       -0.967636E-5
        6.936936          -0.127853E-3       -0.115164E-4
        6.946947          -0.125749E-3       -0.129411E-4
        6.956956          -0.125706E-3       -0.133903E-4
        6.966967          -0.127460E-3       -0.122354E-4
        6.976976          -0.130223E-3       -0.865814E-5
        6.986986          -0.132886E-3       -0.230400E-5
        6.996997          -0.134592E-3        0.654692E-5
        7.007007          -0.134130E-3        0.172518E-4
        7.017016          -0.131213E-3        0.289610E-4
        7.027027          -0.125744E-3        0.408003E-4
        7.037036          -0.117657E-3        0.521072E-4
        7.047047          -0.107490E-3        0.623688E-4
        7.057057          -0.954371E-4        0.706146E-4
        7.067066          -0.821719E-4        0.769444E-4
        7.077077          -0.680755E-4        0.810376E-4
        7.087087          -0.539633E-4        0.827108E-4
        7.097096          -0.403316E-4        0.822392E-4
        7.107107          -0.276574E-4        0.800663E-4
        7.117116          -0.159965E-4        0.766765E-4
        7.127127          -0.548829E-5        0.725141E-4
        7.137137           0.422864E-5        0.678152E-4
        7.147147           0.131679E-4        0.626668E-4
        7.157157           0.216924E-4        0.570980E-4
        7.167167           0.299635E-4        0.508999E-4
        7.177176           0.377696E-4        0.439821E-4
        7.187187           0.453005E-4        0.358062E-4
        7.197196           0.518435E-4        0.264504E-4
        7.207206           0.571197E-4        0.157695E-4
        7.217217           0.605534E-4        0.383563E-5
        7.227227           0.613330E-4       -0.857677E-5
        7.237237           0.593799E-4       -0.210200E-4
        7.247247           0.545222E-4       -0.321816E-4
        7.257257           0.474177E-4       -0.413019E-4
        7.267267           0.390475E-4       -0.476625E-4
        7.277277           0.299920E-4       -0.510393E-4
        7.287286           0.216567E-4       -0.517123E-4
        7.297297           0.148838E-4       -0.503885E-4
        7.307307           0.972400E-5       -0.477633E-4
        7.317317           0.636315E-5       -0.446612E-4
        7.327327           0.455409E-5       -0.416335E-4
        7.337337           0.405433E-5       -0.390270E-4
        7.347347           0.425868E-5       -0.370569E-4
        7.357357           0.493174E-5       -0.359384E-4
        7.367367           0.567820E-5       -0.357924E-4
        7.377377           0.614140E-5       -0.362163E-4
        7.387387           0.602400E-5       -0.370225E-4
        7.397398           0.508234E-5       -0.379286E-4
        7.407407           0.360406E-5       -0.383634E-4
        7.417417           0.127390E-5       -0.380471E-4
        7.427427          -0.969976E-6       -0.364020E-4
        7.437437          -0.258848E-5       -0.338776E-4
        7.447447          -0.331959E-5       -0.302217E-4
        7.457457          -0.264091E-5       -0.260739E-4
        7.467467          -0.270975E-6       -0.219487E-4
        7.477477           0.349953E-5       -0.183352E-4
        7.487487           0.854388E-5       -0.160591E-4
        7.497497           0.143240E-4       -0.149364E-4
        7.507507           0.207597E-4       -0.153633E-4
        7.517517           0.273363E-4       -0.174530E-4
        7.527527           0.336031E-4       -0.212754E-4
        7.537537           0.394272E-4       -0.268122E-4
        7.547547           0.441179E-4       -0.339618E-4
        7.557557           0.473929E-4       -0.427754E-4
        7.567567           0.484281E-4       -0.528296E-4
        7.577577           0.468096E-4       -0.637364E-4
        7.587587           0.420177E-4       -0.745276E-4
        7.597597           0.337658E-4       -0.839930E-4
        7.607607           0.227661E-4       -0.909631E-4
        7.617618           0.987808E-5       -0.942206E-4
        7.627627          -0.318281E-5       -0.934146E-4
        7.637637          -0.150288E-4       -0.888966E-4
        7.647647          -0.244774E-4       -0.813962E-4
        7.657657          -0.308078E-4       -0.723049E-4
        7.667667          -0.342035E-4       -0.626363E-4
        7.677677          -0.350494E-4       -0.535647E-4
        7.687687          -0.338603E-4       -0.455556E-4
        7.697698          -0.313066E-4       -0.384843E-4
        7.707707          -0.278389E-4       -0.327783E-4
        7.717717          -0.238595E-4       -0.282280E-4
        7.727727          -0.196470E-4       -0.246897E-4
        7.737737          -0.153072E-4       -0.219603E-4
        7.747747          -0.108967E-4       -0.199254E-4
        7.757757          -0.653901E-5       -0.184924E-4
        7.767767          -0.215622E-5       -0.176941E-4
        7.777778           0.230021E-5       -0.172882E-4
        7.787787           0.685400E-5       -0.172757E-4
        7.797797           0.115255E-4       -0.176789E-4
        7.807807           0.163357E-4       -0.186684E-4
        7.817817           0.214829E-4       -0.202950E-4
        7.827827           0.268091E-4       -0.225341E-4
        7.837838           0.323358E-4       -0.260107E-4
        7.847847           0.379581E-4       -0.306572E-4
        7.857858           0.433841E-4       -0.367892E-4
        7.867867           0.482852E-4       -0.446423E-4
        7.877877           0.519076E-4       -0.546876E-4
        7.887887           0.536875E-4       -0.666340E-4
        7.897897           0.525392E-4       -0.802431E-4
        7.907907           0.476035E-4       -0.946348E-4
        7.917918           0.380308E-4       -0.108446E-3
        7.927927           0.241158E-4       -0.119961E-3
        7.937938           0.663283E-5       -0.127406E-3
        7.947948          -0.129350E-4       -0.129502E-3
        7.957957          -0.321876E-4       -0.125565E-3
        7.967968          -0.490419E-4       -0.116482E-3
        7.977977          -0.620511E-4       -0.103709E-3
        7.987987          -0.704573E-4       -0.889952E-4
        7.997998          -0.745060E-4       -0.739238E-4
        8.008007          -0.748096E-4       -0.600855E-4
        8.018017          -0.724223E-4       -0.478184E-4
        8.028028          -0.680664E-4       -0.378334E-4
        8.038037          -0.627120E-4       -0.296756E-4
        8.048048          -0.567715E-4       -0.237542E-4
        8.058058          -0.509485E-4       -0.192523E-4
        8.068068          -0.451672E-4       -0.159091E-4
        8.078078          -0.398138E-4       -0.139195E-4
        8.088087          -0.349106E-4       -0.127102E-4
        8.098097          -0.303708E-4       -0.121661E-4
        8.108108          -0.264563E-4       -0.124379E-4
        8.118117          -0.229012E-4       -0.130030E-4
        8.128128          -0.199254E-4       -0.138953E-4
        8.138138          -0.173942E-4       -0.154026E-4
        8.148148          -0.156339E-4       -0.169990E-4
        8.158158          -0.145004E-4       -0.183327E-4
        8.168168          -0.140145E-4       -0.199026E-4
        8.178178          -0.140934E-4       -0.207855E-4
        8.188188          -0.145815E-4       -0.213579E-4
        8.198197          -0.151982E-4       -0.210011E-4
        8.208207          -0.156368E-4       -0.201921E-4
        8.218218          -0.156607E-4       -0.188320E-4
        8.228228          -0.152570E-4       -0.172684E-4
        8.238238          -0.142598E-4       -0.156877E-4
        8.248248          -0.128202E-4       -0.143513E-4
        8.258258          -0.110986E-4       -0.130542E-4
        8.268268          -0.912379E-5       -0.123283E-4
        8.278277          -0.696431E-5       -0.118733E-4
        8.288287          -0.495766E-5       -0.117397E-4
        8.298298          -0.280486E-5       -0.117850E-4
        8.308308          -0.787228E-6       -0.121831E-4
        8.318318           0.115987E-5       -0.127793E-4
        8.328328           0.302790E-5       -0.136872E-4
        8.338338           0.480457E-5       -0.146534E-4
        8.348348           0.654571E-5       -0.158967E-4
        8.358357           0.797057E-5       -0.174470E-4
        8.368367           0.932702E-5       -0.191292E-4
        8.378378           0.103387E-4       -0.210633E-4
        8.388388           0.111332E-4       -0.231436E-4
        8.398398           0.114320E-4       -0.252827E-4
        8.408408           0.113111E-4       -0.274707E-4
        8.418418           0.109200E-4       -0.295004E-4
        8.428429           0.100901E-4       -0.313382E-4
        8.438437           0.903392E-5       -0.328330E-4
        8.448447           0.783483E-5       -0.341593E-4
        8.458458           0.651170E-5       -0.350977E-4
        8.468468           0.515993E-5       -0.357467E-4
        8.478477           0.383001E-5       -0.362272E-4
        8.488488           0.248814E-5       -0.364938E-4
        8.498498           0.123548E-5       -0.365226E-4
        8.508509           0.144413E-7       -0.362923E-4
        8.518518          -0.100709E-5       -0.359244E-4
        8.528527          -0.201762E-5       -0.354831E-4
        8.538538          -0.285130E-5       -0.348973E-4
        8.548548          -0.345776E-5       -0.341730E-4
        8.558558          -0.394410E-5       -0.333884E-4
        8.568568          -0.420695E-5       -0.325426E-4
        8.578578          -0.437386E-5       -0.318519E-4
        8.588589          -0.429627E-5       -0.311932E-4
        8.598598          -0.415046E-5       -0.305435E-4
        8.608608          -0.392553E-5       -0.300732E-4
        8.618618          -0.366018E-5       -0.297677E-4
        8.628628          -0.339193E-5       -0.294436E-4
        8.638638          -0.310430E-5       -0.292213E-4
        8.648648          -0.287937E-5       -0.290294E-4
        8.658658          -0.266768E-5       -0.290181E-4
        8.668669          -0.244938E-5       -0.289739E-4
        8.678679          -0.229491E-5       -0.289863E-4
        8.688688          -0.219263E-5       -0.289622E-4
        8.698698          -0.207845E-5       -0.290093E-4
        8.708708          -0.195755E-5       -0.290627E-4
        8.718718          -0.187595E-5       -0.291502E-4
        8.728728          -0.183907E-5       -0.291380E-4
        8.738738          -0.181185E-5       -0.292678E-4
        8.748748          -0.177773E-5       -0.292479E-4
        8.758759          -0.179627E-5       -0.294712E-4
        8.768768          -0.183344E-5       -0.294612E-4
        8.778779          -0.187768E-5       -0.295847E-4
        8.788788          -0.195395E-5       -0.296740E-4
        8.798798          -0.203056E-5       -0.297338E-4
        8.808808          -0.216218E-5       -0.298439E-4
        8.818818          -0.231732E-5       -0.299085E-4
        8.828828          -0.250386E-5       -0.299408E-4
        8.838839          -0.267874E-5       -0.300389E-4
        8.848848          -0.293301E-5       -0.300176E-4
        8.858859          -0.317491E-5       -0.299913E-4
        8.868869          -0.348212E-5       -0.300681E-4
        8.878878          -0.378598E-5       -0.299676E-4
        8.888888          -0.409241E-5       -0.298123E-4
        8.898898          -0.441269E-5       -0.296234E-4
        8.908908          -0.472828E-5       -0.295023E-4
        8.918919          -0.500370E-5       -0.292208E-4
        8.928928          -0.523905E-5       -0.288948E-4
        8.938939          -0.547114E-5       -0.285613E-4
        8.948949          -0.563405E-5       -0.281557E-4
        8.958959          -0.581187E-5       -0.278008E-4
        8.968968          -0.599328E-5       -0.274390E-4
        8.978978          -0.612679E-5       -0.270622E-4
        8.988988          -0.623288E-5       -0.265542E-4
        8.998999          -0.627749E-5       -0.260300E-4
        9.009008          -0.620178E-5       -0.254316E-4
        9.019018          -0.600687E-5       -0.247838E-4
        9.029029          -0.568566E-5       -0.241883E-4
        9.039039          -0.519103E-5       -0.236895E-4
        9.049048          -0.460795E-5       -0.233328E-4
        9.059058          -0.391645E-5       -0.231870E-4
        9.069068          -0.324366E-5       -0.231896E-4
        9.079079          -0.260599E-5       -0.234315E-4
        9.089088          -0.206615E-5       -0.238883E-4
        9.099098          -0.174723E-5       -0.244803E-4
        9.109109          -0.164267E-5       -0.252181E-4
        9.119119          -0.191805E-5       -0.259289E-4
        9.129129          -0.240416E-5       -0.265269E-4
        9.139138          -0.318955E-5       -0.269283E-4
        9.149148          -0.414067E-5       -0.269959E-4
        9.159159          -0.511160E-5       -0.267385E-4
        9.169168          -0.593943E-5       -0.261727E-4
        9.179178          -0.655639E-5       -0.253636E-4
        9.189189          -0.690373E-5       -0.244065E-4
        9.199199          -0.703835E-5       -0.234523E-4
        9.209209          -0.692135E-5       -0.225217E-4
        9.219219          -0.669112E-5       -0.217005E-4
        9.229228          -0.634714E-5       -0.208662E-4
        9.239239          -0.591139E-5       -0.202052E-4
        9.249249          -0.542407E-5       -0.195896E-4
        9.259258          -0.484898E-5       -0.190270E-4
        9.269269          -0.417851E-5       -0.184631E-4
        9.279279          -0.338437E-5       -0.180656E-4
        9.289289          -0.248503E-5       -0.177893E-4
        9.299299          -0.153297E-5       -0.176926E-4
        9.309309          -0.590388E-6       -0.178414E-4
        9.319319           0.298521E-6       -0.181836E-4
        9.329329           0.103916E-5       -0.187198E-4
        9.339338           0.157931E-5       -0.193959E-4
        9.349349           0.192306E-5       -0.201256E-4
        9.359359           0.206613E-5       -0.207526E-4
        9.369369           0.207875E-5       -0.213730E-4
        9.379379           0.195968E-5       -0.219310E-4
        9.389389           0.175866E-5       -0.223215E-4
        9.399399           0.152837E-5       -0.226840E-4
        9.409409           0.127341E-5       -0.229508E-4
        9.419418           0.994783E-6       -0.231053E-4
        9.429429           0.730968E-6       -0.232846E-4
        9.439439           0.450681E-6       -0.233425E-4
        9.449449           0.185490E-6       -0.233899E-4
        9.459459          -0.874583E-7       -0.233866E-4
        9.469469          -0.357355E-6       -0.233090E-4
        9.479479          -0.592062E-6       -0.231995E-4
        9.489489          -0.796817E-6       -0.230308E-4
        9.499498          -0.957003E-6       -0.227951E-4
        9.509509          -0.103920E-5       -0.225629E-4
        9.519519          -0.109153E-5       -0.223161E-4
        9.529529          -0.109791E-5       -0.221321E-4
        9.539539          -0.103258E-5       -0.219250E-4
        9.549549          -0.955956E-6       -0.217204E-4
        9.559559          -0.869322E-6       -0.215950E-4
        9.569570          -0.765677E-6       -0.214804E-4
        9.579578          -0.651831E-6       -0.213947E-4
        9.589589          -0.547396E-6       -0.213157E-4
        9.599599          -0.455657E-6       -0.212908E-4
        9.609609          -0.367760E-6       -0.212341E-4
        9.619619          -0.283653E-6       -0.212174E-4
        9.629629          -0.210576E-6       -0.211681E-4
        9.639639          -0.164618E-6       -0.211989E-4
        9.649650          -0.111975E-6       -0.211438E-4
        9.659659          -0.509351E-7       -0.211336E-4
        9.669669          -0.334857E-8       -0.211582E-4
        9.679679           0.303559E-7       -0.211196E-4
        9.689689           0.863621E-7       -0.210993E-4
        9.699699           0.104255E-6       -0.210958E-4
        9.709709           0.139070E-6       -0.211067E-4
        9.719719           0.158720E-6       -0.210748E-4
        9.729730           0.185676E-6       -0.210788E-4
        9.739739           0.213560E-6       -0.210405E-4
        9.749749           0.230090E-6       -0.210262E-4
        9.759759           0.249166E-6       -0.210346E-4
        9.769769           0.254317E-6       -0.209961E-4
        9.779779           0.267063E-6       -0.209614E-4
        9.789789           0.280976E-6       -0.209468E-4
        9.799799           0.305817E-6       -0.209511E-4
        9.809810           0.309403E-6       -0.208856E-4
        9.819819           0.316872E-6       -0.208604E-4
        9.829829           0.334032E-6       -0.208526E-4
        9.839839           0.334127E-6       -0.208612E-4
        9.849849           0.348104E-6       -0.208233E-4
        9.859859           0.356205E-6       -0.207910E-4
        9.869869           0.369999E-6       -0.207525E-4
        9.879879           0.368301E-6       -0.207610E-4
        9.889890           0.380487E-6       -0.206687E-4
        9.899899           0.379132E-6       -0.206816E-4
        9.909909           0.390138E-6       -0.206890E-4
        9.919919           0.394888E-6       -0.206090E-4
        9.929929           0.391766E-6       -0.206431E-4
        9.939939           0.407717E-6       -0.205741E-4
        9.949949           0.408274E-6       -0.205386E-4
        9.959959           0.419906E-6       -0.205309E-4
        9.969970           0.408907E-6       -0.205025E-4
        9.979980           0.418031E-6       -0.204859E-4
        9.989989           0.408428E-6       -0.204087E-4
        10.00000           0.412616E-6       -0.203861E-4
# 
# 01/27/2025 at 11:23 yambo_rt @ baym [start]
# 01/27/2025 at 11:23                 [end]
#
# .-Input file  yambo.in
# | optics                           # [R] Linear Response optical properties
# | dipoles                          # [R] Oscillator strenghts (or dipoles)
# | bse                              # [R][BSE] Bethe Salpeter Equation.
# | BoseTemp= 0.000000         eV    # Bosonic Temperature
# | FFTGvecs=  3525            RL    # [FFT] Plane-waves
# | DIP_Threads= 1                   # [OPENMP/X] Number of threads for dipoles
# | BS_nCPU_LinAlg_INV= 1            # [PARALLEL] CPUs for Linear Algebra (if -1 it is automatically set)
# | BS_nCPU_LinAlg_DIAGO= 1          # [PARALLEL] CPUs for Linear Algebra (if -1 it is automatically set)
# | X_Threads= 1                     # [OPENMP/X] Number of threads for response functions
# | K_Threads= 1                     # [OPENMP/BSK] Number of threads for response functions
# | BSKmod= "IP"                     # [BSE] IP/Hartree/HF/ALDA/SEX/BSfxc
# | BSEmod= "retarded"               # [BSE] resonant/retarded/coupling
# | % DipBands
# |   6 | 14 |                           # [DIP] Bands range for dipoles
# | %
# | DipComputed= "R V P [G-space]"   # [DIP] [default R P V; extra P2 Spin Orb]
# | BSENGexx= 19641            RL    # [BSK] Exchange components
# | KfnRTdb= "f @ 20 fs < 08_rt/ndb.RT_carriers" # [EXTRT BSK BSS] Database
# | % BSEQptR
# |  1 | 1 |                             # [BSK] Transferred momenta range
# | %
# | % BSEBands
# |   6 | 14 |                           # [BSK] Bands range
# | %
# | RTOccMode= "R"                   # [RT-BSE] (K)ernel/(R)esiduals. BSE components to be corrected with the TD occupations
# | ForceEqTrans                   # [RT-BSE] Use only equilibrium transitions
# | % BEnRange
# |   0.00000 | 10.00000 |         eV    # [BSS] Energy range
# | %
# | % BDmRange
# |  0.100000 | 0.100000 |         eV    # [BSS] Damping range
# | %
# | BEnSteps= 1000                   # [BSS] Energy steps
# | % BLongDir
# |  1.000000 | 0.000000 | 0.000000 |        # [BSS] [cc] Electric Field versor
# | %
# | BSEprop= " abs jdos kerr"        # [BSS] Can be any among abs/jdos/kerr/asymm/anHAll/magn/dich/photolum/esrt
# | BSEdips= "xy"                    # [BSS] Can be "trace/none" or "xy/xz/yz" to define off-diagonal rotation plane
