#                                                                     
#   __   __     _        __  __       ____      U  ___  u             
#   \ \ / / U  /"\  U u |" \/ "| u U | __") u    \/"_ \/              
#    \ V /   \/ _ \/   \| |\/| |/   \|  _ \/     | | | |              
#   U_|"|_u  / ___ \    | |  | |     | |_) | .-,_| |_| |              
#     |_|   /_/   \_\   |_|  |_|     |____/   \_)-\___/               
# .-,//|(_   \\    >>  <<,-,,-.     _|| \\_        \\                 
#  \_) (__) (__)  (__)  (./  \.)   (__) (__)      (__)                
#                                                                     
#                                                                     
# Version 5.2.0 Revision 23132 Hash (prev commit) 0aefd4da0           
#            Branch is phys-levels_degeneracy                         
#              MPI+OpenMP+HDF5_MPI_IO Build                           
#                http://www.yambo-code.eu                             
#
# MOKE parameters @ Q(1):   1.00000000      0.00000000      0.00000000    [q->0 direction]
# [DIP] Rotation plane                            : xy
#
# Moke units: Radiants
#
# [GEN] GF Energies                               : Perdew, Burke & Ernzerhof(X)+Perdew, Burke & Ernzerhof(C)
# [GEN] Green`s Function                          : Retarded
#
# [GEN] Gauge                                     : Length
# [GEN] [r,Vnl] included                          : yes
#
# DIP band range                                  :   5  14
# DIP band range limits                           :  14   5
# DIP e/h energy range                            :  -1.00000000     -1.00000000    [eV]
# RL vectors in the sum                           :   3525
# [r,Vnl] included                                : yes
# Bands ordered                                   : yes
# Direct v evaluation                             : no
# Approach used                                   : G-space v
# Dipoles computed                                : R V P
# Wavefunctions                                   : Perdew, Burke & Ernzerhof(X)+Perdew, Burke & Ernzerhof(C)
#
#
#    E[1] [eV]          Im(moke)           Re(moke)
#
        0.000000          -0.000000          -0.144845E-3
        0.010010           0.248206E-7       -0.144992E-3
        0.020020           0.492750E-7       -0.144918E-3
        0.030030           0.743939E-7       -0.145057E-3
        0.040040           0.962475E-7       -0.144981E-3
        0.050050           0.122048E-6       -0.144816E-3
        0.060060           0.145949E-6       -0.145190E-3
        0.070070           0.169772E-6       -0.145065E-3
        0.080080           0.196275E-6       -0.144805E-3
        0.090090           0.219200E-6       -0.144801E-3
        0.100100           0.244048E-6       -0.144794E-3
        0.110110           0.267435E-6       -0.144937E-3
        0.120120           0.291668E-6       -0.144690E-3
        0.130130           0.317697E-6       -0.144824E-3
        0.140140           0.340061E-6       -0.144622E-3
        0.150150           0.364245E-6       -0.144635E-3
        0.160160           0.387434E-6       -0.144357E-3
        0.170170           0.414411E-6       -0.144094E-3
        0.180180           0.437566E-6       -0.144263E-3
        0.190190           0.462780E-6       -0.144116E-3
        0.200200           0.488086E-6       -0.144283E-3
        0.210210           0.511694E-6       -0.143962E-3
        0.220220           0.535867E-6       -0.143843E-3
        0.230230           0.563236E-6       -0.143886E-3
        0.240240           0.591567E-6       -0.143931E-3
        0.250250           0.614198E-6       -0.144058E-3
        0.260260           0.639971E-6       -0.143862E-3
        0.270270           0.666627E-6       -0.143712E-3
        0.280280           0.689923E-6       -0.143604E-3
        0.290290           0.717804E-6       -0.143534E-3
        0.300300           0.743723E-6       -0.143525E-3
        0.310310           0.769740E-6       -0.143433E-3
        0.320320           0.800618E-6       -0.143717E-3
        0.330330           0.826236E-6       -0.143768E-3
        0.340340           0.853377E-6       -0.143193E-3
        0.350350           0.881035E-6       -0.143484E-3
        0.360360           0.904049E-6       -0.142963E-3
        0.370370           0.931493E-6       -0.142837E-3
        0.380380           0.965077E-6       -0.142917E-3
        0.390390           0.988893E-6       -0.142901E-3
        0.400400           0.101873E-5       -0.142768E-3
        0.410410           0.104755E-5       -0.142674E-3
        0.420420           0.107812E-5       -0.142375E-3
        0.430430           0.110698E-5       -0.142808E-3
        0.440440           0.113532E-5       -0.142628E-3
        0.450450           0.116329E-5       -0.142273E-3
        0.460460           0.119306E-5       -0.142084E-3
        0.470470           0.122195E-5       -0.142209E-3
        0.480480           0.125368E-5       -0.141794E-3
        0.490490           0.128277E-5       -0.141624E-3
        0.500500           0.131494E-5       -0.141692E-3
        0.510511           0.134207E-5       -0.141027E-3
        0.520521           0.138073E-5       -0.141517E-3
        0.530531           0.141199E-5       -0.141219E-3
        0.540541           0.144158E-5       -0.141084E-3
        0.550551           0.148046E-5       -0.141081E-3
        0.560561           0.150133E-5       -0.140632E-3
        0.570571           0.154221E-5       -0.140381E-3
        0.580581           0.157797E-5       -0.140585E-3
        0.590591           0.161252E-5       -0.140357E-3
        0.600601           0.164613E-5       -0.140276E-3
        0.610611           0.167736E-5       -0.139798E-3
        0.620621           0.171423E-5       -0.139713E-3
        0.630631           0.175261E-5       -0.139934E-3
        0.640641           0.179249E-5       -0.139826E-3
        0.650651           0.183647E-5       -0.139350E-3
        0.660661           0.186987E-5       -0.139558E-3
        0.670671           0.189989E-5       -0.138962E-3
        0.680681           0.193287E-5       -0.138932E-3
        0.690691           0.198302E-5       -0.138682E-3
        0.700701           0.201733E-5       -0.138210E-3
        0.710711           0.206490E-5       -0.138411E-3
        0.720721           0.209669E-5       -0.137975E-3
        0.730731           0.214511E-5       -0.137921E-3
        0.740741           0.218003E-5       -0.137556E-3
        0.750751           0.222409E-5       -0.137499E-3
        0.760761           0.227589E-5       -0.137381E-3
        0.770771           0.231666E-5       -0.137138E-3
        0.780781           0.236657E-5       -0.136865E-3
        0.790791           0.240800E-5       -0.136759E-3
        0.800801           0.246875E-5       -0.136823E-3
        0.810811           0.250756E-5       -0.136229E-3
        0.820821           0.254631E-5       -0.136144E-3
        0.830831           0.259717E-5       -0.135740E-3
        0.840841           0.264980E-5       -0.135329E-3
        0.850851           0.269867E-5       -0.135221E-3
        0.860861           0.275599E-5       -0.135308E-3
        0.870871           0.280723E-5       -0.134742E-3
        0.880881           0.287059E-5       -0.134305E-3
        0.890891           0.291967E-5       -0.133909E-3
        0.900901           0.297024E-5       -0.133648E-3
        0.910911           0.302738E-5       -0.133338E-3
        0.920921           0.309110E-5       -0.133135E-3
        0.930931           0.315171E-5       -0.133040E-3
        0.940941           0.321306E-5       -0.132702E-3
        0.950951           0.328810E-5       -0.132670E-3
        0.960961           0.336233E-5       -0.132255E-3
        0.970971           0.340141E-5       -0.132045E-3
        0.980981           0.347550E-5       -0.131359E-3
        0.990991           0.354423E-5       -0.130944E-3
        1.001001           0.361736E-5       -0.130819E-3
        1.011011           0.368716E-5       -0.130289E-3
        1.021021           0.378082E-5       -0.129851E-3
        1.031031           0.384962E-5       -0.129377E-3
        1.041041           0.392751E-5       -0.129197E-3
        1.051051           0.399994E-5       -0.128672E-3
        1.061061           0.407008E-5       -0.128026E-3
        1.071071           0.416486E-5       -0.128255E-3
        1.081081           0.424505E-5       -0.127656E-3
        1.091091           0.434327E-5       -0.127267E-3
        1.101101           0.442537E-5       -0.126829E-3
        1.111111           0.452714E-5       -0.126504E-3
        1.121121           0.460203E-5       -0.125973E-3
        1.131131           0.469710E-5       -0.125318E-3
        1.141141           0.481128E-5       -0.124954E-3
        1.151151           0.494198E-5       -0.124666E-3
        1.161161           0.503989E-5       -0.124385E-3
        1.171171           0.514593E-5       -0.123416E-3
        1.181181           0.524706E-5       -0.123126E-3
        1.191191           0.539096E-5       -0.122816E-3
        1.201201           0.549608E-5       -0.122086E-3
        1.211211           0.563725E-5       -0.121348E-3
        1.221221           0.576814E-5       -0.121118E-3
        1.231231           0.588341E-5       -0.120440E-3
        1.241241           0.603842E-5       -0.120017E-3
        1.251251           0.617066E-5       -0.119009E-3
        1.261261           0.633408E-5       -0.118521E-3
        1.271271           0.651369E-5       -0.118175E-3
        1.281281           0.665387E-5       -0.117493E-3
        1.291291           0.681170E-5       -0.116955E-3
        1.301301           0.699109E-5       -0.116235E-3
        1.311311           0.716848E-5       -0.115716E-3
        1.321321           0.736606E-5       -0.115057E-3
        1.331331           0.754503E-5       -0.113915E-3
        1.341341           0.778117E-5       -0.113492E-3
        1.351351           0.797680E-5       -0.112744E-3
        1.361361           0.819452E-5       -0.112006E-3
        1.371371           0.844750E-5       -0.111146E-3
        1.381381           0.867108E-5       -0.110352E-3
        1.391391           0.893029E-5       -0.109339E-3
        1.401401           0.918124E-5       -0.107979E-3
        1.411411           0.950074E-5       -0.108102E-3
        1.421421           0.980007E-5       -0.106971E-3
        1.431431           0.100819E-4       -0.106047E-3
        1.441441           0.104042E-4       -0.104814E-3
        1.451451           0.107501E-4       -0.103995E-3
        1.461461           0.111052E-4       -0.103096E-3
        1.471471           0.114798E-4       -0.102129E-3
        1.481481           0.118784E-4       -0.100780E-3
        1.491491           0.122963E-4       -0.994910E-4
        1.501501           0.127558E-4       -0.983003E-4
        1.511511           0.132655E-4       -0.974184E-4
        1.521521           0.137874E-4       -0.959315E-4
        1.531531           0.144225E-4       -0.948774E-4
        1.541541           0.150186E-4       -0.934420E-4
        1.551551           0.157487E-4       -0.918928E-4
        1.561561           0.165525E-4       -0.905257E-4
        1.571571           0.174197E-4       -0.889680E-4
        1.581581           0.184245E-4       -0.877140E-4
        1.591591           0.195269E-4       -0.863918E-4
        1.601601           0.207589E-4       -0.848052E-4
        1.611611           0.220832E-4       -0.827490E-4
        1.621622           0.235230E-4       -0.809728E-4
        1.631632           0.251490E-4       -0.794848E-4
        1.641642           0.269422E-4       -0.780873E-4
        1.651652           0.287971E-4       -0.764980E-4
        1.661662           0.309412E-4       -0.757543E-4
        1.671672           0.330961E-4       -0.742398E-4
        1.681682           0.354102E-4       -0.734484E-4
        1.691692           0.378344E-4       -0.727920E-4
        1.701702           0.401796E-4       -0.721497E-4
        1.711712           0.424762E-4       -0.722638E-4
        1.721722           0.445155E-4       -0.721718E-4
        1.731732           0.463345E-4       -0.723041E-4
        1.741742           0.478640E-4       -0.731148E-4
        1.751752           0.490345E-4       -0.730676E-4
        1.761762           0.499166E-4       -0.730136E-4
        1.771772           0.505667E-4       -0.726015E-4
        1.781782           0.512003E-4       -0.724655E-4
        1.791792           0.518325E-4       -0.718934E-4
        1.801802           0.525131E-4       -0.707091E-4
        1.811812           0.534436E-4       -0.698122E-4
        1.821822           0.545569E-4       -0.678806E-4
        1.831832           0.558366E-4       -0.671667E-4
        1.841842           0.572957E-4       -0.661875E-4
        1.851852           0.587645E-4       -0.650589E-4
        1.861862           0.602027E-4       -0.633102E-4
        1.871872           0.615432E-4       -0.629588E-4
        1.881882           0.626550E-4       -0.620223E-4
        1.891892           0.634896E-4       -0.609671E-4
        1.901902           0.641015E-4       -0.602142E-4
        1.911912           0.645922E-4       -0.588670E-4
        1.921922           0.648934E-4       -0.567715E-4
        1.931932           0.653669E-4       -0.545811E-4
        1.941942           0.658682E-4       -0.513816E-4
        1.951952           0.666188E-4       -0.479811E-4
        1.961962           0.676882E-4       -0.442934E-4
        1.971972           0.690476E-4       -0.394747E-4
        1.981982           0.707483E-4       -0.351695E-4
        1.991992           0.731144E-4       -0.304687E-4
        2.002002           0.757557E-4       -0.252632E-4
        2.012012           0.787642E-4       -0.197544E-4
        2.022022           0.825601E-4       -0.142561E-4
        2.032032           0.865507E-4       -0.767843E-5
        2.042042           0.913412E-4       -0.125589E-5
        2.052052           0.967922E-4        0.534397E-5
        2.062062           0.102842E-3        0.117641E-4
        2.072072           0.109695E-3        0.191311E-4
        2.082082           0.117540E-3        0.266177E-4
        2.092092           0.126125E-3        0.349056E-4
        2.102102           0.135771E-3        0.431529E-4
        2.112112           0.146692E-3        0.511848E-4
        2.122122           0.159054E-3        0.604465E-4
        2.132132           0.172815E-3        0.699205E-4
        2.142142           0.188039E-3        0.793269E-4
        2.152152           0.205776E-3        0.885274E-4
        2.162162           0.225788E-3        0.972589E-4
        2.172172           0.248563E-3        0.105726E-3
        2.182182           0.273516E-3        0.114685E-3
        2.192192           0.302376E-3        0.123382E-3
        2.202202           0.334917E-3        0.129349E-3
        2.212212           0.371773E-3        0.134098E-3
        2.222222           0.413149E-3        0.136381E-3
        2.232232           0.460142E-3        0.135790E-3
        2.242242           0.513529E-3        0.129857E-3
        2.252252           0.572665E-3        0.118071E-3
        2.262262           0.638713E-3        0.961050E-4
        2.272272           0.710036E-3        0.634168E-4
        2.282282           0.787192E-3        0.148056E-4
        2.292292           0.866459E-3       -0.511454E-4
        2.302302           0.942261E-3       -0.141121E-3
        2.312312           0.001012          -0.256554E-3
        2.322322           0.001063          -0.400036E-3
        2.332332           0.001087          -0.570128E-3
        2.342342           0.001071          -0.759753E-3
        2.352352           0.001005          -0.957756E-3
        2.362362           0.883293E-3       -0.001145
        2.372372           0.705404E-3       -0.001303
        2.382382           0.484516E-3       -0.001410
        2.392392           0.242616E-3       -0.001451
        2.402402           0.377560E-5       -0.001423
        2.412412          -0.208699E-3       -0.001335
        2.422422          -0.376092E-3       -0.001204
        2.432432          -0.492430E-3       -0.001048
        2.442442          -0.559566E-3       -0.889703E-3
        2.452452          -0.586072E-3       -0.740618E-3
        2.462462          -0.581195E-3       -0.609332E-3
        2.472472          -0.555192E-3       -0.500463E-3
        2.482482          -0.516610E-3       -0.411836E-3
        2.492492          -0.473330E-3       -0.342921E-3
        2.502502          -0.428811E-3       -0.290660E-3
        2.512512          -0.385635E-3       -0.251284E-3
        2.522522          -0.345836E-3       -0.222868E-3
        2.532532          -0.309175E-3       -0.202298E-3
        2.542542          -0.276924E-3       -0.187744E-3
        2.552552          -0.248429E-3       -0.178733E-3
        2.562562          -0.223432E-3       -0.172712E-3
        2.572572          -0.202901E-3       -0.169350E-3
        2.582582          -0.185050E-3       -0.167362E-3
        2.592592          -0.170528E-3       -0.167027E-3
        2.602602          -0.158652E-3       -0.166948E-3
        2.612612          -0.149383E-3       -0.167584E-3
        2.622622          -0.142149E-3       -0.168203E-3
        2.632632          -0.137124E-3       -0.169307E-3
        2.642642          -0.133973E-3       -0.169310E-3
        2.652653          -0.132653E-3       -0.168917E-3
        2.662663          -0.132803E-3       -0.167177E-3
        2.672673          -0.134516E-3       -0.164415E-3
        2.682683          -0.137637E-3       -0.159562E-3
        2.692693          -0.141680E-3       -0.152861E-3
        2.702703          -0.146491E-3       -0.143554E-3
        2.712713          -0.151171E-3       -0.130945E-3
        2.722723          -0.155008E-3       -0.115088E-3
        2.732733          -0.156778E-3       -0.948037E-4
        2.742743          -0.154680E-3       -0.708390E-4
        2.752753          -0.146751E-3       -0.442543E-4
        2.762763          -0.131388E-3       -0.162784E-4
        2.772773          -0.107778E-3        0.984570E-5
        2.782783          -0.764053E-4        0.307981E-4
        2.792793          -0.393050E-4        0.432787E-4
        2.802803           0.230207E-7        0.459590E-4
        2.812813           0.377022E-4        0.386335E-4
        2.822823           0.703846E-4        0.233152E-4
        2.832833           0.961598E-4        0.307494E-5
        2.842843           0.115047E-3       -0.193833E-4
        2.852853           0.127702E-3       -0.414867E-4
        2.862863           0.135830E-3       -0.619841E-4
        2.872873           0.140739E-3       -0.799073E-4
        2.882883           0.143983E-3       -0.957159E-4
        2.892893           0.146526E-3       -0.109492E-3
        2.902903           0.148965E-3       -0.121940E-3
        2.912913           0.151761E-3       -0.133532E-3
        2.922923           0.155059E-3       -0.145370E-3
        2.932933           0.158697E-3       -0.157729E-3
        2.942943           0.162108E-3       -0.171480E-3
        2.952953           0.164876E-3       -0.187472E-3
        2.962963           0.165448E-3       -0.204836E-3
        2.972973           0.163209E-3       -0.224466E-3
        2.982983           0.156846E-3       -0.244475E-3
        2.992993           0.145617E-3       -0.263664E-3
        3.003003           0.129979E-3       -0.280411E-3
        3.013013           0.110805E-3       -0.292934E-3
        3.023023           0.896627E-4       -0.300423E-3
        3.033033           0.685465E-4       -0.302826E-3
        3.043043           0.487238E-4       -0.300770E-3
        3.053053           0.307816E-4       -0.294826E-3
        3.063063           0.148000E-4       -0.285919E-3
        3.073073           0.165161E-5       -0.275583E-3
        3.083083          -0.970035E-5       -0.263169E-3
        3.093093          -0.190898E-4       -0.249227E-3
        3.103103          -0.268020E-4       -0.232533E-3
        3.113113          -0.318857E-4       -0.212700E-3
        3.123123          -0.328003E-4       -0.189908E-3
        3.133133          -0.280992E-4       -0.164050E-3
        3.143143          -0.153843E-4       -0.135660E-3
        3.153153           0.654132E-5       -0.107468E-3
        3.163163           0.414133E-4       -0.830269E-4
        3.173173           0.872527E-4       -0.663199E-4
        3.183183           0.143315E-3       -0.627170E-4
        3.193193           0.206159E-3       -0.760391E-4
        3.203203           0.269081E-3       -0.110887E-3
        3.213213           0.325956E-3       -0.168149E-3
        3.223223           0.366774E-3       -0.246431E-3
        3.233233           0.384456E-3       -0.340050E-3
        3.243243           0.372222E-3       -0.439461E-3
        3.253253           0.330331E-3       -0.532894E-3
        3.263263           0.262758E-3       -0.609851E-3
        3.273273           0.178593E-3       -0.663313E-3
        3.283283           0.874413E-4       -0.689700E-3
        3.293293           0.110636E-5       -0.692246E-3
        3.303303          -0.739948E-4       -0.676995E-3
        3.313313          -0.136346E-3       -0.650141E-3
        3.323323          -0.185867E-3       -0.619681E-3
        3.333333          -0.226583E-3       -0.588257E-3
        3.343343          -0.258082E-3       -0.557998E-3
        3.353353          -0.286347E-3       -0.531666E-3
        3.363363          -0.312586E-3       -0.507051E-3
        3.373373          -0.338582E-3       -0.483806E-3
        3.383383          -0.366095E-3       -0.461490E-3
        3.393393          -0.396110E-3       -0.437680E-3
        3.403403          -0.427991E-3       -0.410340E-3
        3.413413          -0.462581E-3       -0.377515E-3
        3.423423          -0.497591E-3       -0.336627E-3
        3.433433          -0.532354E-3       -0.286390E-3
        3.443443          -0.562144E-3       -0.224149E-3
        3.453453          -0.582888E-3       -0.150546E-3
        3.463463          -0.588663E-3       -0.657832E-4
        3.473473          -0.573274E-3        0.260921E-4
        3.483483          -0.534663E-3        0.116433E-3
        3.493493          -0.471390E-3        0.196972E-3
        3.503503          -0.387406E-3        0.258024E-3
        3.513513          -0.290676E-3        0.293586E-3
        3.523524          -0.191982E-3        0.299687E-3
        3.533533          -0.102219E-3        0.279848E-3
        3.543543          -0.286290E-4        0.239830E-3
        3.553553           0.264376E-4        0.189235E-3
        3.563564           0.622770E-4        0.134400E-3
        3.573573           0.812675E-4        0.811128E-4
        3.583583           0.875501E-4        0.321038E-4
        3.593593           0.837865E-4       -0.101261E-4
        3.603603           0.742698E-4       -0.455622E-4
        3.613613           0.599611E-4       -0.740706E-4
        3.623623           0.429917E-4       -0.961801E-4
        3.633634           0.246411E-4       -0.112410E-3
        3.643643           0.641757E-5       -0.123962E-3
        3.653653          -0.117658E-4       -0.130521E-3
        3.663663          -0.286589E-4       -0.133020E-3
        3.673674          -0.442013E-4       -0.132341E-3
        3.683683          -0.572712E-4       -0.129159E-3
        3.693693          -0.681984E-4       -0.124164E-3
        3.703704          -0.772767E-4       -0.118122E-3
        3.713714          -0.843511E-4       -0.112081E-3
        3.723723          -0.905667E-4       -0.105954E-3
        3.733733          -0.960834E-4       -0.100235E-3
        3.743744          -0.101873E-3       -0.941601E-4
        3.753754          -0.107978E-3       -0.874794E-4
        3.763763          -0.114327E-3       -0.791610E-4
        3.773773          -0.120379E-3       -0.684377E-4
        3.783784          -0.124978E-3       -0.547620E-4
        3.793794          -0.126290E-3       -0.387111E-4
        3.803803          -0.123446E-3       -0.214851E-4
        3.813814          -0.115618E-3       -0.513262E-5
        3.823824          -0.103257E-3        0.813710E-5
        3.833834          -0.888119E-4        0.172117E-4
        3.843843          -0.738486E-4        0.216644E-4
        3.853854          -0.600195E-4        0.221344E-4
        3.863864          -0.490108E-4        0.200540E-4
        3.873873          -0.404969E-4        0.166181E-4
        3.883883          -0.344776E-4        0.132276E-4
        3.893894          -0.299236E-4        0.104728E-4
        3.903904          -0.266407E-4        0.891408E-5
        3.913913          -0.234730E-4        0.813481E-5
        3.923924          -0.198690E-4        0.784210E-5
        3.933934          -0.160862E-4        0.770156E-5
        3.943944          -0.120578E-4        0.727229E-5
        3.953954          -0.820850E-5        0.650026E-5
        3.963964          -0.457778E-5        0.540379E-5
        3.973974          -0.127645E-5        0.407793E-5
        3.983984           0.153396E-5        0.266658E-5
        3.993994           0.408492E-5        0.127588E-5
        4.004004           0.608366E-5       -0.112013E-6
        4.014014           0.782572E-5       -0.984532E-6
        4.024024           0.948062E-5       -0.173663E-5
        4.034034           0.112266E-4       -0.202315E-5
        4.044044           0.133855E-4       -0.222297E-5
        4.054054           0.159896E-4       -0.280174E-5
        4.064064           0.190060E-4       -0.410444E-5
        4.074074           0.220743E-4       -0.679943E-5
        4.084084           0.243363E-4       -0.112747E-4
        4.094094           0.245290E-4       -0.176537E-4
        4.104104           0.212323E-4       -0.253314E-4
        4.114114           0.130163E-4       -0.328074E-4
        4.124124          -0.826330E-6       -0.375206E-4
        4.134134          -0.196684E-4       -0.364856E-4
        4.144144          -0.412294E-4       -0.268742E-4
        4.154154          -0.621233E-4       -0.683460E-5
        4.164164          -0.778237E-4        0.236293E-4
        4.174174          -0.840796E-4        0.629139E-4
        4.184184          -0.774148E-4        0.107707E-3
        4.194194          -0.558535E-4        0.153399E-3
        4.204204          -0.185077E-4        0.194737E-3
        4.214214           0.331517E-4        0.226221E-3
        4.224224           0.957986E-4        0.242518E-3
        4.234234           0.163864E-3        0.239960E-3
        4.244244           0.230307E-3        0.216923E-3
        4.254254           0.287875E-3        0.174955E-3
        4.264264           0.330260E-3        0.118741E-3
        4.274274           0.353917E-3        0.549568E-4
        4.284284           0.358358E-3       -0.925636E-5
        4.294294           0.346738E-3       -0.675749E-4
        4.304304           0.322710E-3       -0.116257E-3
        4.314314           0.291718E-3       -0.153478E-3
        4.324324           0.257759E-3       -0.179673E-3
        4.334334           0.224156E-3       -0.196276E-3
        4.344344           0.192238E-3       -0.205466E-3
        4.354354           0.163437E-3       -0.209048E-3
        4.364364           0.137508E-3       -0.208588E-3
        4.374374           0.114212E-3       -0.205186E-3
        4.384384           0.933197E-4       -0.199443E-3
        4.394394           0.746445E-4       -0.191572E-3
        4.404404           0.579952E-4       -0.181523E-3
        4.414414           0.436866E-4       -0.169732E-3
        4.424424           0.321300E-4       -0.155865E-3
        4.434434           0.237646E-4       -0.140525E-3
        4.444444           0.192753E-4       -0.124399E-3
        4.454454           0.187589E-4       -0.108470E-3
        4.464464           0.223734E-4       -0.940807E-4
        4.474474           0.291290E-4       -0.826309E-4
        4.484484           0.379896E-4       -0.748419E-4
        4.494494           0.470120E-4       -0.711641E-4
        4.504504           0.547702E-4       -0.708847E-4
        4.514514           0.602719E-4       -0.728737E-4
        4.524524           0.630566E-4       -0.758124E-4
        4.534534           0.633101E-4       -0.783163E-4
        4.544544           0.615894E-4       -0.794981E-4
        4.554554           0.591308E-4       -0.784601E-4
        4.564565           0.570631E-4       -0.753443E-4
        4.574574           0.562768E-4       -0.705917E-4
        4.584584           0.574820E-4       -0.650762E-4
        4.594594           0.607838E-4       -0.595560E-4
        4.604605           0.658366E-4       -0.549858E-4
        4.614614           0.722715E-4       -0.517451E-4
        4.624624           0.794326E-4       -0.502559E-4
        4.634634           0.867453E-4       -0.504133E-4
        4.644644           0.938693E-4       -0.521401E-4
        4.654655           0.100192E-3       -0.551453E-4
        4.664664           0.105680E-3       -0.588886E-4
        4.674675           0.110487E-3       -0.630646E-4
        4.684684           0.114811E-3       -0.671391E-4
        4.694695           0.119245E-3       -0.714762E-4
        4.704704           0.124253E-3       -0.761445E-4
        4.714715           0.129772E-3       -0.821502E-4
        4.724724           0.135629E-3       -0.901329E-4
        4.734735           0.140878E-3       -0.100742E-3
        4.744744           0.144140E-3       -0.114254E-3
        4.754755           0.143747E-3       -0.129806E-3
        4.764764           0.138917E-3       -0.145997E-3
        4.774775           0.129546E-3       -0.160047E-3
        4.784785           0.117369E-3       -0.170431E-3
        4.794795           0.105309E-3       -0.176428E-3
        4.804804           0.958115E-4       -0.180115E-3
        4.814815           0.894108E-4       -0.185059E-3
        4.824825           0.838274E-4       -0.194346E-3
        4.834835           0.747795E-4       -0.208681E-3
        4.844844           0.575621E-4       -0.225729E-3
        4.854855           0.297463E-4       -0.240407E-3
        4.864865          -0.702697E-5       -0.246492E-3
        4.874875          -0.478614E-4       -0.239222E-3
        4.884884          -0.863853E-4       -0.218148E-3
        4.894895          -0.116828E-3       -0.185664E-3
        4.904905          -0.135353E-3       -0.146265E-3
        4.914915          -0.141699E-3       -0.105867E-3
        4.924924          -0.137591E-3       -0.686551E-4
        4.934935          -0.126138E-3       -0.372120E-4
        4.944945          -0.110917E-3       -0.123981E-4
        4.954955          -0.944396E-4        0.655177E-5
        4.964964          -0.782544E-4        0.208999E-4
        4.974975          -0.633154E-4        0.320582E-4
        4.984985          -0.498462E-4        0.412154E-4
        4.994995          -0.376767E-4        0.493054E-4
        5.005005          -0.264191E-4        0.573084E-4
        5.015015          -0.155481E-4        0.655149E-4
        5.025025          -0.442341E-5        0.742764E-4
        5.035035           0.756107E-5        0.837052E-4
        5.045045           0.211677E-4        0.935739E-4
        5.055055           0.370367E-4        0.103537E-3
        5.065065           0.557222E-4        0.112861E-3
        5.075075           0.775742E-4        0.120682E-3
        5.085085           0.102413E-3        0.125845E-3
        5.095095           0.129883E-3        0.127515E-3
        5.105105           0.159370E-3        0.124933E-3
        5.115115           0.190217E-3        0.117440E-3
        5.125125           0.221682E-3        0.104626E-3
        5.135135           0.253363E-3        0.858204E-4
        5.145144           0.284204E-3        0.601758E-4
        5.155155           0.312921E-3        0.264487E-4
        5.165165           0.336845E-3       -0.163648E-4
        5.175175           0.352466E-3       -0.681882E-4
        5.185184           0.355498E-3       -0.127223E-3
        5.195195           0.342331E-3       -0.189176E-3
        5.205205           0.311449E-3       -0.247963E-3
        5.215215           0.264516E-3       -0.296884E-3
        5.225225           0.206029E-3       -0.330416E-3
        5.235235           0.142572E-3       -0.346094E-3
        5.245245           0.808212E-4       -0.344408E-3
        5.255255           0.259021E-4       -0.328530E-3
        5.265265          -0.190919E-4       -0.302917E-3
        5.275275          -0.535802E-4       -0.271893E-3
        5.285285          -0.783561E-4       -0.239224E-3
        5.295295          -0.951958E-4       -0.207182E-3
        5.305305          -0.105899E-3       -0.177377E-3
        5.315315          -0.112190E-3       -0.150149E-3
        5.325325          -0.115589E-3       -0.125387E-3
        5.335335          -0.117100E-3       -0.102983E-3
        5.345345          -0.117155E-3       -0.824135E-4
        5.355355          -0.116480E-3       -0.634212E-4
        5.365365          -0.114936E-3       -0.455961E-4
        5.375375          -0.112839E-3       -0.286494E-4
        5.385385          -0.110340E-3       -0.121684E-4
        5.395395          -0.107072E-3        0.387566E-5
        5.405405          -0.103075E-3        0.192258E-4
        5.415415          -0.983767E-4        0.343109E-4
        5.425425          -0.931227E-4        0.486973E-4
        5.435435          -0.869738E-4        0.625839E-4
        5.445445          -0.805526E-4        0.757571E-4
        5.455455          -0.737691E-4        0.883372E-4
        5.465465          -0.668639E-4        0.100492E-3
        5.475475          -0.601182E-4        0.112405E-3
        5.485485          -0.531106E-4        0.124415E-3
        5.495495          -0.458384E-4        0.136659E-3
        5.505505          -0.382885E-4        0.149050E-3
        5.515515          -0.299128E-4        0.161972E-3
        5.525526          -0.209280E-4        0.174972E-3
        5.535535          -0.109001E-4        0.188154E-3
        5.545545          -0.115727E-6        0.201279E-3
        5.555555           0.115274E-4        0.214458E-3
        5.565566           0.239657E-4        0.227850E-3
        5.575575           0.374167E-4        0.241689E-3
        5.585585           0.521122E-4        0.255964E-3
        5.595595           0.686602E-4        0.270906E-3
        5.605606           0.875205E-4        0.286093E-3
        5.615615           0.108996E-3        0.301318E-3
        5.625625           0.133605E-3        0.315811E-3
        5.635635           0.161210E-3        0.329125E-3
        5.645645           0.191953E-3        0.340722E-3
        5.655655           0.225819E-3        0.350263E-3
        5.665665           0.262877E-3        0.357047E-3
        5.675675           0.303220E-3        0.360833E-3
        5.685685           0.347391E-3        0.360547E-3
        5.695695           0.395264E-3        0.354802E-3
        5.705705           0.446275E-3        0.341761E-3
        5.715715           0.499337E-3        0.319027E-3
        5.725725           0.551746E-3        0.285479E-3
        5.735735           0.599721E-3        0.239950E-3
        5.745746           0.639416E-3        0.182954E-3
        5.755755           0.666895E-3        0.117663E-3
        5.765765           0.679647E-3        0.483021E-4
        5.775775           0.676919E-3       -0.204889E-4
        5.785786           0.660973E-3       -0.837998E-4
        5.795795           0.634551E-3       -0.138467E-3
        5.805805           0.602069E-3       -0.182947E-3
        5.815815           0.566663E-3       -0.217692E-3
        5.825826           0.530811E-3       -0.243700E-3
        5.835835           0.495440E-3       -0.263332E-3
        5.845845           0.461887E-3       -0.276631E-3
        5.855855           0.429747E-3       -0.284933E-3
        5.865866           0.399500E-3       -0.288504E-3
        5.875876           0.372449E-3       -0.286537E-3
        5.885885           0.349632E-3       -0.280653E-3
        5.895895           0.332398E-3       -0.271625E-3
        5.905906           0.322396E-3       -0.261834E-3
        5.915915           0.318305E-3       -0.254369E-3
        5.925925           0.319171E-3       -0.252529E-3
        5.935935           0.320622E-3       -0.256680E-3
        5.945946           0.319781E-3       -0.267105E-3
        5.955956           0.313192E-3       -0.280208E-3
        5.965966           0.301274E-3       -0.292290E-3
        5.975976           0.284765E-3       -0.300474E-3
        5.985986           0.268063E-3       -0.302810E-3
        5.995996           0.252529E-3       -0.300293E-3
        6.006006           0.241791E-3       -0.294960E-3
        6.016016           0.236501E-3       -0.287959E-3
        6.026026           0.236282E-3       -0.282788E-3
        6.036036           0.240946E-3       -0.281676E-3
        6.046046           0.248741E-3       -0.287173E-3
        6.056056           0.256147E-3       -0.300652E-3
        6.066066           0.259518E-3       -0.321828E-3
        6.076076           0.255341E-3       -0.349146E-3
        6.086086           0.241051E-3       -0.378988E-3
        6.096096           0.215642E-3       -0.406684E-3
        6.106106           0.181388E-3       -0.428131E-3
        6.116116           0.141202E-3       -0.440507E-3
        6.126126           0.992558E-4       -0.442707E-3
        6.136136           0.586706E-4       -0.435406E-3
        6.146146           0.217545E-4       -0.420585E-3
        6.156156          -0.921690E-5       -0.400014E-3
        6.166166          -0.341357E-4       -0.376129E-3
        6.176176          -0.530347E-4       -0.350508E-3
        6.186186          -0.659766E-4       -0.325006E-3
        6.196196          -0.742238E-4       -0.301134E-3
        6.206206          -0.787469E-4       -0.279533E-3
        6.216216          -0.806978E-4       -0.260805E-3
        6.226226          -0.801234E-4       -0.245391E-3
        6.236236          -0.796924E-4       -0.232831E-3
        6.246246          -0.788875E-4       -0.223451E-3
        6.256256          -0.797389E-4       -0.216335E-3
        6.266266          -0.820401E-4       -0.211223E-3
        6.276276          -0.862187E-4       -0.207584E-3
        6.286286          -0.934362E-4       -0.204561E-3
        6.296296          -0.103143E-3       -0.201348E-3
        6.306306          -0.115632E-3       -0.197189E-3
        6.316316          -0.130515E-3       -0.191060E-3
        6.326326          -0.147871E-3       -0.182058E-3
        6.336336          -0.166207E-3       -0.169716E-3
        6.346346          -0.184926E-3       -0.153464E-3
        6.356356          -0.203466E-3       -0.133247E-3
        6.366366          -0.220340E-3       -0.109449E-3
        6.376376          -0.234671E-3       -0.823797E-4
        6.386386          -0.246774E-3       -0.525816E-4
        6.396396          -0.255729E-3       -0.207725E-4
        6.406406          -0.261760E-3        0.126180E-4
        6.416416          -0.264771E-3        0.471139E-4
        6.426426          -0.265252E-3        0.823447E-4
        6.436436          -0.262907E-3        0.118062E-3
        6.446446          -0.258793E-3        0.154555E-3
        6.456456          -0.252857E-3        0.192322E-3
        6.466466          -0.244899E-3        0.231969E-3
        6.476476          -0.233864E-3        0.274378E-3
        6.486486          -0.218832E-3        0.320179E-3
        6.496496          -0.197761E-3        0.369403E-3
        6.506506          -0.168616E-3        0.421139E-3
        6.516516          -0.128970E-3        0.473801E-3
        6.526526          -0.772308E-4        0.524510E-3
        6.536536          -0.123590E-4        0.568836E-3
        6.546546           0.648145E-4        0.602396E-3
        6.556556           0.150118E-3        0.620006E-3
        6.566566           0.238861E-3        0.618989E-3
        6.576576           0.322788E-3        0.598241E-3
        6.586586           0.394888E-3        0.561459E-3
        6.596596           0.450627E-3        0.516514E-3
        6.606606           0.489210E-3        0.471540E-3
        6.616616           0.514551E-3        0.434332E-3
        6.626626           0.535281E-3        0.409267E-3
        6.636636           0.558780E-3        0.395417E-3
        6.646646           0.592125E-3        0.390841E-3
        6.656656           0.640184E-3        0.388166E-3
        6.666666           0.705190E-3        0.379492E-3
        6.676676           0.786872E-3        0.356698E-3
        6.686686           0.880890E-3        0.310292E-3
        6.696696           0.978500E-3        0.232178E-3
        6.706707           0.001066           0.117145E-3
        6.716716           0.001128          -0.320823E-4
        6.726726           0.001149          -0.205879E-3
        6.736736           0.001118          -0.387422E-3
        6.746747           0.001036          -0.554970E-3
        6.756756           0.912212E-3       -0.691064E-3
        6.766766           0.763154E-3       -0.782873E-3
        6.776776           0.606462E-3       -0.829406E-3
        6.786787           0.457972E-3       -0.834904E-3
        6.796796           0.327349E-3       -0.809252E-3
        6.806807           0.219860E-3       -0.762567E-3
        6.816816           0.135692E-3       -0.703460E-3
        6.826826           0.729257E-4       -0.639614E-3
        6.836837           0.286186E-4       -0.576408E-3
        6.846846          -0.631275E-7       -0.516654E-3
        6.856857          -0.170155E-4       -0.462552E-3
        6.866867          -0.250690E-4       -0.415303E-3
        6.876876          -0.266341E-4       -0.374839E-3
        6.886887          -0.237816E-4       -0.341015E-3
        6.896896          -0.183321E-4       -0.313868E-3
        6.906906          -0.119907E-4       -0.292141E-3
        6.916917          -0.515791E-5       -0.275957E-3
        6.926927           0.167446E-5       -0.264560E-3
        6.936936           0.709737E-5       -0.257925E-3
        6.946947           0.980975E-5       -0.255743E-3
        6.956956           0.845969E-5       -0.256906E-3
        6.966967           0.206958E-5       -0.260806E-3
        6.976976          -0.107892E-4       -0.264361E-3
        6.986986          -0.295900E-4       -0.265631E-3
        6.996997          -0.533933E-4       -0.262059E-3
        7.007007          -0.798432E-4       -0.252249E-3
        7.017016          -0.107205E-3       -0.235822E-3
        7.027027          -0.133226E-3       -0.212146E-3
        7.037036          -0.156129E-3       -0.182671E-3
        7.047047          -0.174844E-3       -0.147731E-3
        7.057057          -0.187432E-3       -0.108955E-3
        7.067066          -0.193758E-3       -0.675631E-4
        7.077077          -0.192952E-3       -0.252016E-4
        7.087087          -0.185227E-3        0.160146E-4
        7.097096          -0.171512E-3        0.545048E-4
        7.107107          -0.153513E-3        0.893643E-4
        7.117116          -0.132581E-3        0.120274E-3
        7.127127          -0.110093E-3        0.147904E-3
        7.137137          -0.864626E-4        0.173154E-3
        7.147147          -0.612075E-4        0.196301E-3
        7.157157          -0.346102E-4        0.218290E-3
        7.167167          -0.550645E-5        0.238811E-3
        7.177176           0.269147E-4        0.257569E-3
        7.187187           0.635835E-4        0.273760E-3
        7.197196           0.103660E-3        0.285325E-3
        7.207206           0.147774E-3        0.291133E-3
        7.217217           0.194101E-3        0.288302E-3
        7.227227           0.239380E-3        0.276068E-3
        7.237237           0.281549E-3        0.253938E-3
        7.247247           0.315847E-3        0.223969E-3
        7.257257           0.340335E-3        0.189096E-3
        7.267267           0.354112E-3        0.153321E-3
        7.277277           0.357943E-3        0.120244E-3
        7.287286           0.353953E-3        0.931725E-4
        7.297297           0.347704E-3        0.747702E-4
        7.307307           0.340144E-3        0.628637E-4
        7.317317           0.336292E-3        0.578170E-4
        7.327327           0.336655E-3        0.557135E-4
        7.337337           0.342894E-3        0.554959E-4
        7.347347           0.355540E-3        0.538087E-4
        7.357357           0.373514E-3        0.478181E-4
        7.367367           0.395801E-3        0.342992E-4
        7.377377           0.418318E-3        0.110222E-4
        7.387387           0.436257E-3       -0.232137E-4
        7.397398           0.444757E-3       -0.668471E-4
        7.407407           0.439003E-3       -0.115649E-3
        7.417417           0.416459E-3       -0.163227E-3
        7.427427           0.377839E-3       -0.202861E-3
        7.437437           0.328760E-3       -0.228057E-3
        7.447447           0.274211E-3       -0.235912E-3
        7.457457           0.221480E-3       -0.226497E-3
        7.467467           0.176485E-3       -0.201432E-3
        7.477477           0.142464E-3       -0.166385E-3
        7.487487           0.122474E-3       -0.124666E-3
        7.497497           0.115074E-3       -0.803979E-4
        7.507507           0.120125E-3       -0.380177E-4
        7.517517           0.135928E-3        0.612746E-6
        7.527527           0.161072E-3        0.335029E-4
        7.537537           0.194042E-3        0.590939E-4
        7.547547           0.232920E-3        0.759814E-4
        7.557557           0.276666E-3        0.828444E-4
        7.567567           0.322734E-3        0.779269E-4
        7.577577           0.368522E-3        0.597697E-4
        7.587587           0.409927E-3        0.276519E-4
        7.597597           0.441315E-3       -0.171454E-4
        7.607607           0.459133E-3       -0.713520E-4
        7.617618           0.459452E-3       -0.129810E-3
        7.627627           0.441614E-3       -0.184191E-3
        7.637637           0.409682E-3       -0.230011E-3
        7.647647           0.367918E-3       -0.262423E-3
        7.657657           0.322228E-3       -0.280788E-3
        7.667667           0.277822E-3       -0.286450E-3
        7.677677           0.238575E-3       -0.282625E-3
        7.687687           0.205209E-3       -0.272723E-3
        7.697698           0.176076E-3       -0.258479E-3
        7.707707           0.151874E-3       -0.242548E-3
        7.717717           0.131537E-3       -0.225055E-3
        7.727727           0.113622E-3       -0.206305E-3
        7.737737           0.985150E-4       -0.185931E-3
        7.747747           0.856389E-4       -0.164023E-3
        7.757757           0.760056E-4       -0.141211E-3
        7.767767           0.693788E-4       -0.116815E-3
        7.777778           0.657965E-4       -0.917605E-4
        7.787787           0.651094E-4       -0.654012E-4
        7.797797           0.680813E-4       -0.386473E-4
        7.807807           0.744725E-4       -0.112192E-4
        7.817817           0.857632E-4        0.165230E-4
        7.827827           0.101233E-3        0.444504E-4
        7.837838           0.123046E-3        0.715851E-4
        7.847847           0.150717E-3        0.973094E-4
        7.857858           0.186336E-3        0.119837E-3
        7.867867           0.229474E-3        0.136539E-3
        7.877877           0.281164E-3        0.144517E-3
        7.887887           0.338889E-3        0.140263E-3
        7.897897           0.399635E-3        0.119862E-3
        7.907907           0.457391E-3        0.806292E-4
        7.917918           0.505622E-3        0.224168E-4
        7.927927           0.536470E-3       -0.514942E-4
        7.937938           0.543739E-3       -0.134471E-3
        7.947948           0.525419E-3       -0.216538E-3
        7.957957           0.482956E-3       -0.287592E-3
        7.967968           0.424656E-3       -0.341070E-3
        7.977977           0.356852E-3       -0.373529E-3
        7.987987           0.289115E-3       -0.385845E-3
        7.997998           0.225303E-3       -0.380648E-3
        8.008007           0.171556E-3       -0.363307E-3
        8.018017           0.126923E-3       -0.337594E-3
        8.028028           0.924041E-4       -0.307323E-3
        8.038037           0.667405E-4       -0.275114E-3
        8.048048           0.481323E-4       -0.242564E-3
        8.058058           0.366865E-4       -0.210911E-3
        8.068068           0.303889E-4       -0.180652E-3
        8.078078           0.281222E-4       -0.152058E-3
        8.088087           0.299532E-4       -0.126114E-3
        8.098097           0.354950E-4       -0.102114E-3
        8.108108           0.432852E-4       -0.805744E-4
        8.118117           0.537585E-4       -0.621636E-4
        8.128128           0.657771E-4       -0.466509E-4
        8.138138           0.791697E-4       -0.347600E-4
        8.148148           0.927790E-4       -0.266289E-4
        8.158158           0.106120E-3       -0.219085E-4
        8.168168           0.118008E-3       -0.207592E-4
        8.178178           0.127083E-3       -0.216783E-4
        8.188188           0.133117E-3       -0.239525E-4
        8.198197           0.136423E-3       -0.264515E-4
        8.208207           0.137035E-3       -0.275702E-4
        8.218218           0.136074E-3       -0.271126E-4
        8.228228           0.134557E-3       -0.245271E-4
        8.238238           0.132636E-3       -0.201587E-4
        8.248248           0.132047E-3       -0.143276E-4
        8.258258           0.132168E-3       -0.761736E-5
        8.268268           0.132947E-3       -0.994021E-7
        8.278277           0.134839E-3        0.759645E-5
        8.288287           0.138375E-3        0.155721E-4
        8.298298           0.142175E-3        0.236956E-4
        8.308308           0.147405E-3        0.319455E-4
        8.318318           0.153025E-3        0.404181E-4
        8.328328           0.160277E-3        0.484284E-4
        8.338338           0.169242E-3        0.561442E-4
        8.348348           0.179277E-3        0.633457E-4
        8.358357           0.191177E-3        0.695602E-4
        8.368367           0.204249E-3        0.743071E-4
        8.378378           0.219335E-3        0.769484E-4
        8.388388           0.234492E-3        0.773150E-4
        8.398398           0.249866E-3        0.750271E-4
        8.408408           0.265126E-3        0.697913E-4
        8.418418           0.279101E-3        0.621120E-4
        8.428429           0.290761E-3        0.523333E-4
        8.438437           0.300362E-3        0.409789E-4
        8.448447           0.307977E-3        0.285376E-4
        8.458458           0.312416E-3        0.157306E-4
        8.468468           0.314900E-3        0.283306E-5
        8.478477           0.315456E-3       -0.984954E-5
        8.488488           0.314004E-3       -0.218238E-4
        8.498498           0.310345E-3       -0.325796E-4
        8.508509           0.304031E-3       -0.416720E-4
        8.518518           0.296983E-3       -0.490853E-4
        8.528527           0.289622E-3       -0.545642E-4
        8.538538           0.281424E-3       -0.577706E-4
        8.548548           0.273766E-3       -0.589488E-4
        8.558558           0.266414E-3       -0.582812E-4
        8.568568           0.260398E-3       -0.563712E-4
        8.578578           0.255643E-3       -0.537345E-4
        8.588589           0.252138E-3       -0.508134E-4
        8.598598           0.248873E-3       -0.479099E-4
        8.608608           0.245856E-3       -0.450334E-4
        8.618618           0.243759E-3       -0.422002E-4
        8.628628           0.240291E-3       -0.385908E-4
        8.638638           0.236927E-3       -0.339202E-4
        8.648648           0.233947E-3       -0.277510E-4
        8.658658           0.232771E-3       -0.201488E-4
        8.668669           0.232957E-3       -0.112878E-4
        8.678679           0.235242E-3       -0.155133E-5
        8.688688           0.239339E-3        0.850171E-5
        8.698698           0.246920E-3        0.179587E-4
        8.708708           0.256677E-3        0.260792E-4
        8.718718           0.269003E-3        0.323037E-4
        8.728728           0.281562E-3        0.361661E-4
        8.738738           0.297066E-3        0.369049E-4
        8.748748           0.310838E-3        0.349760E-4
        8.758759           0.325341E-3        0.301922E-4
        8.768768           0.337294E-3        0.234023E-4
        8.778779           0.348416E-3        0.147636E-4
        8.788788           0.357529E-3        0.490393E-5
        8.798798           0.365220E-3       -0.582850E-5
        8.808808           0.371636E-3       -0.171238E-4
        8.818818           0.376272E-3       -0.289087E-4
        8.828828           0.379321E-3       -0.409001E-4
        8.838839           0.382461E-3       -0.533880E-4
        8.848848           0.382778E-3       -0.659476E-4
        8.858859           0.382085E-3       -0.788124E-4
        8.868869           0.380475E-3       -0.919911E-4
        8.878878           0.376458E-3       -0.104871E-3
        8.888888           0.370441E-3       -0.117328E-3
        8.898898           0.362916E-3       -0.128818E-3
        8.908908           0.354114E-3       -0.139358E-3
        8.918919           0.343159E-3       -0.147688E-3
        8.928928           0.331620E-3       -0.154014E-3
        8.938939           0.320198E-3       -0.158685E-3
        8.948949           0.308241E-3       -0.161259E-3
        8.958959           0.297577E-3       -0.162917E-3
        8.968968           0.286828E-3       -0.163476E-3
        8.978978           0.276180E-3       -0.163282E-3
        8.988988           0.265475E-3       -0.162114E-3
        8.998999           0.254678E-3       -0.159620E-3
        9.009008           0.244036E-3       -0.155613E-3
        9.019018           0.233360E-3       -0.149441E-3
        9.029029           0.224109E-3       -0.141660E-3
        9.039039           0.216710E-3       -0.132252E-3
        9.049048           0.211577E-3       -0.121861E-3
        9.059058           0.209246E-3       -0.111006E-3
        9.069068           0.208748E-3       -0.100270E-3
        9.079079           0.210430E-3       -0.901824E-4
        9.089088           0.214717E-3       -0.816506E-4
        9.099098           0.220620E-3       -0.750793E-4
        9.109109           0.227311E-3       -0.708037E-4
        9.119119           0.234234E-3       -0.692833E-4
        9.129129           0.240448E-3       -0.704121E-4
        9.139138           0.244723E-3       -0.737241E-4
        9.149148           0.246841E-3       -0.783920E-4
        9.159159           0.246529E-3       -0.833898E-4
        9.169168           0.243804E-3       -0.874959E-4
        9.179178           0.239493E-3       -0.901329E-4
        9.189189           0.233810E-3       -0.909475E-4
        9.199199           0.228399E-3       -0.900924E-4
        9.209209           0.222941E-3       -0.877940E-4
        9.219219           0.218336E-3       -0.845639E-4
        9.229228           0.213705E-3       -0.805447E-4
        9.239239           0.210368E-3       -0.761201E-4
        9.249249           0.207522E-3       -0.711899E-4
        9.259258           0.204888E-3       -0.655904E-4
        9.269269           0.202062E-3       -0.591926E-4
        9.279279           0.200794E-3       -0.520391E-4
        9.289289           0.200343E-3       -0.439684E-4
        9.299299           0.201289E-3       -0.353900E-4
        9.309309           0.204525E-3       -0.268265E-4
        9.319319           0.209585E-3       -0.191632E-4
        9.329329           0.215650E-3       -0.127408E-4
        9.339338           0.223261E-3       -0.796154E-5
        9.349349           0.231193E-3       -0.514123E-5
        9.359359           0.238737E-3       -0.398537E-5
        9.369369           0.245566E-3       -0.424918E-5
        9.379379           0.251934E-3       -0.550012E-5
        9.389389           0.256860E-3       -0.742988E-5
        9.399399           0.261411E-3       -0.993300E-5
        9.409409           0.265365E-3       -0.127594E-4
        9.419418           0.267857E-3       -0.157566E-4
        9.429429           0.270566E-3       -0.190554E-4
        9.439439           0.272194E-3       -0.224627E-4
        9.449449           0.273620E-3       -0.261106E-4
        9.459459           0.273803E-3       -0.297103E-4
        9.469469           0.272944E-3       -0.332591E-4
        9.479479           0.271631E-3       -0.364994E-4
        9.489489           0.269374E-3       -0.391145E-4
        9.499498           0.266263E-3       -0.409707E-4
        9.509509           0.262107E-3       -0.417157E-4
        9.519519           0.258483E-3       -0.414643E-4
        9.529529           0.255815E-3       -0.403274E-4
        9.539539           0.252727E-3       -0.383449E-4
        9.549549           0.250617E-3       -0.358773E-4
        9.559559           0.248717E-3       -0.330854E-4
        9.569570           0.247948E-3       -0.301976E-4
        9.579578           0.247395E-3       -0.273079E-4
        9.589589           0.246933E-3       -0.244890E-4
        9.599599           0.247323E-3       -0.218380E-4
        9.609609           0.247453E-3       -0.193420E-4
        9.619619           0.248156E-3       -0.170211E-4
        9.629629           0.248425E-3       -0.147877E-4
        9.639639           0.249361E-3       -0.127381E-4
        9.649650           0.249617E-3       -0.107667E-4
        9.659659           0.250318E-3       -0.893080E-5
        9.669669           0.250744E-3       -0.710854E-5
        9.679679           0.251411E-3       -0.535516E-5
        9.689689           0.251864E-3       -0.366195E-5
        9.699699           0.252207E-3       -0.195011E-5
        9.709709           0.252615E-3       -0.201605E-6
        9.719719           0.252765E-3        0.157590E-5
        9.729730           0.253188E-3        0.343440E-5
        9.739739           0.252895E-3        0.536261E-5
        9.749749           0.252950E-3        0.740051E-5
        9.759759           0.253364E-3        0.951738E-5
        9.769769           0.253310E-3        0.117850E-4
        9.779779           0.252519E-3        0.143359E-4
        9.789789           0.252439E-3        0.170518E-4
        9.799799           0.252261E-3        0.200713E-4
        9.809810           0.251745E-3        0.233335E-4
        9.819819           0.251147E-3        0.269985E-4
        9.829829           0.251134E-3        0.310378E-4
        9.839839           0.251063E-3        0.355360E-4
        9.849849           0.250993E-3        0.405616E-4
        9.859859           0.251015E-3        0.461823E-4
        9.869869           0.251747E-3        0.524545E-4
        9.879879           0.252889E-3        0.593641E-4
        9.889890           0.254054E-3        0.670113E-4
        9.899899           0.257011E-3        0.752308E-4
        9.909909           0.260987E-3        0.840159E-4
        9.919919           0.265933E-3        0.931521E-4
        9.929929           0.273319E-3        0.102415E-3
        9.939939           0.281903E-3        0.111304E-3
        9.949949           0.292035E-3        0.119500E-3
        9.959959           0.303977E-3        0.126465E-3
        9.969970           0.316812E-3        0.132058E-3
        9.979980           0.331884E-3        0.135917E-3
        9.989989           0.346070E-3        0.138315E-3
        10.00000           0.361836E-3        0.139266E-3
# 
# 10/07/2024 at 12:22 yambo_rt @ baym [start]
# 10/07/2024 at 12:22                 [end]
#
# .-Input file  yambo.in
# | optics                           # [R] Linear Response optical properties
# | dipoles                          # [R] Oscillator strenghts (or dipoles)
# | bse                              # [R][BSE] Bethe Salpeter Equation.
# | BoseTemp= 0.000000         eV    # Bosonic Temperature
# | FFTGvecs=  3525            RL    # [FFT] Plane-waves
# | DIP_Threads= 1                   # [OPENMP/X] Number of threads for dipoles
# | BS_nCPU_LinAlg_INV= 1            # [PARALLEL] CPUs for Linear Algebra (if -1 it is automatically set)
# | BS_nCPU_LinAlg_DIAGO= 1          # [PARALLEL] CPUs for Linear Algebra (if -1 it is automatically set)
# | X_Threads= 1                     # [OPENMP/X] Number of threads for response functions
# | K_Threads= 1                     # [OPENMP/BSK] Number of threads for response functions
# | BSKmod= "IP"                     # [BSE] IP/Hartree/HF/ALDA/SEX/BSfxc
# | BSEmod= "retarded"               # [BSE] resonant/retarded/coupling
# | % DipBands
# |   5 | 14 |                           # [DIP] Bands range for dipoles
# | %
# | DipComputed= "R V P"             # [DIP] [default R P V; extra P2 Spin Orb]
# | BSENGexx= 19641            RL    # [BSK] Exchange components
# | KfnRTdb= "f @ 20 fs < 08_rt/ndb.RT_carriers" # [EXTRT BSK BSS] Database
# | % BSEQptR
# |  1 | 1 |                             # [BSK] Transferred momenta range
# | %
# | % BSEBands
# |   5 | 14 |                           # [BSK] Bands range
# | %
# | RTOccMode= "R"                   # [RT-BSE] (K)ernel/(R)esiduals. BSE components to be corrected with the TD occupations
# | ForceEqTrans                   # [RT-BSE] Use only equilibrium transitions
# | % BEnRange
# |   0.00000 | 10.00000 |         eV    # [BSS] Energy range
# | %
# | % BDmRange
# |  0.100000 | 0.100000 |         eV    # [BSS] Damping range
# | %
# | BEnSteps= 1000                   # [BSS] Energy steps
# | % BLongDir
# |  0.100000E-4 |  0.00000    |  0.00000    # [BSS] [cc] Electric Field
# | %
# | BSEprop= "abs kerr jdos"         # [BSS] Can be any among abs/jdos/kerr/magn/dich/photolum/esrt
# | BSEdips= "xy"                    # [BSS] Can be "trace/none" or "xy/xz/yz" to define off-diagonal rotation plane
