#                                                                     
#  ____  ____     _       ____    ____  ______      ___               
# |_  _||_  _|   / \     |_   \  /   _||_   _ \   ."   `.             
#   \ \  / /    / _ \      |   \/   |    | |_) | /  .-.  \            
#    \ \/ /    / ___ \     | |\  /| |    |  __". | |   | |            
#    _|  |_  _/ /   \ \_  _| |_\/_| |_  _| |__) |\  `-"  /            
#   |______||____| |____||_____||_____||_______/  `.___."             
#                                                                     
#                                                                     
#                                                                     
# Version 5.2.0 Revision 23411 Hash (prev commit) d7901dc72b          
#                  Branch is yoda/develop                             
#          MPI+OpenMP+SLK+SLEPC+HDF5_MPI_IO Build                     
#                 http://www.yambo-code.eu                            
#
# Off-diagonal Absorption @ Q(1):   1.00000000      0.00000000      0.00000000    [q->0 direction]
# [DIP] Rotation plane                            : xz
#
# [GEN] GF Energies                               : Perdew, Burke & Ernzerhof(X)+Perdew, Burke & Ernzerhof(C)
# [GEN] Green`s Function                          : Resonant
#
# [GEN] Gauge                                     : Length
# [GEN] [r,Vnl] included                          : yes
#
# DIP band range                                  :   6  14
# DIP band range limits                           :  14   6
# DIP e/h energy range                            :  -1.00000000     -1.00000000    [eV]
# RL vectors in the sum                           :   3525
# [r,Vnl] included                                : yes
# Bands ordered                                   : yes
# Direct v evaluation                             : no
# Approach used                                   : G-space v
# Dipoles computed                                : R V P [G-space]
# Wavefunctions                                   : Perdew, Burke & Ernzerhof(X)+Perdew, Burke & Ernzerhof(C)
#
# Anomalous Hall effect (B_Hall)                  
# B_Hall (IP)                                     : -0.158736771E-5 [fs]^-1
#                                                 : -0.176618469E-2 [Ohm*cm]^-1
#                                                 :  -725.590332    [e^2/hbar]
#
#    E[1] [eV]          Im(off)            Re(off)
#
        0.000000           0.000000          -0.120326E-3
        0.010010          -0.115351E-6       -0.120782E-3
        0.020020          -0.145670E-6       -0.119726E-3
        0.030030           0.264389E-7       -0.118772E-3
        0.040040           0.447058E-6       -0.118186E-3
        0.050050           0.148176E-5       -0.116173E-3
        0.060060           0.299269E-5       -0.114597E-3
        0.070070           0.484468E-5       -0.112673E-3
        0.080080           0.754226E-5       -0.110540E-3
        0.090090           0.106392E-4       -0.108866E-3
        0.100100           0.146964E-4       -0.107860E-3
        0.110110           0.193023E-4       -0.107450E-3
        0.120120           0.241737E-4       -0.107459E-3
        0.130130           0.293814E-4       -0.109013E-3
        0.140140           0.338847E-4       -0.111227E-3
        0.150150           0.384954E-4       -0.115311E-3
        0.160160           0.419274E-4       -0.119332E-3
        0.170170           0.444516E-4       -0.124644E-3
        0.180180           0.458148E-4       -0.129861E-3
        0.190190           0.466409E-4       -0.135313E-3
        0.200200           0.461556E-4       -0.139977E-3
        0.210210           0.440936E-4       -0.144770E-3
        0.220220           0.418374E-4       -0.148698E-3
        0.230230           0.391180E-4       -0.151850E-3
        0.240240           0.358090E-4       -0.154289E-3
        0.250250           0.320760E-4       -0.155799E-3
        0.260260           0.289912E-4       -0.156524E-3
        0.270270           0.256056E-4       -0.156298E-3
        0.280280           0.225272E-4       -0.155292E-3
        0.290290           0.202386E-4       -0.153743E-3
        0.300300           0.187454E-4       -0.151703E-3
        0.310310           0.181424E-4       -0.149557E-3
        0.320320           0.179853E-4       -0.147655E-3
        0.330330           0.184935E-4       -0.146002E-3
        0.340340           0.193191E-4       -0.144518E-3
        0.350350           0.203432E-4       -0.143657E-3
        0.360360           0.217026E-4       -0.143031E-3
        0.370370           0.227021E-4       -0.142808E-3
        0.380380           0.235967E-4       -0.142676E-3
        0.390390           0.245800E-4       -0.142864E-3
        0.400400           0.253862E-4       -0.143098E-3
        0.410410           0.260520E-4       -0.143392E-3
        0.420420           0.265323E-4       -0.143755E-3
        0.430430           0.269109E-4       -0.144162E-3
        0.440440           0.273553E-4       -0.144500E-3
        0.450450           0.275704E-4       -0.144793E-3
        0.460460           0.276985E-4       -0.145075E-3
        0.470470           0.277582E-4       -0.145379E-3
        0.480480           0.278735E-4       -0.145425E-3
        0.490490           0.279329E-4       -0.145526E-3
        0.500500           0.279450E-4       -0.145481E-3
        0.510511           0.279479E-4       -0.145370E-3
        0.520521           0.279975E-4       -0.145161E-3
        0.530531           0.280644E-4       -0.145054E-3
        0.540541           0.281180E-4       -0.144647E-3
        0.550551           0.282601E-4       -0.144292E-3
        0.560561           0.283922E-4       -0.143844E-3
        0.570571           0.286238E-4       -0.143329E-3
        0.580581           0.289214E-4       -0.142661E-3
        0.590591           0.292577E-4       -0.142011E-3
        0.600601           0.296516E-4       -0.141444E-3
        0.610611           0.301776E-4       -0.140696E-3
        0.620621           0.307420E-4       -0.139863E-3
        0.630631           0.314006E-4       -0.139054E-3
        0.640641           0.321355E-4       -0.138085E-3
        0.650651           0.329639E-4       -0.137155E-3
        0.660661           0.338889E-4       -0.136247E-3
        0.670671           0.349242E-4       -0.135310E-3
        0.680681           0.360978E-4       -0.134206E-3
        0.690691           0.374179E-4       -0.133084E-3
        0.700701           0.389097E-4       -0.131645E-3
        0.710711           0.405938E-4       -0.130385E-3
        0.720721           0.425605E-4       -0.128963E-3
        0.730731           0.447943E-4       -0.127409E-3
        0.740741           0.473571E-4       -0.125953E-3
        0.750751           0.503266E-4       -0.124410E-3
        0.760761           0.537257E-4       -0.122977E-3
        0.770771           0.576217E-4       -0.121742E-3
        0.780781           0.620381E-4       -0.120698E-3
        0.790791           0.670598E-4       -0.119934E-3
        0.800801           0.727194E-4       -0.119368E-3
        0.810811           0.790177E-4       -0.119762E-3
        0.820821           0.859508E-4       -0.120699E-3
        0.830831           0.934934E-4       -0.122603E-3
        0.840841           0.101467E-3       -0.125819E-3
        0.850851           0.109652E-3       -0.130701E-3
        0.860861           0.117690E-3       -0.137396E-3
        0.870871           0.125088E-3       -0.145804E-3
        0.880881           0.131305E-3       -0.155983E-3
        0.890891           0.135703E-3       -0.167921E-3
        0.900901           0.137834E-3       -0.180804E-3
        0.910911           0.137435E-3       -0.194062E-3
        0.920921           0.134526E-3       -0.206866E-3
        0.930931           0.129356E-3       -0.218610E-3
        0.940941           0.122485E-3       -0.228912E-3
        0.950951           0.114445E-3       -0.237345E-3
        0.960961           0.105822E-3       -0.243949E-3
        0.970971           0.970773E-4       -0.248866E-3
        0.980981           0.885475E-4       -0.252193E-3
        0.990991           0.804489E-4       -0.254550E-3
        1.001001           0.728950E-4       -0.255757E-3
        1.011011           0.659243E-4       -0.256285E-3
        1.021021           0.595615E-4       -0.256353E-3
        1.031031           0.537491E-4       -0.256044E-3
        1.041041           0.484413E-4       -0.255607E-3
        1.051051           0.435788E-4       -0.254907E-3
        1.061061           0.391019E-4       -0.254141E-3
        1.071071           0.349568E-4       -0.253445E-3
        1.081081           0.310845E-4       -0.252775E-3
        1.091091           0.274383E-4       -0.252041E-3
        1.101101           0.239467E-4       -0.251351E-3
        1.111111           0.205943E-4       -0.250970E-3
        1.121121           0.173135E-4       -0.250367E-3
        1.131131           0.140737E-4       -0.250028E-3
        1.141141           0.108146E-4       -0.249860E-3
        1.151151           0.751603E-5       -0.249619E-3
        1.161161           0.412120E-5       -0.249479E-3
        1.171171           0.584223E-6       -0.249259E-3
        1.181181          -0.312907E-5       -0.249417E-3
        1.191191          -0.706056E-5       -0.249245E-3
        1.201201          -0.112989E-4       -0.249365E-3
        1.211211          -0.158644E-4       -0.249349E-3
        1.221221          -0.207912E-4       -0.249081E-3
        1.231231          -0.261534E-4       -0.248537E-3
        1.241241          -0.319842E-4       -0.247881E-3
        1.251251          -0.383086E-4       -0.246646E-3
        1.261261          -0.451507E-4       -0.244802E-3
        1.271271          -0.524676E-4       -0.242492E-3
        1.281281          -0.602170E-4       -0.238780E-3
        1.291291          -0.682368E-4       -0.234004E-3
        1.301301          -0.762856E-4       -0.227936E-3
        1.311311          -0.839971E-4       -0.219998E-3
        1.321321          -0.909057E-4       -0.210636E-3
        1.331331          -0.964631E-4       -0.199470E-3
        1.341341          -0.100148E-3       -0.186962E-3
        1.351351          -0.101545E-3       -0.173710E-3
        1.361361          -0.100496E-3       -0.160674E-3
        1.371371          -0.971014E-4       -0.148051E-3
        1.381381          -0.917072E-4       -0.136909E-3
        1.391391          -0.848224E-4       -0.127143E-3
        1.401401          -0.769958E-4       -0.119200E-3
        1.411411          -0.687241E-4       -0.113125E-3
        1.421421          -0.604130E-4       -0.108687E-3
        1.431431          -0.523696E-4       -0.105783E-3
        1.441441          -0.447815E-4       -0.103844E-3
        1.451451          -0.377812E-4       -0.102937E-3
        1.461461          -0.314397E-4       -0.102966E-3
        1.471471          -0.257854E-4       -0.103334E-3
        1.481481          -0.208494E-4       -0.104668E-3
        1.491491          -0.165886E-4       -0.105827E-3
        1.501501          -0.129836E-4       -0.107189E-3
        1.511511          -0.995315E-5       -0.108717E-3
        1.521521          -0.741684E-5       -0.110044E-3
        1.531531          -0.529600E-5       -0.111583E-3
        1.541541          -0.350817E-5       -0.112547E-3
        1.551551          -0.198616E-5       -0.113825E-3
        1.561561          -0.663597E-6       -0.114786E-3
        1.571571           0.490042E-6       -0.115519E-3
        1.581581           0.150989E-5       -0.116184E-3
        1.591591           0.243245E-5       -0.116563E-3
        1.601601           0.325671E-5       -0.117089E-3
        1.611611           0.402164E-5       -0.117452E-3
        1.621622           0.470383E-5       -0.117969E-3
        1.631632           0.533843E-5       -0.118150E-3
        1.641642           0.592342E-5       -0.118258E-3
        1.651652           0.646883E-5       -0.118350E-3
        1.661662           0.697013E-5       -0.118504E-3
        1.671672           0.743798E-5       -0.118390E-3
        1.681682           0.787035E-5       -0.118250E-3
        1.691692           0.827444E-5       -0.118325E-3
        1.701702           0.864240E-5       -0.118157E-3
        1.711712           0.899231E-5       -0.118216E-3
        1.721722           0.929239E-5       -0.118097E-3
        1.731732           0.959915E-5       -0.117707E-3
        1.741742           0.987909E-5       -0.117476E-3
        1.751752           0.101454E-4       -0.117115E-3
        1.761762           0.104091E-4       -0.116783E-3
        1.771772           0.106602E-4       -0.116357E-3
        1.781782           0.109215E-4       -0.115921E-3
        1.791792           0.111699E-4       -0.115697E-3
        1.801802           0.114313E-4       -0.115279E-3
        1.811812           0.116749E-4       -0.114715E-3
        1.821822           0.119157E-4       -0.114244E-3
        1.831832           0.121593E-4       -0.113738E-3
        1.841842           0.124025E-4       -0.113205E-3
        1.851852           0.126189E-4       -0.112819E-3
        1.861862           0.128437E-4       -0.112113E-3
        1.871872           0.130720E-4       -0.111435E-3
        1.881882           0.132729E-4       -0.111025E-3
        1.891892           0.134864E-4       -0.110409E-3
        1.901902           0.136809E-4       -0.109555E-3
        1.911912           0.138764E-4       -0.109038E-3
        1.921922           0.140802E-4       -0.108280E-3
        1.931932           0.142591E-4       -0.107672E-3
        1.941942           0.144412E-4       -0.107104E-3
        1.951952           0.146145E-4       -0.106214E-3
        1.961962           0.148088E-4       -0.105443E-3
        1.971972           0.149701E-4       -0.104694E-3
        1.981982           0.151518E-4       -0.103862E-3
        1.991992           0.153262E-4       -0.103176E-3
        2.002002           0.155015E-4       -0.102372E-3
        2.012012           0.156712E-4       -0.101461E-3
        2.022022           0.158554E-4       -0.100624E-3
        2.032032           0.160223E-4       -0.996822E-4
        2.042042           0.161946E-4       -0.987900E-4
        2.052052           0.163624E-4       -0.977577E-4
        2.062062           0.165388E-4       -0.969183E-4
        2.072072           0.167083E-4       -0.959522E-4
        2.082082           0.168671E-4       -0.949860E-4
        2.092092           0.170308E-4       -0.938944E-4
        2.102102           0.171915E-4       -0.929407E-4
        2.112112           0.173515E-4       -0.919937E-4
        2.122122           0.175209E-4       -0.910391E-4
        2.132132           0.177006E-4       -0.897483E-4
        2.142142           0.178747E-4       -0.885886E-4
        2.152152           0.180572E-4       -0.875567E-4
        2.162162           0.182555E-4       -0.863913E-4
        2.172172           0.184469E-4       -0.850762E-4
        2.182182           0.186576E-4       -0.838962E-4
        2.192192           0.188645E-4       -0.826157E-4
        2.202202           0.190838E-4       -0.815371E-4
        2.212212           0.193074E-4       -0.803814E-4
        2.222222           0.195379E-4       -0.791356E-4
        2.232232           0.197625E-4       -0.776904E-4
        2.242242           0.199950E-4       -0.763717E-4
        2.252252           0.202421E-4       -0.749196E-4
        2.262262           0.204766E-4       -0.736430E-4
        2.272272           0.207106E-4       -0.722118E-4
        2.282282           0.209474E-4       -0.709305E-4
        2.292292           0.212160E-4       -0.693333E-4
        2.302302           0.214325E-4       -0.680323E-4
        2.312312           0.217111E-4       -0.663698E-4
        2.322322           0.219331E-4       -0.648755E-4
        2.332332           0.221795E-4       -0.631925E-4
        2.342342           0.224346E-4       -0.617380E-4
        2.352352           0.226730E-4       -0.601581E-4
        2.362362           0.229170E-4       -0.585169E-4
        2.372372           0.231773E-4       -0.567913E-4
        2.382382           0.234777E-4       -0.552534E-4
        2.392392           0.237402E-4       -0.535090E-4
        2.402402           0.240215E-4       -0.517183E-4
        2.412412           0.243136E-4       -0.498496E-4
        2.422422           0.246351E-4       -0.481582E-4
        2.432432           0.249475E-4       -0.462286E-4
        2.442442           0.252856E-4       -0.444456E-4
        2.452452           0.256079E-4       -0.423432E-4
        2.462462           0.259929E-4       -0.403536E-4
        2.472472           0.263337E-4       -0.384275E-4
        2.482482           0.267383E-4       -0.364888E-4
        2.492492           0.271330E-4       -0.343108E-4
        2.502502           0.275393E-4       -0.321047E-4
        2.512512           0.279310E-4       -0.302628E-4
        2.522522           0.283345E-4       -0.277891E-4
        2.532532           0.288585E-4       -0.257036E-4
        2.542542           0.292451E-4       -0.236303E-4
        2.552552           0.296793E-4       -0.212949E-4
        2.562562           0.301378E-4       -0.190101E-4
        2.572572           0.305947E-4       -0.165504E-4
        2.582582           0.310475E-4       -0.142374E-4
        2.592592           0.315213E-4       -0.117285E-4
        2.602602           0.319912E-4       -0.929656E-5
        2.612612           0.324418E-4       -0.666207E-5
        2.622622           0.329857E-4       -0.399046E-5
        2.632632           0.334991E-4       -0.132451E-5
        2.642642           0.340030E-4        0.122674E-5
        2.652653           0.346124E-4        0.416594E-5
        2.662663           0.350506E-4        0.706867E-5
        2.672673           0.356988E-4        0.996457E-5
        2.682683           0.362345E-4        0.129259E-4
        2.692693           0.369452E-4        0.158741E-4
        2.702703           0.376761E-4        0.191557E-4
        2.712713           0.381662E-4        0.222823E-4
        2.722723           0.389759E-4        0.254259E-4
        2.732733           0.397757E-4        0.286993E-4
        2.742743           0.405668E-4        0.320612E-4
        2.752753           0.412635E-4        0.354940E-4
        2.762763           0.422134E-4        0.390441E-4
        2.772773           0.428991E-4        0.425782E-4
        2.782783           0.439411E-4        0.463208E-4
        2.792793           0.450043E-4        0.500228E-4
        2.802803           0.461230E-4        0.536537E-4
        2.812813           0.469062E-4        0.576696E-4
        2.822823           0.478565E-4        0.614970E-4
        2.832833           0.488798E-4        0.654778E-4
        2.842843           0.503767E-4        0.700674E-4
        2.852853           0.514448E-4        0.742794E-4
        2.862863           0.530940E-4        0.788334E-4
        2.872873           0.542252E-4        0.831103E-4
        2.882883           0.554390E-4        0.871578E-4
        2.892893           0.571082E-4        0.921703E-4
        2.902903           0.587817E-4        0.974821E-4
        2.912913           0.604150E-4        0.102165E-3
        2.922923           0.623956E-4        0.106570E-3
        2.932933           0.641894E-4        0.112164E-3
        2.942943           0.664021E-4        0.117730E-3
        2.952953           0.686795E-4        0.122489E-3
        2.962963           0.709126E-4        0.128263E-3
        2.972973           0.735387E-4        0.133346E-3
        2.982983           0.763613E-4        0.138869E-3
        2.992993           0.793493E-4        0.144676E-3
        3.003003           0.825125E-4        0.150633E-3
        3.013013           0.857892E-4        0.156103E-3
        3.023023           0.895977E-4        0.161290E-3
        3.033033           0.936493E-4        0.166843E-3
        3.043043           0.977459E-4        0.172710E-3
        3.053053           0.102205E-3        0.177687E-3
        3.063063           0.107148E-3        0.183538E-3
        3.073073           0.111936E-3        0.188402E-3
        3.083083           0.117102E-3        0.192389E-3
        3.093093           0.122327E-3        0.196542E-3
        3.103103           0.127795E-3        0.199580E-3
        3.113113           0.132858E-3        0.202325E-3
        3.123123           0.137155E-3        0.204363E-3
        3.133133           0.140781E-3        0.205493E-3
        3.143143           0.143674E-3        0.206530E-3
        3.153153           0.144947E-3        0.207629E-3
        3.163163           0.145312E-3        0.209068E-3
        3.173173           0.144471E-3        0.211371E-3
        3.183183           0.142445E-3        0.214715E-3
        3.193193           0.140670E-3        0.219288E-3
        3.203203           0.138218E-3        0.224999E-3
        3.213213           0.136036E-3        0.231701E-3
        3.223223           0.133838E-3        0.239558E-3
        3.233233           0.132134E-3        0.247916E-3
        3.243243           0.130648E-3        0.257401E-3
        3.253253           0.129391E-3        0.267466E-3
        3.263263           0.128573E-3        0.278148E-3
        3.273273           0.128068E-3        0.289118E-3
        3.283283           0.127575E-3        0.300539E-3
        3.293293           0.127531E-3        0.312613E-3
        3.303303           0.127117E-3        0.325067E-3
        3.313313           0.126954E-3        0.338013E-3
        3.323323           0.126616E-3        0.351679E-3
        3.333333           0.126190E-3        0.365797E-3
        3.343343           0.125365E-3        0.380783E-3
        3.353353           0.124293E-3        0.396844E-3
        3.363363           0.122854E-3        0.413442E-3
        3.373373           0.120920E-3        0.431845E-3
        3.383383           0.118523E-3        0.451823E-3
        3.393393           0.115228E-3        0.473506E-3
        3.403403           0.111939E-3        0.498127E-3
        3.413413           0.107923E-3        0.525556E-3
        3.423423           0.104010E-3        0.556285E-3
        3.433433           0.101188E-3        0.591706E-3
        3.443443           0.998227E-4        0.631760E-3
        3.453453           0.100599E-3        0.676983E-3
        3.463463           0.105722E-3        0.727372E-3
        3.473473           0.116311E-3        0.782636E-3
        3.483483           0.133590E-3        0.841557E-3
        3.493493           0.158119E-3        0.902853E-3
        3.503503           0.191049E-3        0.964721E-3
        3.513513           0.231983E-3        0.001026
        3.523524           0.279497E-3        0.001085
        3.533533           0.332963E-3        0.001143
        3.543543           0.392116E-3        0.001197
        3.553553           0.455186E-3        0.001250
        3.563564           0.523648E-3        0.001300
        3.573573           0.596432E-3        0.001349
        3.583583           0.674635E-3        0.001398
        3.593593           0.758879E-3        0.001445
        3.603603           0.850049E-3        0.001492
        3.613613           0.949757E-3        0.001537
        3.623623           0.001059           0.001581
        3.633634           0.001180           0.001622
        3.643643           0.001314           0.001658
        3.653653           0.001462           0.001687
        3.663663           0.001626           0.001707
        3.673674           0.001808           0.001713
        3.683683           0.002007           0.001700
        3.693693           0.002223           0.001661
        3.703704           0.002453           0.001593
        3.713714           0.002692           0.001484
        3.723723           0.002932           0.001329
        3.733733           0.003161           0.001121
        3.743744           0.003364           0.863429E-3
        3.753754           0.003525           0.555426E-3
        3.763763           0.003626           0.213039E-3
        3.773773           0.003659          -0.150111E-3
        3.783784           0.003620          -0.510547E-3
        3.793794           0.003513          -0.848257E-3
        3.803803           0.003349          -0.001147
        3.813814           0.003147          -0.001396
        3.823824           0.002920          -0.001593
        3.833834           0.002685          -0.001738
        3.843843           0.002452          -0.001837
        3.853854           0.002231          -0.001899
        3.863864           0.002023          -0.001929
        3.873873           0.001835          -0.001936
        3.883883           0.001664          -0.001924
        3.893894           0.001510          -0.001898
        3.903904           0.001374          -0.001863
        3.913913           0.001253          -0.001822
        3.923924           0.001146          -0.001775
        3.933934           0.001049          -0.001727
        3.943944           0.965068E-3       -0.001677
        3.953954           0.889701E-3       -0.001627
        3.963964           0.822913E-3       -0.001577
        3.973974           0.765094E-3       -0.001529
        3.983984           0.711515E-3       -0.001480
        3.993994           0.664663E-3       -0.001434
        4.004004           0.622393E-3       -0.001389
        4.014014           0.586264E-3       -0.001345
        4.024024           0.552132E-3       -0.001302
        4.034034           0.520925E-3       -0.001261
        4.044044           0.494104E-3       -0.001222
        4.054054           0.469281E-3       -0.001184
        4.064064           0.446992E-3       -0.001146
        4.074074           0.427334E-3       -0.001111
        4.084084           0.409065E-3       -0.001076
        4.094094           0.392672E-3       -0.001042
        4.104104           0.377301E-3       -0.001008
        4.114114           0.363806E-3       -0.976382E-3
        4.124124           0.352504E-3       -0.945234E-3
        4.134134           0.341396E-3       -0.913497E-3
        4.144144           0.331676E-3       -0.883340E-3
        4.154154           0.323101E-3       -0.853644E-3
        4.164164           0.315329E-3       -0.824481E-3
        4.174174           0.309384E-3       -0.795340E-3
        4.184184           0.303121E-3       -0.767293E-3
        4.194194           0.296736E-3       -0.739486E-3
        4.204204           0.292884E-3       -0.711726E-3
        4.214214           0.288825E-3       -0.683841E-3
        4.224224           0.284996E-3       -0.656564E-3
        4.234234           0.281653E-3       -0.628917E-3
        4.244244           0.278535E-3       -0.601002E-3
        4.254254           0.276055E-3       -0.572499E-3
        4.264264           0.273612E-3       -0.543773E-3
        4.274274           0.271539E-3       -0.514315E-3
        4.284284           0.269520E-3       -0.483929E-3
        4.294294           0.267286E-3       -0.452348E-3
        4.304304           0.265381E-3       -0.419288E-3
        4.314314           0.263280E-3       -0.384558E-3
        4.324324           0.260800E-3       -0.346805E-3
        4.334334           0.258508E-3       -0.306148E-3
        4.344344           0.256227E-3       -0.261176E-3
        4.354354           0.254807E-3       -0.210426E-3
        4.364364           0.255023E-3       -0.153215E-3
        4.374374           0.257922E-3       -0.875439E-4
        4.384384           0.266299E-3       -0.118427E-4
        4.394394           0.283042E-3        0.750847E-4
        4.404404           0.312490E-3        0.173762E-3
        4.414414           0.360676E-3        0.284104E-3
        4.424424           0.433755E-3        0.402015E-3
        4.434434           0.538268E-3        0.522596E-3
        4.444444           0.678482E-3        0.635644E-3
        4.454454           0.856441E-3        0.731277E-3
        4.464464           0.001069           0.794100E-3
        4.474474           0.001309           0.813034E-3
        4.484484           0.001563           0.777159E-3
        4.494494           0.001815           0.683333E-3
        4.504504           0.002046           0.529173E-3
        4.514514           0.002238           0.324617E-3
        4.524524           0.002378           0.822667E-4
        4.534534           0.002456          -0.180073E-3
        4.544544           0.002473          -0.438415E-3
        4.554554           0.002436          -0.678658E-3
        4.564565           0.002358          -0.887641E-3
        4.574574           0.002252          -0.001058
        4.584584           0.002133          -0.001190
        4.594594           0.002014          -0.001288
        4.604605           0.001900          -0.001358
        4.614614           0.001798          -0.001406
        4.624624           0.001708          -0.001443
        4.634634           0.001631          -0.001472
        4.644644           0.001563          -0.001498
        4.654655           0.001501          -0.001525
        4.664664           0.001441          -0.001552
        4.674675           0.001379          -0.001581
        4.684684           0.001315          -0.001608
        4.694695           0.001249          -0.001632
        4.704704           0.001177          -0.001649
        4.714715           0.001104          -0.001659
        4.724724           0.001031          -0.001661
        4.734735           0.960589E-3       -0.001654
        4.744744           0.893691E-3       -0.001640
        4.754755           0.831465E-3       -0.001621
        4.764764           0.774909E-3       -0.001595
        4.774775           0.723364E-3       -0.001566
        4.784785           0.677421E-3       -0.001535
        4.794795           0.637503E-3       -0.001502
        4.804804           0.601875E-3       -0.001467
        4.814815           0.570568E-3       -0.001432
        4.824825           0.544429E-3       -0.001397
        4.834835           0.520900E-3       -0.001362
        4.844844           0.500951E-3       -0.001326
        4.854855           0.485136E-3       -0.001292
        4.864865           0.470261E-3       -0.001257
        4.874875           0.458800E-3       -0.001222
        4.884884           0.449555E-3       -0.001187
        4.894895           0.442719E-3       -0.001153
        4.904905           0.438319E-3       -0.001118
        4.914915           0.438019E-3       -0.001083
        4.924924           0.439756E-3       -0.001049
        4.934935           0.444649E-3       -0.001015
        4.944945           0.451433E-3       -0.980843E-3
        4.954955           0.462115E-3       -0.947724E-3
        4.964964           0.475086E-3       -0.915109E-3
        4.974975           0.490992E-3       -0.882490E-3
        4.984985           0.511236E-3       -0.852558E-3
        4.994995           0.534904E-3       -0.822124E-3
        5.005005           0.561664E-3       -0.794442E-3
        5.015015           0.593652E-3       -0.768417E-3
        5.025025           0.629205E-3       -0.744815E-3
        5.035035           0.669724E-3       -0.726255E-3
        5.045045           0.714251E-3       -0.712260E-3
        5.055055           0.763325E-3       -0.703308E-3
        5.065065           0.814841E-3       -0.703404E-3
        5.075075           0.867566E-3       -0.712054E-3
        5.085085           0.920074E-3       -0.730948E-3
        5.095095           0.968787E-3       -0.761155E-3
        5.105105           0.001013          -0.800149E-3
        5.115115           0.001046          -0.847839E-3
        5.125125           0.001068          -0.901060E-3
        5.135135           0.001078          -0.955668E-3
        5.145144           0.001076          -0.001008
        5.155155           0.001062          -0.001056
        5.165165           0.001041          -0.001097
        5.175175           0.001014          -0.001128
        5.185184           0.983697E-3       -0.001153
        5.195195           0.952295E-3       -0.001168
        5.205205           0.922183E-3       -0.001176
        5.215215           0.893278E-3       -0.001178
        5.225225           0.867606E-3       -0.001173
        5.235235           0.845080E-3       -0.001165
        5.245245           0.825611E-3       -0.001153
        5.255255           0.809626E-3       -0.001138
        5.265265           0.795491E-3       -0.001120
        5.275275           0.786128E-3       -0.001099
        5.285285           0.780992E-3       -0.001076
        5.295295           0.780604E-3       -0.001050
        5.305305           0.785601E-3       -0.001023
        5.315315           0.796530E-3       -0.994507E-3
        5.325325           0.814431E-3       -0.967399E-3
        5.335335           0.838874E-3       -0.941848E-3
        5.345345           0.870148E-3       -0.918757E-3
        5.355355           0.908926E-3       -0.900806E-3
        5.365365           0.954610E-3       -0.888016E-3
        5.375375           0.001005          -0.885892E-3
        5.385385           0.001060          -0.893311E-3
        5.395395           0.001117          -0.914006E-3
        5.405405           0.001171          -0.948575E-3
        5.415415           0.001219          -0.997077E-3
        5.425425           0.001256          -0.001059
        5.435435           0.001277          -0.001131
        5.445445           0.001281          -0.001206
        5.455455           0.001265          -0.001280
        5.465465           0.001232          -0.001347
        5.475475           0.001185          -0.001402
        5.485485           0.001129          -0.001444
        5.495495           0.001067          -0.001470
        5.505505           0.001005          -0.001482
        5.515515           0.943803E-3       -0.001482
        5.525526           0.886801E-3       -0.001471
        5.535535           0.834957E-3       -0.001451
        5.545545           0.788301E-3       -0.001424
        5.555555           0.747319E-3       -0.001392
        5.565566           0.711847E-3       -0.001355
        5.575575           0.681502E-3       -0.001315
        5.585585           0.656024E-3       -0.001272
        5.595595           0.635007E-3       -0.001226
        5.605606           0.618370E-3       -0.001177
        5.615615           0.605491E-3       -0.001129
        5.625625           0.596609E-3       -0.001077
        5.635635           0.591418E-3       -0.001024
        5.645645           0.590055E-3       -0.970287E-3
        5.655655           0.592218E-3       -0.914283E-3
        5.665665           0.596873E-3       -0.857676E-3
        5.675675           0.604606E-3       -0.799398E-3
        5.685685           0.614755E-3       -0.740669E-3
        5.695695           0.627393E-3       -0.679233E-3
        5.705705           0.642047E-3       -0.615998E-3
        5.715715           0.658957E-3       -0.549780E-3
        5.725725           0.678062E-3       -0.479788E-3
        5.735735           0.700298E-3       -0.405707E-3
        5.745746           0.725684E-3       -0.326988E-3
        5.755755           0.755767E-3       -0.242701E-3
        5.765765           0.791174E-3       -0.152027E-3
        5.775775           0.833241E-3       -0.547900E-4
        5.785786           0.883467E-3        0.485247E-4
        5.795795           0.944048E-3        0.157570E-3
        5.805805           0.001015           0.271382E-3
        5.815815           0.001100           0.388837E-3
        5.825826           0.001196           0.508945E-3
        5.835835           0.001306           0.630570E-3
        5.845845           0.001428           0.753563E-3
        5.855855           0.001564           0.877029E-3
        5.865866           0.001714           0.001001
        5.875876           0.001879           0.001127
        5.885885           0.002060           0.001252
        5.895895           0.002260           0.001379
        5.905906           0.002479           0.001504
        5.915915           0.002720           0.001628
        5.925925           0.002986           0.001749
        5.935935           0.003278           0.001864
        5.945946           0.003598           0.001972
        5.955956           0.003949           0.002069
        5.965966           0.004331           0.002151
        5.975976           0.004749           0.002218
        5.985986           0.005203           0.002264
        5.995996           0.005699           0.002285
        6.006006           0.006240           0.002276
        6.016016           0.006832           0.002227
        6.026026           0.007479           0.002124
        6.036036           0.008184           0.001951
        6.046046           0.008944           0.001684
        6.056056           0.009749           0.001297
        6.066066           0.010581           0.762100E-3
        6.076076           0.011404           0.541735E-4
        6.086086           0.012173          -0.843459E-3
        6.096096           0.012829          -0.001932
        6.106106           0.013310          -0.003189
        6.116116           0.013562          -0.004566
        6.126126           0.013550          -0.005992
        6.136136           0.013270          -0.007388
        6.146146           0.012748          -0.008679
        6.156156           0.012033          -0.009810
        6.166166           0.011188          -0.010750
        6.176176           0.010274          -0.011492
        6.186186           0.009342          -0.012047
        6.196196           0.008431          -0.012441
        6.206206           0.007568          -0.012701
        6.216216           0.006766          -0.012854
        6.226226           0.006033          -0.012926
        6.236236           0.005368          -0.012938
        6.246246           0.004769          -0.012908
        6.256256           0.004231          -0.012850
        6.266266           0.003748          -0.012773
        6.276276           0.003315          -0.012686
        6.286286           0.002924          -0.012595
        6.296296           0.002573          -0.012504
        6.306306           0.002254          -0.012417
        6.316316           0.001965          -0.012334
        6.326326           0.001700          -0.012259
        6.336336           0.001457          -0.012192
        6.346346           0.001233          -0.012134
        6.356356           0.001025          -0.012086
        6.366366           0.831161E-3       -0.012048
        6.376376           0.648658E-3       -0.012019
        6.386386           0.476059E-3       -0.012001
        6.396396           0.311765E-3       -0.011993
        6.406406           0.154331E-3       -0.011996
        6.416416           0.242020E-5       -0.012008
        6.426426          -0.145135E-3       -0.012031
        6.436436          -0.289463E-3       -0.012065
        6.446446          -0.431569E-3       -0.012108
        6.456456          -0.572435E-3       -0.012163
        6.466466          -0.713044E-3       -0.012227
        6.476476          -0.854269E-3       -0.012303
        6.486486          -0.996989E-3       -0.012389
        6.496496          -0.001142          -0.012486
        6.506506          -0.001291          -0.012594
        6.516516          -0.001444          -0.012715
        6.526526          -0.001602          -0.012846
        6.536536          -0.001766          -0.012990
        6.546546          -0.001938          -0.013147
        6.556556          -0.002119          -0.013316
        6.566566          -0.002311          -0.013499
        6.576576          -0.002513          -0.013696
        6.586586          -0.002730          -0.013907
        6.596596          -0.002962          -0.014134
        6.606606          -0.003211          -0.014375
        6.616616          -0.003480          -0.014633
        6.626626          -0.003772          -0.014906
        6.636636          -0.004090          -0.015197
        6.646646          -0.004437          -0.015503
        6.656656          -0.004816          -0.015827
        6.666666          -0.005233          -0.016168
        6.676676          -0.005692          -0.016525
        6.686686          -0.006199          -0.016898
        6.696696          -0.006761          -0.017287
        6.706707          -0.007386          -0.017688
        6.716716          -0.008082          -0.018098
        6.726726          -0.008860          -0.018515
        6.736736          -0.009732          -0.018930
        6.746747          -0.010709          -0.019335
        6.756756          -0.011807          -0.019718
        6.766766          -0.013040          -0.020061
        6.776776          -0.014422          -0.020342
        6.786787          -0.015967          -0.020530
        6.796796          -0.017685          -0.020589
        6.806807          -0.019579          -0.020469
        6.816816          -0.021643          -0.020113
        6.826826          -0.023853          -0.019454
        6.836837          -0.026159          -0.018423
        6.846846          -0.028485          -0.016952
        6.856857          -0.030722          -0.014994
        6.866867          -0.032732          -0.012536
        6.876876          -0.034362          -0.009613
        6.886887          -0.035470          -0.006321
        6.896896          -0.035949          -0.002811
        6.906906          -0.035751           0.734826E-3
        6.916917          -0.034900           0.004127
        6.926927          -0.033484           0.007201
        6.936936          -0.031635           0.009844
        6.946947          -0.029501           0.011999
        6.956956          -0.027224           0.013660
        6.966967          -0.024925           0.014862
        6.976976          -0.022692           0.015665
        6.986986          -0.020586           0.016136
        6.996997          -0.018639           0.016344
        7.007007          -0.016866           0.016349
        7.017016          -0.015268           0.016203
        7.027027          -0.013837           0.015950
        7.037036          -0.012561           0.015621
        7.047047          -0.011425           0.015242
        7.057057          -0.010416           0.014833
        7.067066          -0.009518           0.014408
        7.077077          -0.008718           0.013976
        7.087087          -0.008005           0.013545
        7.097096          -0.007368           0.013121
        7.107107          -0.006797           0.012706
        7.117116          -0.006285           0.012302
        7.127127          -0.005824           0.011912
        7.137137          -0.005410           0.011536
        7.147147          -0.005036           0.011175
        7.157157          -0.004698           0.010829
        7.167167          -0.004392           0.010498
        7.177176          -0.004115           0.010181
        7.187187          -0.003863           0.009878
        7.197196          -0.003635           0.009590
        7.207206          -0.003428           0.009316
        7.217217          -0.003239           0.009056
        7.227227          -0.003067           0.008809
        7.237237          -0.002909           0.008576
        7.247247          -0.002763           0.008356
        7.257257          -0.002627           0.008149
        7.267267          -0.002499           0.007953
        7.277277          -0.002378           0.007766
        7.287286          -0.002263           0.007588
        7.297297          -0.002153           0.007418
        7.307307          -0.002049           0.007253
        7.317317          -0.001950           0.007094
        7.327327          -0.001856           0.006940
        7.337337          -0.001768           0.006790
        7.347347          -0.001686           0.006646
        7.357357          -0.001608           0.006506
        7.367367          -0.001535           0.006371
        7.377377          -0.001468           0.006241
        7.387387          -0.001404           0.006115
        7.397398          -0.001344           0.005994
        7.407407          -0.001289           0.005877
        7.417417          -0.001236           0.005765
        7.427427          -0.001187           0.005657
        7.437437          -0.001142           0.005552
        7.447447          -0.001099           0.005452
        7.457457          -0.001058           0.005356
        7.467467          -0.001020           0.005264
        7.477477          -0.984749E-3        0.005176
        7.487487          -0.950988E-3        0.005091
        7.497497          -0.918823E-3        0.005011
        7.507507          -0.887852E-3        0.004934
        7.517517          -0.857808E-3        0.004861
        7.527527          -0.828331E-3        0.004791
        7.537537          -0.799155E-3        0.004723
        7.547547          -0.770227E-3        0.004659
        7.557557          -0.741551E-3        0.004596
        7.567567          -0.713182E-3        0.004535
        7.577577          -0.685285E-3        0.004476
        7.587587          -0.658061E-3        0.004418
        7.597597          -0.631647E-3        0.004361
        7.607607          -0.606101E-3        0.004306
        7.617618          -0.581459E-3        0.004253
        7.627627          -0.557659E-3        0.004201
        7.637637          -0.534794E-3        0.004151
        7.647647          -0.512759E-3        0.004102
        7.657657          -0.491450E-3        0.004055
        7.667667          -0.470727E-3        0.004010
        7.677677          -0.450653E-3        0.003966
        7.687687          -0.431090E-3        0.003924
        7.697698          -0.412022E-3        0.003884
        7.707707          -0.393408E-3        0.003845
        7.717717          -0.375146E-3        0.003808
        7.727727          -0.357158E-3        0.003772
        7.737737          -0.339414E-3        0.003738
        7.747747          -0.321873E-3        0.003705
        7.757757          -0.304517E-3        0.003674
        7.767767          -0.287172E-3        0.003644
        7.777778          -0.269843E-3        0.003616
        7.787787          -0.252560E-3        0.003590
        7.797797          -0.235089E-3        0.003565
        7.807807          -0.217461E-3        0.003541
        7.817817          -0.199605E-3        0.003519
        7.827827          -0.181436E-3        0.003498
        7.837838          -0.162917E-3        0.003479
        7.847847          -0.143785E-3        0.003462
        7.857858          -0.124200E-3        0.003446
        7.867867          -0.103989E-3        0.003431
        7.877877          -0.828853E-4        0.003419
        7.887887          -0.609111E-4        0.003408
        7.897897          -0.378209E-4        0.003398
        7.907907          -0.135468E-4        0.003390
        7.917918           0.121525E-4        0.003384
        7.927927           0.394599E-4        0.003380
        7.937938           0.686355E-4        0.003378
        7.947948           0.999084E-4        0.003377
        7.957957           0.133638E-3        0.003378
        7.967968           0.170131E-3        0.003381
        7.977977           0.209961E-3        0.003386
        7.987987           0.253449E-3        0.003393
        7.997998           0.301306E-3        0.003401
        8.008007           0.354111E-3        0.003411
        8.018017           0.412708E-3        0.003422
        8.028028           0.477931E-3        0.003434
        8.038037           0.550836E-3        0.003446
        8.048048           0.632458E-3        0.003458
        8.058058           0.723862E-3        0.003467
        8.068068           0.826274E-3        0.003474
        8.078078           0.940701E-3        0.003475
        8.088087           0.001068           0.003469
        8.098097           0.001209           0.003451
        8.108108           0.001364           0.003418
        8.118117           0.001532           0.003366
        8.128128           0.001710           0.003288
        8.138138           0.001894           0.003180
        8.148148           0.002077           0.003035
        8.158158           0.002250           0.002852
        8.168168           0.002400           0.002629
        8.178178           0.002516           0.002371
        8.188188           0.002585           0.002088
        8.198197           0.002602           0.001794
        8.208207           0.002564           0.001505
        8.218218           0.002477           0.001235
        8.228228           0.002349           0.996239E-3
        8.238238           0.002193           0.795810E-3
        8.248248           0.002022           0.635507E-3
        8.258258           0.001845           0.513271E-3
        8.268268           0.001671           0.424863E-3
        8.278277           0.001506           0.364736E-3
        8.288287           0.001352           0.327560E-3
        8.298298           0.001212           0.308121E-3
        8.308308           0.001085           0.301944E-3
        8.318318           0.972368E-3        0.305620E-3
        8.328328           0.871686E-3        0.316209E-3
        8.338338           0.782347E-3        0.331567E-3
        8.348348           0.703216E-3        0.349966E-3
        8.358357           0.633173E-3        0.370187E-3
        8.368367           0.571170E-3        0.391359E-3
        8.378378           0.516249E-3        0.412759E-3
        8.388388           0.467562E-3        0.434060E-3
        8.398398           0.424354E-3        0.454861E-3
        8.408408           0.385987E-3        0.474755E-3
        8.418418           0.351882E-3        0.493907E-3
        8.428429           0.321548E-3        0.511936E-3
        8.438437           0.294562E-3        0.529030E-3
        8.448447           0.270564E-3        0.544766E-3
        8.458458           0.249231E-3        0.559606E-3
        8.468468           0.230286E-3        0.573036E-3
        8.478477           0.213454E-3        0.585475E-3
        8.488488           0.198504E-3        0.596496E-3
        8.498498           0.185201E-3        0.606228E-3
        8.508509           0.173285E-3        0.614681E-3
        8.518518           0.162497E-3        0.621810E-3
        8.528527           0.152550E-3        0.627514E-3
        8.538538           0.143169E-3        0.632096E-3
        8.548548           0.134093E-3        0.635563E-3
        8.558558           0.125101E-3        0.638191E-3
        8.568568           0.116080E-3        0.640283E-3
        8.578578           0.106997E-3        0.641918E-3
        8.588589           0.979215E-4        0.643448E-3
        8.598598           0.889346E-4        0.644968E-3
        8.608608           0.801686E-4        0.646597E-3
        8.618618           0.717179E-4        0.648258E-3
        8.628628           0.636743E-4        0.649948E-3
        8.638638           0.560537E-4        0.651652E-3
        8.648648           0.489115E-4        0.653271E-3
        8.658658           0.422062E-4        0.654740E-3
        8.668669           0.359460E-4        0.656081E-3
        8.678679           0.300487E-4        0.657299E-3
        8.688688           0.244830E-4        0.658219E-3
        8.698698           0.192589E-4        0.658961E-3
        8.708708           0.142853E-4        0.659413E-3
        8.718718           0.949851E-5        0.659718E-3
        8.728728           0.490880E-5        0.659690E-3
        8.738738           0.434661E-6        0.659530E-3
        8.748748          -0.399200E-5        0.659184E-3
        8.758759          -0.839162E-5        0.658575E-3
        8.768768          -0.127826E-4        0.657714E-3
        8.778779          -0.172320E-4        0.656682E-3
        8.788788          -0.217960E-4        0.655647E-3
        8.798798          -0.265064E-4        0.654505E-3
        8.808808          -0.314970E-4        0.653268E-3
        8.818818          -0.367056E-4        0.652106E-3
        8.828828          -0.421883E-4        0.651131E-3
        8.838839          -0.480936E-4        0.650199E-3
        8.848848          -0.543864E-4        0.649878E-3
        8.858859          -0.610590E-4        0.649964E-3
        8.868869          -0.680791E-4        0.650884E-3
        8.878878          -0.754030E-4        0.652662E-3
        8.888888          -0.827283E-4        0.655767E-3
        8.898898          -0.898261E-4        0.660229E-3
        8.908908          -0.962350E-4        0.666283E-3
        8.918919          -0.101393E-3        0.673864E-3
        8.928928          -0.104729E-3        0.682829E-3
        8.938939          -0.105717E-3        0.692590E-3
        8.948949          -0.103996E-3        0.702630E-3
        8.958959          -0.996124E-4        0.711812E-3
        8.968968          -0.927285E-4        0.719412E-3
        8.978978          -0.840232E-4        0.724908E-3
        8.988988          -0.742839E-4        0.727771E-3
        8.998999          -0.643428E-4        0.728042E-3
        9.009008          -0.549365E-4        0.725857E-3
        9.019018          -0.467769E-4        0.721755E-3
        9.029029          -0.399601E-4        0.716296E-3
        9.039039          -0.346059E-4        0.709981E-3
        9.049048          -0.308534E-4        0.703347E-3
        9.059058          -0.283539E-4        0.696930E-3
        9.069068          -0.267741E-4        0.690754E-3
        9.079079          -0.259518E-4        0.685042E-3
        9.089088          -0.256072E-4        0.679828E-3
        9.099098          -0.256299E-4        0.674979E-3
        9.109109          -0.257818E-4        0.670587E-3
        9.119119          -0.260087E-4        0.666532E-3
        9.129129          -0.263143E-4        0.662711E-3
        9.139138          -0.265530E-4        0.659113E-3
        9.149148          -0.267844E-4        0.655644E-3
        9.159159          -0.269963E-4        0.652288E-3
        9.169168          -0.271701E-4        0.649027E-3
        9.179178          -0.273535E-4        0.645814E-3
        9.189189          -0.275207E-4        0.642644E-3
        9.199199          -0.276697E-4        0.639547E-3
        9.209209          -0.277888E-4        0.636424E-3
        9.219219          -0.279468E-4        0.633311E-3
        9.229228          -0.280880E-4        0.630210E-3
        9.239239          -0.282956E-4        0.627229E-3
        9.249249          -0.284767E-4        0.624128E-3
        9.259258          -0.287177E-4        0.621049E-3
        9.269269          -0.289507E-4        0.617995E-3
        9.279279          -0.293091E-4        0.614926E-3
        9.289289          -0.297177E-4        0.611875E-3
        9.299299          -0.301799E-4        0.608894E-3
        9.309309          -0.306815E-4        0.605918E-3
        9.319319          -0.312676E-4        0.603002E-3
        9.329329          -0.319057E-4        0.600127E-3
        9.339338          -0.325975E-4        0.597330E-3
        9.349349          -0.333226E-4        0.594498E-3
        9.359359          -0.341486E-4        0.591798E-3
        9.369369          -0.350424E-4        0.589056E-3
        9.379379          -0.360506E-4        0.586452E-3
        9.389389          -0.371643E-4        0.583931E-3
        9.399399          -0.384201E-4        0.581550E-3
        9.409409          -0.397893E-4        0.579310E-3
        9.419418          -0.413099E-4        0.577345E-3
        9.429429          -0.428883E-4        0.575599E-3
        9.439439          -0.444933E-4        0.574216E-3
        9.449449          -0.460642E-4        0.573224E-3
        9.459459          -0.474746E-4        0.572604E-3
        9.469469          -0.485968E-4        0.572380E-3
        9.479479          -0.493336E-4        0.572497E-3
        9.489489          -0.495725E-4        0.572781E-3
        9.499498          -0.492690E-4        0.573112E-3
        9.509509          -0.484561E-4        0.573347E-3
        9.519519          -0.472055E-4        0.573360E-3
        9.529529          -0.456124E-4        0.572941E-3
        9.539539          -0.438222E-4        0.572222E-3
        9.549549          -0.419381E-4        0.571103E-3
        9.559559          -0.400657E-4        0.569673E-3
        9.569570          -0.382528E-4        0.567891E-3
        9.579578          -0.365479E-4        0.565915E-3
        9.589589          -0.349735E-4        0.563813E-3
        9.599599          -0.335328E-4        0.561533E-3
        9.609609          -0.322294E-4        0.559141E-3
        9.619619          -0.310490E-4        0.556674E-3
        9.629629          -0.299850E-4        0.554218E-3
        9.639639          -0.290275E-4        0.551726E-3
        9.649650          -0.281660E-4        0.549211E-3
        9.659659          -0.273801E-4        0.546708E-3
        9.669669          -0.266727E-4        0.544239E-3
        9.679679          -0.260272E-4        0.541760E-3
        9.689689          -0.254381E-4        0.539265E-3
        9.699699          -0.249031E-4        0.536840E-3
        9.709709          -0.244044E-4        0.534453E-3
        9.719719          -0.239505E-4        0.531998E-3
        9.729730          -0.235309E-4        0.529660E-3
        9.739739          -0.231394E-4        0.527290E-3
        9.749749          -0.227691E-4        0.524947E-3
        9.759759          -0.224246E-4        0.522687E-3
        9.769769          -0.221048E-4        0.520355E-3
        9.779779          -0.218035E-4        0.518116E-3
        9.789789          -0.215177E-4        0.515856E-3
        9.799799          -0.212461E-4        0.513659E-3
        9.809810          -0.209884E-4        0.511467E-3
        9.819819          -0.207436E-4        0.509286E-3
        9.829829          -0.205097E-4        0.507118E-3
        9.839839          -0.202847E-4        0.504992E-3
        9.849849          -0.200693E-4        0.502868E-3
        9.859859          -0.198620E-4        0.500766E-3
        9.869869          -0.196616E-4        0.498692E-3
        9.879879          -0.194697E-4        0.496595E-3
        9.889890          -0.192828E-4        0.494574E-3
        9.899899          -0.191044E-4        0.492544E-3
        9.909909          -0.189285E-4        0.490498E-3
        9.919919          -0.187581E-4        0.488524E-3
        9.929929          -0.185933E-4        0.486555E-3
        9.939939          -0.184304E-4        0.484528E-3
        9.949949          -0.182778E-4        0.482644E-3
        9.959959          -0.181224E-4        0.480691E-3
        9.969970          -0.179722E-4        0.478777E-3
        9.979980          -0.178265E-4        0.476856E-3
        9.989989          -0.176830E-4        0.474978E-3
        10.00000          -0.175415E-4        0.473092E-3
# 
# 01/27/2025 at 11:44 yambo_rt @ baym [start]
# 01/27/2025 at 11:44                 [end]
#
# .-Input file  yambo.in
# | optics                           # [R] Linear Response optical properties
# | dipoles                          # [R] Oscillator strenghts (or dipoles)
# | bse                              # [R][BSE] Bethe Salpeter Equation.
# | FFTGvecs=  3525            RL    # [FFT] Plane-waves
# | DIP_Threads= 1                   # [OPENMP/X] Number of threads for dipoles
# | BS_nCPU_LinAlg_INV= 1            # [PARALLEL] CPUs for Linear Algebra (if -1 it is automatically set)
# | BS_nCPU_LinAlg_DIAGO= 1          # [PARALLEL] CPUs for Linear Algebra (if -1 it is automatically set)
# | X_Threads= 1                     # [OPENMP/X] Number of threads for response functions
# | K_Threads= 1                     # [OPENMP/BSK] Number of threads for response functions
# | BSKmod= "IP"                     # [BSE] IP/Hartree/HF/ALDA/SEX/BSfxc
# | BSEmod= "resonant"               # [BSE] resonant/retarded/coupling
# | % DipBands
# |   6 | 14 |                           # [DIP] Bands range for dipoles
# | %
# | DipComputed= "R V P [G-space]"   # [DIP] [default R P V; extra P2 Spin Orb]
# | DipoleEtresh= 0.010000     eV    # [DIP] Treshold in the definition of R=P/deltaE
# | BSENGexx= 19641            RL    # [BSK] Exchange components
# | KfnRTdb= "f @ 20 fs < 08_rt/ndb.RT_carriers" # [EXTRT BSK BSS] Database
# | % BSEQptR
# |  1 | 1 |                             # [BSK] Transferred momenta range
# | %
# | % BSEBands
# |   6 | 14 |                           # [BSK] Bands range
# | %
# | RTOccMode= "R"                   # [RT-BSE] (K)ernel/(R)esiduals. BSE components to be corrected with the TD occupations
# | % BEnRange
# |   0.00000 | 10.00000 |         eV    # [BSS] Energy range
# | %
# | % BDmRange
# |  0.100000 | 0.100000 |         eV    # [BSS] Damping range
# | %
# | BEnSteps= 1000                   # [BSS] Energy steps
# | % BLongDir
# |  1.000000 | 0.000000 | 0.000000 |        # [BSS] [cc] Electric Field versor
# | %
# | BSEprop= " abs jdos kerr"        # [BSS] Can be any among abs/jdos/kerr/asymm/anHAll/magn/dich/photolum/esrt
# | BSEdips= "xz"                    # [BSS] Can be "trace/none" or "xy/xz/yz" to define off-diagonal rotation plane
