#                                                           
#  __  __   ________   ___ __ __    _______   ______        
# /_/\/_/\ /_______/\ /__//_//_/\ /_______/\ /_____/\       
# \ \ \ \ \\::: _  \ \\::\| \| \ \\::: _  \ \\:::_ \ \      
#  \:\_\ \ \\::(_)  \ \\:.      \ \\::(_)  \/_\:\ \ \ \     
#   \::::_\/ \:: __  \ \\:.\-/\  \ \\::  _  \ \\:\ \ \ \    
#     \::\ \  \:.\ \  \ \\. \  \  \ \\::(_)  \ \\:\_\ \ \   
#      \__\/   \__\/\__\/ \__\/ \__\/ \_______\/ \_____\/   
#                                                           
#                                                           
#        Version 4.3.0 Revision 15170 Hash 056b04d          
#                  MPI+SLK+OpenMP Build                     
#                http://www.yambo-code.org                  
#
#    E[eV]        DOS
#
   -17.80       0.4446E-2
   -17.74       0.7842E-2
   -17.68       0.1368E-1
   -17.62202      0.02339
   -17.56376      0.03875
   -17.50550      0.06107
   -17.44724      0.08977
   -17.38899      0.12140
   -17.33073      0.15155
   -17.27247      0.17766
   -17.21421      0.19683
   -17.15596      0.20314
   -17.09770      0.19356
   -17.03944      0.17320
   -16.98118      0.14868
   -16.92292      0.12162
   -16.86467      0.09244
   -16.80641      0.06450
   -16.74815      0.04171
   -16.68989      0.02550
   -16.63       0.1503E-1
   -16.57       0.8657E-2
   -16.52       0.4921E-2
   -16.46       0.2775E-2
   -16.40       0.1559E-2
   -16.34       0.8732E-3
   -16.28       0.4885E-3
   -16.22       0.2731E-3
   -16.17       0.1526E-3
   -16.11       0.8524E-4
   -16.05       0.4761E-4
   -15.99       0.2659E-4
   -15.93       0.1485E-4
   -15.87       0.8302E-5
   -15.82       0.4649E-5
   -15.76       0.2618E-5
   -15.70       0.1501E-5
   -15.64       0.9075E-6
   -15.58       0.6310E-6
   -15.52       0.5747E-6
   -15.47       0.7191E-6
   -15.41       0.1115E-5
   -15.35       0.1899E-5
   -15.29       0.3346E-5
   -15.23       0.5962E-5
   -15.18       0.1066E-4
   -15.12       0.1908E-4
   -15.06       0.3416E-4
   -15.00       0.6116E-4
   -14.94       0.1095E-3
   -14.88       0.1961E-3
   -14.83       0.3511E-3
   -14.77       0.6286E-3
   -14.71       0.1125E-2
   -14.65       0.2014E-2
   -14.59       0.3602E-2
   -14.53       0.6438E-2
   -14.48       0.1149E-1
   -14.41784      0.02046
   -14.35959      0.03625
   -14.30133      0.06373
   -14.24307      0.11049
   -14.18481      0.18699
   -14.12655      0.30410
   -14.06830      0.46439
   -14.01004      0.64653
   -13.95178      0.79562
   -13.89352      0.84543
   -13.83527      0.76987
   -13.77701      0.60766
   -13.71875      0.42661
   -13.66049      0.27489
   -13.60223      0.16727
   -13.54398      0.09820
   -13.48572      0.05643
   -13.42746      0.03203
   -13.36920      0.01805
   -13.31       0.1013E-1
   -13.25       0.5675E-2
   -13.19       0.3174E-2
   -13.14       0.1774E-2
   -13.08       0.9914E-3
   -13.02       0.5538E-3
   -12.96       0.3093E-3
   -12.90       0.1728E-3
   -12.84       0.9648E-4
   -12.79       0.5388E-4
   -12.73       0.3009E-4
   -12.67       0.1681E-4
   -12.61       0.9385E-5
   -12.55       0.5241E-5
   -12.50       0.2927E-5
   -12.44       0.1635E-5
   -12.38       0.9129E-6
   -12.32       0.5098E-6
   -12.26       0.2847E-6
   -12.20       0.1590E-6
   -12.15       0.8879E-7
   -12.09       0.4959E-7
   -12.03       0.2769E-7
   -11.97       0.1546E-7
   -11.91       0.7375E-8
   -11.85       0.1831E-8
   -11.79625      0.00000
   -11.73799      0.00000
   -11.67973      0.00000
   -11.62147      0.00000
   -11.56322      0.00000
   -11.50496      0.00000
   -11.44670      0.00000
   -11.38844      0.00000
   -11.33018      0.00000
   -11.27193      0.00000
   -11.21367      0.00000
   -11.15541      0.00000
   -11.09715      0.00000
   -11.03890      0.00000
   -10.98064      0.00000
   -10.92238      0.00000
   -10.86412      0.00000
   -10.80586      0.00000
   -10.74761      0.00000
   -10.68935      0.00000
   -10.63       0.1933E-8
   -10.57       0.8730E-8
   -10.51       0.1845E-7
   -10.46       0.3304E-7
   -10.40       0.5917E-7
   -10.34       0.1060E-6
   -10.28       0.1897E-6
   -10.22       0.3397E-6
   -10.17       0.6083E-6
   -10.11       0.1089E-5
   -10.05       0.1951E-5
   -9.990       0.3493E-5
   -9.932       0.6254E-5
   -9.874       0.1120E-4
   -9.815       0.2005E-4
   -9.757       0.3591E-4
   -9.699       0.6430E-4
   -9.641       0.1151E-3
   -9.582       0.2061E-3
   -9.524       0.3691E-3
   -9.466       0.6608E-3
   -9.408       0.1183E-2
   -9.349       0.2117E-2
   -9.291       0.3787E-2
   -9.233       0.6768E-2
    -9.17465      0.01208
    -9.11639      0.02150
    -9.05813      0.03811
    -8.99988      0.06698
   -8.941617     0.116073
   -8.883360     0.196294
   -8.825103     0.318702
   -8.766845     0.484913
   -8.708587     0.670143
   -8.650330     0.814129
   -8.592072     0.849217
   -8.533813     0.756920
   -8.475556     0.585461
   -8.417298     0.404441
   -8.359040     0.257661
   -8.300783     0.155639
    -8.24253      0.09097
    -8.18427      0.05214
    -8.12601      0.02955
    -8.06775      0.01664
     -8.0095       0.0093
   -7.951       0.5227E-2
   -7.893       0.2924E-2
   -7.835       0.1634E-2
   -7.776       0.9131E-3
   -7.718       0.5103E-3
   -7.660       0.2854E-3
   -7.602       0.1600E-3
   -7.543       0.9058E-4
   -7.485       0.5274E-4
   -7.427       0.3330E-4
   -7.369       0.2548E-4
   -7.310       0.2655E-4
   -7.252       0.3690E-4
   -7.194       0.6012E-4
   -7.136       0.1043E-3
   -7.077       0.1848E-3
   -7.019       0.3295E-3
   -6.961       0.5884E-3
   -6.903       0.1050E-2
   -6.844       0.1869E-2
   -6.786       0.3313E-2
   -6.728       0.5825E-2
    -6.66957      0.01010
    -6.61131      0.01710
    -6.55305      0.02778
    -6.49479      0.04227
    -6.43654      0.05824
    -6.37828      0.07007
    -6.32002      0.07171
    -6.26176      0.06219
    -6.20351      0.04669
    -6.14525      0.03145
    -6.08699      0.01970
    -6.02873      0.01184
     -5.9705       0.0070
   -5.912       0.4332E-2
   -5.854       0.3015E-2
   -5.796       0.2709E-2
   -5.737       0.3328E-2
   -5.679       0.5078E-2
     -5.6209       0.0085
    -5.56267      0.01464
    -5.50441      0.02504
    -5.44616      0.04173
    -5.38790      0.06626
    -5.32964      0.09733
   -5.271382     0.127614
   -5.213124     0.144311
   -5.154867     0.138156
   -5.096609     0.112742
    -5.03835      0.08069
    -4.98009      0.05254
    -4.92184      0.03216
    -4.86358      0.01899
    -4.80532      0.01104
     -4.7471       0.0065
   -4.689       0.3987E-2
   -4.631       0.2856E-2
   -4.572       0.2707E-2
   -4.514       0.3497E-2
     -4.4558       0.0055
     -4.3975       0.0094
    -4.33926      0.01653
    -4.28100      0.02924
    -4.22274      0.05157
    -4.16448      0.09008
   -4.106227     0.154549
   -4.047971     0.257081
   -3.989713     0.406691
   -3.931455     0.595837
   -3.873197     0.783898
   -3.814939     0.900650
   -3.756681     0.889561
   -3.698423     0.756776
   -3.640166     0.564935
   -3.581909     0.380769
   -3.523651     0.238756
   -3.465393     0.142825
    -3.40714      0.08300
    -3.34888      0.04742
    -3.29062      0.02682
    -3.23236      0.01509
     -3.1741       0.0085
     -3.1158       0.0047
   -3.058       0.2648E-2
   -2.999       0.1480E-2
   -2.941       0.8268E-3
   -2.883       0.4619E-3
   -2.825       0.2582E-3
   -2.766       0.1445E-3
   -2.708       0.8125E-4
   -2.650       0.4636E-4
   -2.592       0.2766E-4
   -2.533       0.1861E-4
   -2.475       0.1606E-4
   -2.417       0.1911E-4
   -2.358       0.2883E-4
   -2.300       0.4861E-4
   -2.242       0.8536E-4
   -2.184       0.1519E-3
   -2.125       0.2714E-3
   -2.067       0.4855E-3
   -2.009       0.8685E-3
   -1.951       0.1553E-2
     -1.8924       0.0028
     -1.8342       0.0049
     -1.7759       0.0088
    -1.71766      0.01549
    -1.65940      0.02704
    -1.60115      0.04628
    -1.54289      0.07664
   -1.484631     0.120333
   -1.426373     0.174277
   -1.368115     0.226365
   -1.309858     0.260423
   -1.251601     0.272856
   -1.193343     0.282338
   -1.135085     0.317175
   -1.076827     0.394807
   -1.018569     0.507944
   -0.960311     0.620334
   -0.902055     0.685156
   -0.843797     0.686052
   -0.785539     0.652950
   -0.727281     0.622942
   -0.669023     0.596419
   -0.610765     0.543669
   -0.552507     0.449349
   -0.494249     0.333845
   -0.435993     0.229596
   -0.377735     0.155290
   -0.319477     0.114056
   -0.261219     0.102446
   -0.202961     0.116135
   -0.144703     0.149315
    -0.08645      0.18998
    -0.02819      0.21804
     0.03007      0.21535
     0.08833      0.18156
    0.146585     0.133429
     0.20484      0.08849
     0.26310      0.05478
     0.32136      0.03248
     0.37962      0.01877
     0.43787      0.01069
      0.4961       0.0060
      0.5544       0.0034
      0.6126       0.0019
      0.6709       0.0011
   0.7292       0.5944E-3
   0.7874       0.3321E-3
   0.8457       0.1855E-3
   0.9039       0.1036E-3
   0.9622       0.5788E-4
    1.020       0.3233E-4
    1.079       0.1805E-4
    1.137       0.1008E-4
    1.195       0.5629E-5
    1.253       0.3144E-5
    1.312       0.1756E-5
    1.370       0.9804E-6
    1.428       0.5454E-6
    1.487       0.3046E-6
    1.545       0.1701E-6
    1.603       0.9500E-7
    1.661       0.5305E-7
    1.720       0.2963E-7
    1.778       0.1655E-7
    1.836       0.9240E-8
    1.894       0.5160E-8
    1.953       0.2882E-8
    2.010832     0.000000
    2.069090     0.000000
    2.127       0.2485E-8
    2.186       0.4450E-8
    2.244       0.7968E-8
    2.302       0.1427E-7
    2.360       0.2555E-7
    2.419       0.4575E-7
    2.477       0.8192E-7
    2.535       0.1467E-6
    2.593       0.2627E-6
    2.652       0.4703E-6
    2.710       0.8483E-6
    2.768       0.1519E-5
    2.826       0.2720E-5
    2.885       0.4871E-5
    2.943       0.8722E-5
    3.001       0.1562E-4
    3.059       0.2796E-4
    3.118       0.5007E-4
    3.176       0.8965E-4
    3.234       0.1605E-3
    3.293       0.2873E-3
    3.351       0.5142E-3
    3.409       0.9200E-3
    3.467       0.1645E-2
    3.526       0.2936E-2
      3.5838       0.0052
      3.6420       0.0093
     3.70030      0.01634
     3.75856      0.02840
     3.81682      0.04829
     3.87508      0.07905
    3.933336     0.121740
    3.991594     0.170826
    4.049852     0.210951
    4.108109     0.223733
    4.166367     0.204616
    4.224625     0.169134
    4.282882     0.139483
    4.341140     0.131334
    4.399398     0.152683
    4.457656     0.206508
    4.515913     0.288058
    4.574170     0.376462
    4.632428     0.433324
    4.690686     0.425542
    4.748944     0.356411
    4.807202     0.261478
    4.865460     0.175349
    4.923718     0.113380
     4.98197      0.07615
     5.04023      0.05894
     5.09849      0.05663
     5.15675      0.06397
     5.21501      0.07411
     5.27326      0.07914
     5.33152      0.07482
     5.38978      0.06430
     5.44804      0.05507
     5.50629      0.05369
     5.56455      0.06431
     5.62281      0.08934
    5.681067     0.128383
    5.739326     0.174264
    5.797584     0.210107
    5.855841     0.216860
    5.914098     0.189935
    5.972355     0.143797
     6.03061      0.09737
     6.08887      0.06108
     6.14713      0.03651
     6.20539      0.02120
     6.26365      0.01211
      6.3219       0.0068
    6.380       0.3850E-2
    6.438       0.2159E-2
    6.497       0.1208E-2
    6.555       0.6759E-3
    6.613       0.3783E-3
    6.671       0.2123E-3
    6.730       0.1204E-3
    6.788       0.7043E-4
    6.846       0.4505E-4
    6.904       0.3539E-4
    6.963       0.3809E-4
    7.021       0.5408E-4
    7.079       0.8895E-4
    7.138       0.1548E-3
    7.196       0.2747E-3
    7.254       0.4901E-3
    7.312       0.8757E-3
    7.371       0.1564E-2
    7.429       0.2788E-2
    7.487       0.4955E-2
      7.5453       0.0088
     7.60357      0.01530
     7.66183      0.02626
     7.72009      0.04368
     7.77834      0.06897
    7.836603     0.100410
    7.894860     0.129992
    7.953118     0.144755
    8.011376     0.136393
    8.069634     0.109756
     8.12789      0.07771
     8.18615      0.05022
     8.24441      0.03058
     8.30266      0.01795
     8.36092      0.01031
    8.419       0.5853E-2
    8.477       0.3298E-2
    8.536       0.1851E-2
    8.594       0.1037E-2
    8.652       0.5799E-3
    8.710       0.3241E-3
    8.769       0.1811E-3
    8.827       0.1012E-3
    8.885       0.5651E-4
    8.943       0.3156E-4
    9.002       0.1763E-4
    9.060       0.9854E-5
    9.118       0.5516E-5
    9.177       0.3103E-5
    9.235       0.1774E-5
    9.293       0.1065E-5
    9.351       0.7272E-6
    9.410       0.6434E-6
    9.468       0.7842E-6
    9.526       0.1199E-5
    9.584       0.2032E-5
    9.643       0.3574E-5
    9.701       0.6364E-5
    9.759       0.1138E-4
    9.817       0.2036E-4
    9.876       0.3644E-4
    9.934       0.6524E-4
    9.992       0.1168E-3
    10.05       0.2090E-3
    10.11       0.3738E-3
    10.17       0.6679E-3
    10.23       0.1192E-2
    10.28       0.2120E-2
    10.34       0.3752E-2
    10.40       0.6582E-2
    10.45820      0.01136
    10.51646      0.01910
    10.57472      0.03066
    10.63297      0.04579
    10.69123      0.06143
    10.74949      0.07145
    10.80774      0.07046
    10.86600      0.05905
    10.92426      0.04313
    10.98252      0.02847
    11.04078      0.01757
    11.10       0.1040E-1
    11.16       0.6004E-2
    11.22       0.3416E-2
    11.27       0.1928E-2
# 
# 12/04/2017 at 16:24 YPP @ anomaly [start]
# 12/04/2017 at 16:24               [end]
#
# .-Input file : INPUTS/06_dos
# | dos                            # [R] DOS
# | electrons                      # [R] Electrons (and holes)
# | BoseTemp= 0.000000     eV      # Bosonic Temperature
# | % DOSERange
# | -17.85505 | 11.27381 | eV      # Energy range
# | %
# | DOSESteps=  500                # Energy steps
# | DOS_broad=  0.10000    eV      # Broadening of the DOS
# | % DOS_bands
# |   1 | 10 |                     # DOS bands
# | %
# | #PrtOccOnly                    # Occupied states only
