#                                                           
#  /$$     /$$ /$$$$$$  /$$      /$$ /$$$$$$$   /$$$$$$     
# |  $$   /$$//$$__  $$| $$$    /$$$| $$__  $$ /$$__  $$    
#  \  $$ /$$/| $$  \ $$| $$$$  /$$$$| $$  \ $$| $$  \ $$    
#   \  $$$$/ | $$$$$$$$| $$ $$/$$ $$| $$$$$$$ | $$  | $$    
#    \  $$/  | $$__  $$| $$  $$$| $$| $$__  $$| $$  | $$    
#     | $$   | $$  | $$| $$\  $ | $$| $$  \ $$| $$  | $$    
#     | $$   | $$  | $$| $$ \/  | $$| $$$$$$$/|  $$$$$$/    
#     |__/   |__/  |__/|__/     |__/|_______/  \______/     
#                                                           
#      Version 4.4.0 Revision 15985 Hash fa2210659          
#                  MPI+SLK+OpenMP Build                     
#               http://www.yambo-code.org                   
#
# Joint density of states @ Q(1) [q->0 direction] :0.1000E-4  0.000     0.000   
#
# - Energies      are  Analyt. E
# - The Green`s function is Retarded -
#
#   BSK|Identifier              :7345
#      |Dimension               :108
#      |Bands                   :11 - 15
#      |Exchange           [res]: yes
#      |Correlation        [res]: yes
#      |Kernel`s coupling       : no
#      |Exchange           [cpl]: no
#      |Correlation        [cpl]: no
#      |W interaction is bare   : yes
#      |ALDA kernel in R-space  : no
#      |RL vectors    [exchange]:1
#      |RL vectors [correlation]:55
#      |E/h energy range    [ev]:-1.000000 - -1.000000
#      |Coupling range     [o/o]: 100.0000 -  100.0000
#    W |Interaction is diagonal : yes
#      |Matrix size             :0
#   RIM|RL components      [col]:0
#      |Random points      [col]:0
#
#    E/ev[1]      jdos-Im[2]   jdos-Re[3]   jdoso-Im[4]  jdoso-Re[5]  jdos`-Im[6]  jdos`-Re[7]
#
   -1.000       -.4996        3.613       -.1383E-2     1.046   
   -.9640       -.3216        3.389       -.1331E-2     1.045   
   -.9280       -.2242        3.224       -.1279E-2     1.044   
   -.8920       -.1656        3.099       -.1227E-2     1.043   
   -.8560       -.1277        3.001       -.1175E-2     1.042   
   -.8200       -.1018        2.924       -.1124E-2     1.041   
   -.7840       -.8319E-1     2.860       -.1073E-2     1.041   
   -.7480       -.6938E-1     2.807       -.1022E-2     1.040   
   -.7120       -.5878E-1     2.763       -.9715E-3     1.039   
   -.6760       -.5043E-1     2.724       -.9212E-3     1.039   
   -.6400       -.4368E-1     2.691       -.8710E-3     1.038   
   -.6040       -.3813E-1     2.662       -.8210E-3     1.037   
   -.5680       -.3347E-1     2.637       -.7712E-3     1.037   
   -.5320       -.2950E-1     2.615       -.7215E-3     1.036   
   -.4960       -.2607E-1     2.595       -.6720E-3     1.036   
   -.4600       -.2306E-1     2.577       -.6227E-3     1.035   
   -.4240       -.2038E-1     2.562       -.5735E-3     1.035   
   -.3880       -.1797E-1     2.548       -.5243E-3     1.034   
   -.3520       -.1578E-1     2.536       -.4754E-3     1.034   
   -.3160       -.1377E-1     2.526       -.4265E-3     1.034   
   -.2800       -.1191E-1     2.516       -.3777E-3     1.033   
   -.2440       -.1016E-1     2.509       -.3289E-3     1.033   
   -.2080       -.8508E-2     2.502       -.2803E-3     1.033   
   -.1720       -.6933E-2     2.496       -.2317E-3     1.033   
   -.1360       -.5418E-2     2.492       -.1831E-3     1.033   
   -.1000       -.3949E-2     2.489       -.1346E-3     1.032   
   -.6400E-1    -.2512E-2     2.486       -.8615E-4     1.032   
   -.2800E-1    -.1095E-2     2.485       -.3769E-4     1.032   
   0.8000E-2    0.3127E-3     2.485       0.1077E-4     1.032   
   0.4400E-1    0.1723E-2     2.485       0.5922E-4     1.032   
   0.8000E-1    0.3147E-2     2.487       0.1077E-3     1.032   
   0.1160       0.4597E-2     2.490       0.1562E-3     1.033   
   0.1520       0.6085E-2     2.494       0.2047E-3     1.033   
   0.1880       0.7624E-2     2.499       0.2533E-3     1.033   
   0.2240       0.9231E-2     2.505       0.3019E-3     1.033   
   0.2600       0.1092E-1     2.512       0.3506E-3     1.033   
   0.2960       0.1272E-1     2.520       0.3993E-3     1.034   
   0.3320       0.1465E-1     2.530       0.4482E-3     1.034   
   0.3680       0.1673E-1     2.541       0.4971E-3     1.034   
   0.4040       0.1901E-1     2.554       0.5462E-3     1.035   
   0.4400       0.2153E-1     2.569       0.5953E-3     1.035   
   0.4760       0.2435E-1     2.585       0.6446E-3     1.035   
   0.5120       0.2754E-1     2.603       0.6940E-3     1.036   
   0.5480       0.3119E-1     2.624       0.7436E-3     1.036   
   0.5840       0.3545E-1     2.648       0.7933E-3     1.037   
   0.6200       0.4047E-1     2.675       0.8432E-3     1.038   
   0.6560       0.4651E-1     2.705       0.8933E-3     1.038   
   0.6920       0.5391E-1     2.741       0.9435E-3     1.039   
   0.7280       0.6317E-1     2.782       0.9940E-3     1.040   
   0.7640       0.7505E-1     2.830       0.1045E-2     1.040   
   0.8000       0.9074E-1     2.887       0.1096E-2     1.041   
   0.8360       0.1122        2.956       0.1147E-2     1.042   
   0.8720       0.1427        3.042       0.1198E-2     1.043   
   0.9080       0.1883        3.150       0.1250E-2     1.044   
   0.9440       0.2610        3.291       0.1302E-2     1.044   
   0.9800       0.3867        3.480       0.1354E-2     1.045   
    1.016       0.6280        3.736       0.1406E-2     1.046   
    1.052        1.151        4.043       0.1459E-2     1.047   
    1.088        2.308        4.036       0.1512E-2     1.049   
    1.124        3.385        2.387       0.1566E-2     1.050   
    1.160        2.200       0.8744       0.1620E-2     1.051   
      1.1960       1.1007       0.9279       0.0017       1.0520
      1.2320       0.6105       1.2383       0.0017       1.0532
      1.2680       0.3835       1.4946       0.0018       1.0545
      1.3040       0.2653       1.6867       0.0018       1.0558
      1.3400       0.1974       1.8336       0.0019       1.0571
      1.3760       0.1555       1.9502       0.0020       1.0585
    1.412       0.1281        2.046       0.2007E-2     1.060   
    1.448       0.1096        2.128       0.2064E-2     1.061   
    1.484       0.9672E-1     2.200       0.2122E-2     1.063   
    1.520       0.8761E-1     2.265       0.2180E-2     1.064   
    1.556       0.8114E-1     2.324       0.2238E-2     1.066   
    1.592       0.7659E-1     2.380       0.2297E-2     1.068   
    1.628       0.7348E-1     2.433       0.2357E-2     1.069   
    1.664       0.7150E-1     2.485       0.2417E-2     1.071   
    1.700       0.7043E-1     2.536       0.2478E-2     1.073   
    1.736       0.7011E-1     2.586       0.2539E-2     1.075   
    1.772       0.7044E-1     2.636       0.2601E-2     1.076   
    1.808       0.7136E-1     2.687       0.2664E-2     1.078   
    1.844       0.7281E-1     2.739       0.2727E-2     1.080   
    1.880       0.7479E-1     2.792       0.2791E-2     1.082   
      1.9160       0.0773       2.8460       0.0029       1.0843
      1.9520       0.0803       2.9025       0.0029       1.0864
      1.9880       0.0839       2.9613       0.0030       1.0885
      2.0240       0.0881       3.0229       0.0031       1.0907
      2.0600       0.0930       3.0877       0.0031       1.0929
      2.0960       0.0987       3.1563       0.0032       1.0952
      2.1320       0.1053       3.2292       0.0033       1.0975
      2.1680       0.1130       3.3071       0.0033       1.0999
      2.2040       0.1220       3.3910       0.0034       1.1023
    2.240       0.1326        3.482       0.3470E-2     1.105   
    2.276       0.1453        3.581       0.3543E-2     1.107   
    2.312       0.1607        3.689       0.3616E-2     1.110   
    2.348       0.1796        3.809       0.3691E-2     1.113   
    2.384       0.2033        3.944       0.3766E-2     1.115   
    2.420       0.2338        4.097       0.3843E-2     1.118   
    2.456       0.2745        4.273       0.3920E-2     1.121   
    2.492       0.3307        4.481       0.3999E-2     1.124   
    2.528       0.4126        4.730       0.4078E-2     1.126   
    2.564       0.5400        5.038       0.4159E-2     1.129   
    2.600       0.7565        5.431       0.4241E-2     1.132   
    2.636        1.168        5.935       0.4325E-2     1.136   
    2.672        2.053        6.505       0.4409E-2     1.139   
    2.708        3.912        6.434       0.4495E-2     1.142   
    2.744        5.165        3.966       0.4582E-2     1.145   
      2.7800       3.4038       2.2143       0.0047       1.1485
      2.8160       1.9280       2.5616       0.0048       1.1519
      2.8520       1.3260       3.2883       0.0049       1.1554
      2.8880       1.1403       3.9978       0.0049       1.1589
      2.9240       1.1988       4.7057       0.0050       1.1625
    2.960        1.524        5.464       0.5134E-2     1.166   
    2.996        2.334        6.213       0.5231E-2     1.170   
    3.032        3.753        6.316       0.5330E-2     1.174   
    3.068        4.862        5.550       0.5431E-2     1.178   
      3.1040       5.0625       4.0263       0.0055       1.1815
      3.1400       4.0535       3.9290       0.0056       1.1855
      3.1760       4.5773       4.7177       0.0057       1.1896
    3.212        6.013        3.743       0.5851E-2     1.194   
      3.2480       5.2577       1.9827       0.0060       1.1980
      3.2840       3.9603       2.2126       0.0061       1.2024
      3.3200       4.2540       2.8765       0.0062       1.2068
      3.3560       4.6588       1.7944       0.0063       1.2113
      3.3920       3.1840       1.3698       0.0064       1.2158
      3.4280       2.3118       2.3054       0.0065       1.2205
      3.4640       2.2789       3.4419       0.0067       1.2253
      3.5000       3.0632       4.4415       0.0068       1.2301
      3.5360       4.6217       4.2597       0.0069       1.2350
      3.5720       4.5696       2.9429       0.0071       1.2401
      3.6080       4.0588       2.8683       0.0072       1.2452
      3.6440       3.4387       2.8839       0.0073       1.2504
      3.6800       2.9522       3.8975       0.0075       1.2557
      3.7160       3.4943       5.2712       0.0076       1.2612
      3.7520       5.2368       6.0196       0.0077       1.2667
      3.7880       6.4975       5.2427       0.0079       1.2723
      3.8240       7.5070       5.3842       0.0080       1.2780
    3.860        9.672        3.644       0.8202E-2     1.284   
    3.896        8.735        1.129       0.8360E-2     1.290   
      3.9320       7.3882       1.1257       0.0085       1.2959
      3.9680       8.1229       1.6794       0.0087       1.3021
      4.0040       8.8367      -0.1515       0.0089       1.3084
      4.0400       7.8224      -1.6140       0.0090       1.3149
      4.0760       5.9253      -2.0572       0.0092       1.3214
      4.1120       4.9981      -1.1522       0.0094       1.3281
      4.1480       4.4956      -0.6036       0.0096       1.3350
      4.1840       4.3847       0.7030       0.0098       1.3419
      4.2200       5.9286       1.6065       0.0100       1.3490
     4.25600      7.24610      0.06812      0.01017      1.35628
     4.29200      6.33991     -0.62854      0.01038      1.36367
     4.32800      6.86349     -0.49550      0.01059      1.37122
     4.36400      6.77886     -2.11164      0.01081      1.37891
     4.40000      4.99567     -2.13587      0.01103      1.38677
     4.43600      4.68535     -0.60678      0.01126      1.39480
     4.47200      6.35880      0.30897      0.01150      1.40299
     4.50800      8.49533     -1.41137      0.01174      1.41135
     4.54400      7.52867     -4.65461      0.01199      1.41989
     4.58000      4.67672     -5.10891      0.01225      1.42861
     4.61600      3.24188     -3.82684      0.01252      1.43752
     4.65200      3.17560     -2.48912      0.01279      1.44663
     4.68800      4.21131     -2.05020      0.01307      1.45593
     4.72400      4.32746     -3.31860      0.01336      1.46544
     4.76000      2.99482     -3.32441      0.01366      1.47517
     4.79600      2.55373     -2.34818      0.01397      1.48511
     4.83200      3.06718     -1.65564      0.01429      1.49528
     4.86800      3.47469     -1.86417      0.01462      1.50568
     4.90400      3.58963     -1.80965      0.01496      1.51632
     4.94000      3.66607     -2.03754      0.01531      1.52721
     4.97600      3.88339     -1.77113      0.01568      1.53836
     5.01200      4.62609     -2.61870      0.01606      1.54978
     5.04800      3.55790     -3.53548      0.01645      1.56148
     5.08400      2.76599     -2.85414      0.01686      1.57346
     5.12000      3.26034     -2.10283      0.01728      1.58574
     5.15600      4.30580     -2.91405      0.01772      1.59832
     5.19200      3.28993     -4.12274      0.01817      1.61123
     5.22800      2.28831     -3.66214      0.01864      1.62448
     5.26400      2.32035     -3.04420      0.01914      1.63807
     5.30000      2.62779     -3.32866      0.01965      1.65202
     5.33600      2.02073     -3.52168      0.02019      1.66635
     5.37200      1.81081     -3.04836      0.02075      1.68108
     5.40800      2.23843     -3.02974      0.02134      1.69621
     5.44400      1.93717     -3.72468      0.02195      1.71178
     5.48000      1.16293     -3.61838      0.02259      1.72780
     5.51600      0.77648     -3.19623      0.02327      1.74429
     5.55200      0.61211     -2.78964      0.02398      1.76128
     5.58800      0.55512     -2.41720      0.02472      1.77879
     5.62400      0.57353     -2.05372      0.02551      1.79685
     5.66000      0.68229     -1.66943      0.02634      1.81550
     5.69600      0.95895     -1.23966      0.02722      1.83475
     5.73200      1.62837     -0.82590      0.02815      1.85465
     5.76800      3.00046     -1.11567      0.02915      1.87525
     5.80400      3.30453     -3.12350      0.03020      1.89658
     5.84000      1.84606     -3.84154      0.03133      1.91869
     5.87600      0.99484     -3.52141      0.03254      1.94164
     5.91200      0.61716     -3.14353      0.03384      1.96549
     5.94800      0.43192     -2.83919      0.03524      1.99030
     5.98400      0.32998     -2.59705      0.03676      2.01616
     6.02000      0.26883     -2.39777      0.03842      2.04315
     6.05600      0.23006     -2.22746      0.04022      2.07137
     6.09200      0.20492     -2.07677      0.04220      2.10095
     6.12800      0.18898     -1.93916      0.04440      2.13200
     6.16400      0.18001     -1.80971      0.04683      2.16471
     6.20000      0.17712     -1.68431      0.04956      2.19924
     6.23600      0.18038     -1.55909      0.05265      2.23583
     6.27200      0.19090     -1.42987      0.05616      2.27474
     6.30800      0.21128     -1.29152      0.06021      2.31633
     6.34400      0.24670     -1.13712      0.06493      2.36098
     6.38000      0.30767     -0.95658      0.07051      2.40922
     6.41600      0.41690     -0.73492      0.07721      2.46173
     6.45200      0.62863     -0.45271      0.08541      2.51936
     6.48800      1.08551     -0.11287      0.09563      2.58326
     6.52400      2.12490      0.02603      0.10872      2.65501
    6.560000     3.419619    -1.317903     0.125967     2.736792
    6.596000     2.453738    -3.083982     0.149497     2.831756
    6.631999     1.237772    -3.125911     0.183002     2.944544
    6.668000     0.682972    -2.797367     0.233308     3.082237
    6.704000     0.428168    -2.514404     0.314071     3.255795
    6.740000     0.296023    -2.300304     0.455408     3.481645
    6.776000     0.219734    -2.136375     0.731549     3.777754
    6.812000     0.171858    -2.006801     1.339896     4.106051
    6.848000     0.139804    -1.901131     2.636617     3.949004
    6.884000     0.117215    -1.812603     3.364523     2.020769
    6.920000     0.100627    -1.736767     1.973997     0.913597
     6.95600      0.08803     -1.67060      1.01918      1.11823
     6.99200      0.07818     -1.61199      0.60151      1.45893
     7.02800      0.07031     -1.55942      0.40495      1.73678
     7.06400      0.06388     -1.51177      0.30171      1.95547
     7.10000      0.05853     -1.46821      0.24278      2.13403
     7.13600      0.05403     -1.42807      0.20726      2.28651
     7.17200      0.05018     -1.39086      0.18527      2.42214
     7.20800      0.04685     -1.35618      0.17175      2.54702
     7.24400      0.04394     -1.32370      0.16388      2.66533
     7.28000      0.04137     -1.29315      0.16006      2.78009
     7.31600      0.03909     -1.26432      0.15935      2.89360
     7.35200      0.03705     -1.23702      0.16120      3.00774
     7.38800      0.03521     -1.21111      0.16531      3.12413
     7.42400      0.03355     -1.18643      0.17159      3.24427
     7.46000      0.03203     -1.16290      0.18008      3.36966
     7.49600      0.03064     -1.14040      0.19100      3.50189
     7.53200      0.02936     -1.11885      0.20471      3.64273
     7.56800      0.02818     -1.09819      0.22183      3.79427
     7.60400      0.02709     -1.07833      0.24328      3.95908
     7.64000      0.02607     -1.05923      0.27052      4.14044
     7.67600      0.02513     -1.04083      0.30586      4.34274
     7.71200      0.02424     -1.02309      0.35316      4.57203
     7.74800      0.02341     -1.00596      0.41929      4.83701
     7.78400      0.02263     -0.98941      0.51736      5.15056
     7.82000      0.02190     -0.97340      0.67509      5.53167
     7.85600      0.02121     -0.95790      0.95799      6.00416
     7.89200      0.02055     -0.94289      1.53698      6.55883
     7.92800      0.01993     -0.92833      2.77881      6.84311
     7.96400      0.01935     -0.91420      3.98293      5.51203
     8.00000      0.01879     -0.90049      2.96044      4.42868
# 
# 09/21/2018 at 08:39 YAMBO @ amore9 [start]
# 09/21/2018 at 08:39                [end]
#  
# Timing   [Min/Max/Average]: 02s/02s/02s
#
# .-Input file : yambo.in
# | optics                         # [R OPT] Optics
# | bse                            # [R BSE] Bethe Salpeter Equation.
# | bsk                            # [R BSK] Bethe Salpeter Equation kernel
# | bss                            # [R BSS] Bethe Salpeter Equation solver
# | BoseTemp= 0.000000     eV      # Bosonic Temperature
# | FFTGvecs=  8845        RL      # [FFT] Plane-waves
# | X_Threads= 1                   # [OPENMP/X] Number of threads for response functions
# | DIP_Threads= 1                 # [OPENMP/X] Number of threads for dipoles
# | K_Threads= 1                   # [OPENMP/BSK] Number of threads for response functions
# | BSEmod= "retarded"             # [BSE] resonant/retarded/coupling
# | BSKmod= "HF"                   # [BSE] IP/Hartree/HF/ALDA/SEX/BSfxc
# | BSSmod= "hdi"                  # [BSS] (h)aydock/(d)iagonalization/(i)nversion/(t)ddft`
# | BSENGexx= 1            RL      # [BSK] Exchange components
# | BSENGBlk=  55          RL      # [BSK] Screened interaction block size
# | % KfnQP_up_E
# |  5.000000 | 1.000000 | 1.000000 |        # [EXTQP BSK BSS] E parameters UP (c/v) eV|adim|adim
# | %
# | % KfnQP_dn_E
# |  5.000000 | 1.000000 | 1.000000 |        # [EXTQP BSK BSS] E parameters DOWN (c/v) eV|adim|adim
# | %
# | % BEnRange
# | -1.000000 | 8.000000 | eV      # [BSS] Energy range
# | %
# | % BDmRange
# |   0.05000 |  0.05000 | eV      # [BSS] Damping range
# | %
# | BEnSteps= 251                  # [BSS] Energy steps
# | % BLongDir
# | 0.1000E-4 | 0.000    | 0.000    |        # [BSS] [cc] Electric Field
# | %
# | % BSEBands
# |  11 | 15 |                     # [BSK] Bands range
# | %
# | BSSInvMode= "pf"               # [BSS] Inversion solver modality `(f)ull/(p)erturbative`
# | BSEPSInvTrs=   0.0100          # [BSS EPS] Inversion treshold. Relative[o/o](>0)/Absolute(<0)
# | BSSInvPFratio= 1.000000        # [BSS] Inversion solver. Ratio between the number of frequencies solved pert/full
# | BSHayTrs=0.1000E-2             # [BSS] Relative [o/o] Haydock threshold. Strict(>0)/Average(<0)
