#                                                           
#  ____  ____     _       ____    ____  ______      ___     
# |_  _||_  _|   / \     |_   \  /   _||_   _ \   ."   `.   
#   \ \  / /    / _ \      |   \/   |    | |_) | /  .-.  \  
#    \ \/ /    / ___ \     | |\  /| |    |  __". | |   | |  
#    _|  |_  _/ /   \ \_  _| |_\/_| |_  _| |__) |\  `-"  /  
#   |______||____| |____||_____||_____||_______/  `.___."   
#                                                           
#                                                           
#                                                           
#        Version 4.3.0 Revision 15734 Hash 50fd1d2          
#                      MPI+SLK Build                        
#                http://www.yambo-code.org                  
#
# Joint density of states @ Q(1) [q->0 direction] :0.1000E-4  0.000     0.000   
#
# - Energies      are  Analyt. E
# - The Green`s function is Retarded -
#
#   BSK|Identifier              :3379
#      |Dimension               :108
#      |Bands                   :11 - 15
#      |Exchange           [res]: yes
#      |Correlation        [res]: yes
#      |Kernel`s coupling       : no
#      |Exchange           [cpl]: no
#      |Correlation        [cpl]: no
#      |W interaction is bare   : yes
#      |ALDA kernel in R-space  : no
#      |RL vectors    [exchange]:1
#      |RL vectors [correlation]:55
#      |E/h energy range    [ev]:-1.000000 - -1.000000
#      |Coupling range     [o/o]: 100.0000 -  100.0000
#    W |Interaction is diagonal : yes
#      |Matrix size             :0
#   RIM|RL components      [col]:0
#      |Random points      [col]:0
#
#    E/ev[1]      jdos-Im[2]   jdos-Re[3]   jdoso-Im[4]  jdoso-Re[5]  jdos`-Im[6]  jdos`-Re[7]
#
   -1.000       -.4208        3.518       -.1383E-2     1.046   
   -.9640       -.2787        3.319       -.1331E-2     1.045   
   -.9280       -.1985        3.171       -.1279E-2     1.044   
   -.8920       -.1491        3.058       -.1227E-2     1.043   
   -.8560       -.1166        2.970       -.1175E-2     1.042   
   -.8200       -.9388E-1     2.898       -.1124E-2     1.041   
   -.7840       -.7742E-1     2.839       -.1073E-2     1.041   
   -.7480       -.6503E-1     2.790       -.1022E-2     1.040   
   -.7120       -.5543E-1     2.747       -.9715E-3     1.039   
   -.6760       -.4779E-1     2.711       -.9212E-3     1.039   
   -.6400       -.4157E-1     2.680       -.8710E-3     1.038   
   -.6040       -.3642E-1     2.652       -.8210E-3     1.037   
   -.5680       -.3207E-1     2.628       -.7712E-3     1.037   
   -.5320       -.2835E-1     2.606       -.7215E-3     1.036   
   -.4960       -.2510E-1     2.587       -.6720E-3     1.036   
   -.4600       -.2225E-1     2.570       -.6227E-3     1.035   
   -.4240       -.1970E-1     2.555       -.5735E-3     1.035   
   -.3880       -.1740E-1     2.542       -.5243E-3     1.034   
   -.3520       -.1530E-1     2.531       -.4754E-3     1.034   
   -.3160       -.1336E-1     2.520       -.4265E-3     1.034   
   -.2800       -.1156E-1     2.511       -.3777E-3     1.033   
   -.2440       -.9875E-2     2.504       -.3289E-3     1.033   
   -.2080       -.8276E-2     2.497       -.2803E-3     1.033   
   -.1720       -.6747E-2     2.492       -.2317E-3     1.033   
   -.1360       -.5275E-2     2.488       -.1831E-3     1.033   
   -.1000       -.3846E-2     2.484       -.1346E-3     1.032   
   -.6400E-1    -.2447E-2     2.482       -.8615E-4     1.032   
   -.2800E-1    -.1067E-2     2.481       -.3769E-4     1.032   
   0.8000E-2    0.3046E-3     2.480       0.1077E-4     1.032   
   0.4400E-1    0.1679E-2     2.481       0.5922E-4     1.032   
   0.8000E-1    0.3066E-2     2.483       0.1077E-3     1.032   
   0.1160       0.4477E-2     2.486       0.1562E-3     1.033   
   0.1520       0.5923E-2     2.489       0.2047E-3     1.033   
   0.1880       0.7419E-2     2.494       0.2533E-3     1.033   
   0.2240       0.8977E-2     2.500       0.3019E-3     1.033   
   0.2600       0.1061E-1     2.507       0.3506E-3     1.033   
   0.2960       0.1235E-1     2.515       0.3993E-3     1.034   
   0.3320       0.1420E-1     2.525       0.4482E-3     1.034   
   0.3680       0.1621E-1     2.536       0.4971E-3     1.034   
   0.4040       0.1839E-1     2.548       0.5462E-3     1.035   
   0.4400       0.2080E-1     2.562       0.5953E-3     1.035   
   0.4760       0.2347E-1     2.578       0.6446E-3     1.035   
   0.5120       0.2649E-1     2.595       0.6940E-3     1.036   
   0.5480       0.2994E-1     2.615       0.7436E-3     1.036   
   0.5840       0.3392E-1     2.638       0.7933E-3     1.037   
   0.6200       0.3860E-1     2.664       0.8432E-3     1.038   
   0.6560       0.4419E-1     2.693       0.8933E-3     1.038   
   0.6920       0.5098E-1     2.727       0.9435E-3     1.039   
   0.7280       0.5941E-1     2.765       0.9940E-3     1.040   
   0.7640       0.7013E-1     2.811       0.1045E-2     1.040   
   0.8000       0.8413E-1     2.864       0.1096E-2     1.041   
   0.8360       0.1030        2.928       0.1147E-2     1.042   
   0.8720       0.1295        3.007       0.1198E-2     1.043   
   0.9080       0.1684        3.105       0.1250E-2     1.044   
   0.9440       0.2291        3.232       0.1302E-2     1.044   
   0.9800       0.3312        3.400       0.1354E-2     1.045   
    1.016       0.5210        3.627       0.1406E-2     1.046   
    1.052       0.9182        3.912       0.1459E-2     1.047   
    1.088        1.796        4.051       0.1512E-2     1.049   
    1.124        2.938        3.119       0.1566E-2     1.050   
    1.160        2.693        1.525       0.1620E-2     1.051   
      1.1960       1.5852       0.9231       0.0017       1.0520
      1.2320       0.8307       1.1083       0.0017       1.0532
      1.2680       0.4854       1.3866       0.0018       1.0545
      1.3040       0.3184       1.6072       0.0018       1.0558
      1.3400       0.2280       1.7744       0.0019       1.0571
      1.3760       0.1745       1.9046       0.0020       1.0585
    1.412       0.1406        2.010       0.2007E-2     1.060   
    1.448       0.1182        2.098       0.2064E-2     1.061   
    1.484       0.1028        2.175       0.2122E-2     1.063   
    1.520       0.9198E-1     2.243       0.2180E-2     1.064   
    1.556       0.8433E-1     2.305       0.2238E-2     1.066   
    1.592       0.7891E-1     2.363       0.2297E-2     1.068   
    1.628       0.7516E-1     2.418       0.2357E-2     1.069   
    1.664       0.7266E-1     2.470       0.2417E-2     1.071   
    1.700       0.7116E-1     2.522       0.2478E-2     1.073   
    1.736       0.7048E-1     2.572       0.2539E-2     1.075   
    1.772       0.7048E-1     2.623       0.2601E-2     1.076   
    1.808       0.7109E-1     2.673       0.2664E-2     1.078   
      1.8440       0.0722       2.7246       0.0027       1.0803
      1.8800       0.0739       2.7769       0.0028       1.0823
      1.9160       0.0761       2.8307       0.0029       1.0843
      1.9520       0.0788       2.8861       0.0029       1.0864
      1.9880       0.0820       2.9437       0.0030       1.0885
      2.0240       0.0857       3.0038       0.0031       1.0907
      2.0600       0.0901       3.0667       0.0031       1.0929
      2.0960       0.0951       3.1330       0.0032       1.0952
      2.1320       0.1009       3.2031       0.0033       1.0975
      2.1680       0.1076       3.2777       0.0033       1.0999
      2.2040       0.1153       3.3573       0.0034       1.1023
      2.2400       0.1244       3.4429       0.0035       1.1048
      2.2760       0.1350       3.5353       0.0035       1.1073
    2.312       0.1476        3.636       0.3616E-2     1.110   
    2.348       0.1628        3.746       0.3691E-2     1.113   
    2.384       0.1813        3.868       0.3766E-2     1.115   
    2.420       0.2045        4.004       0.3843E-2     1.118   
    2.456       0.2344        4.158       0.3920E-2     1.121   
    2.492       0.2741        4.334       0.3999E-2     1.124   
    2.528       0.3294        4.540       0.4078E-2     1.126   
    2.564       0.4115        4.787       0.4159E-2     1.129   
    2.600       0.5437        5.090       0.4241E-2     1.132   
    2.636       0.7821        5.468       0.4325E-2     1.136   
    2.672        1.272        5.902       0.4409E-2     1.139   
    2.708        2.273        6.049       0.4495E-2     1.142   
    2.744        3.021        5.045       0.4582E-2     1.145   
      2.7800       2.3726       4.4516       0.0047       1.1485
    2.816        2.120        4.883       0.4760E-2     1.152   
    2.852        2.530        5.036       0.4851E-2     1.155   
      2.8880       2.5206       4.7764       0.0049       1.1589
    2.924        2.236        5.175       0.5038E-2     1.162   
    2.960        2.692        5.979       0.5134E-2     1.166   
    2.996        3.938        6.176       0.5231E-2     1.170   
    3.032        4.861        5.376       0.5330E-2     1.174   
      3.0680       5.0413       4.5951       0.0054       1.1775
      3.1040       4.8562       3.7628       0.0055       1.1815
      3.1400       4.3124       3.9765       0.0056       1.1855
      3.1760       4.9300       4.1151       0.0057       1.1896
      3.2120       5.1609       3.3481       0.0059       1.1938
      3.2480       4.5500       3.0391       0.0060       1.1980
      3.2840       4.5006       3.7577       0.0061       1.2024
      3.3200       5.7894       3.8707       0.0062       1.2068
    3.356        6.738        2.159       0.6304E-2     1.211   
      3.3920       5.4905       0.3358       0.0064       1.2158
      3.4280       3.5606       0.4485       0.0065       1.2205
      3.4640       2.7250       1.6183       0.0067       1.2253
      3.5000       2.9646       2.7668       0.0068       1.2301
      3.5360       4.0153       2.9823       0.0069       1.2350
      3.5720       4.0349       2.2482       0.0071       1.2401
      3.6080       3.7816       2.2297       0.0072       1.2452
      3.6440       3.2042       2.1973       0.0073       1.2504
      3.6800       2.7508       3.1274       0.0075       1.2557
      3.7160       3.2628       4.2862       0.0076       1.2612
      3.7520       4.5553       4.7163       0.0077       1.2667
      3.7880       5.3731       4.3661       0.0079       1.2723
      3.8240       6.1574       4.4135       0.0080       1.2780
      3.8600       7.6296       3.5014       0.0082       1.2839
      3.8960       7.2963       1.7259       0.0084       1.2899
      3.9320       6.4711       1.6693       0.0085       1.2959
      3.9680       6.8644       1.8742       0.0087       1.3021
      4.0040       7.1572       0.9853       0.0089       1.3084
      4.0400       6.9857       0.4569       0.0090       1.3149
      4.0760       6.3440      -0.2146       0.0092       1.3214
      4.1120       5.8872      -0.0509       0.0094       1.3281
      4.1480       5.2647      -0.0901       0.0096       1.3350
      4.1840       5.0613       1.0486       0.0098       1.3419
      4.2200       6.4938       1.5915       0.0100       1.3490
     4.25600      7.48870      0.27466      0.01017      1.35628
     4.29200      7.03291     -0.61282      0.01038      1.36367
     4.32800      6.91998     -0.96230      0.01059      1.37122
     4.36400      6.69498     -1.79749      0.01081      1.37892
     4.40000      5.53438     -2.03763      0.01103      1.38677
     4.43600      5.10048     -1.08498      0.01126      1.39480
     4.47200      5.90718     -0.42736      0.01150      1.40299
     4.50800      7.37134     -1.06072      0.01174      1.41135
     4.54400      7.37911     -3.14587      0.01199      1.41989
     4.58000      5.94116     -4.09970      0.01225      1.42861
     4.61600      4.80371     -3.95345      0.01252      1.43752
     4.65200      4.31320     -3.69703      0.01279      1.44663
     4.68800      3.97466     -3.60951      0.01307      1.45593
     4.72400      3.38666     -3.78426      0.01336      1.46544
     4.76000      2.48238     -3.21915      0.01366      1.47517
     4.79600      2.30279     -2.18719      0.01397      1.48511
     4.83200      2.93893     -1.38026      0.01429      1.49528
     4.86800      3.88934     -1.56804      0.01462      1.50568
     4.90400      4.02673     -2.27046      0.01496      1.51632
     4.94000      3.74627     -2.66090      0.01531      1.52721
     4.97600      3.37750     -2.64879      0.01568      1.53836
     5.01200      3.38379     -2.72245      0.01606      1.54978
     5.04800      2.89278     -2.73684      0.01645      1.56147
     5.08400      2.88996     -2.21881      0.01686      1.57346
     5.12000      3.32483     -2.03796      0.01728      1.58573
     5.15600      4.03158     -2.54877      0.01772      1.59832
     5.19200      3.58231     -3.53327      0.01817      1.61123
     5.22800      2.79928     -3.63390      0.01864      1.62448
     5.26400      2.54723     -3.24725      0.01914      1.63807
     5.30000      2.68491     -3.53522      0.01965      1.65202
     5.33600      1.95346     -3.74056      0.02019      1.66635
     5.37200      1.54246     -3.25073      0.02075      1.68108
     5.40800      1.67549     -2.94226      0.02134      1.69621
     5.44400      1.63164     -3.03080      0.02195      1.71178
     5.48000      1.55820     -2.95816      0.02259      1.72780
     5.51600      1.34987     -3.13811      0.02327      1.74429
     5.55200      0.90080     -2.95268      0.02398      1.76128
     5.58800      0.68686     -2.56620      0.02472      1.77879
     5.62400      0.63821     -2.16938      0.02551      1.79685
     5.66000      0.71254     -1.76158      0.02634      1.81549
     5.69600      0.96244     -1.31688      0.02722      1.83475
     5.73200      1.59429     -0.88402      0.02815      1.85465
     5.76800      2.93170     -1.09037      0.02915      1.87525
     5.80400      3.36780     -3.04819      0.03020      1.89658
     5.84000      1.91933     -3.86594      0.03133      1.91869
     5.87600      1.02949     -3.56063      0.03254      1.94164
     5.91200      0.63468     -3.17698      0.03384      1.96549
     5.94800      0.44209     -2.86652      0.03524      1.99030
     5.98400      0.33654     -2.61975      0.03676      2.01616
     6.02000      0.27337     -2.41709      0.03842      2.04315
     6.05600      0.23335     -2.24426      0.04022      2.07137
     6.09200      0.20736     -2.09167      0.04220      2.10095
     6.12800      0.19078     -1.95262      0.04440      2.13200
     6.16400      0.18130     -1.82210      0.04683      2.16471
     6.20000      0.17795     -1.69595      0.04956      2.19924
     6.23600      0.18074     -1.57028      0.05265      2.23583
     6.27200      0.19072     -1.44093      0.05616      2.27475
     6.30800      0.21038     -1.30282      0.06021      2.31633
     6.34400      0.24471     -1.14917      0.06493      2.36098
     6.38000      0.30381     -0.97008      0.07051      2.40922
     6.41600      0.40943     -0.75088      0.07721      2.46173
     6.45200      0.61317     -0.47221      0.08541      2.51935
     6.48800      1.05034     -0.13370      0.09563      2.58326
     6.52400      2.04748      0.03533      0.10872      2.65501
    6.560000     3.387345    -1.192812     0.125967     2.736792
    6.596000     2.541807    -3.039481     0.149496     2.831755
    6.632000     1.285987    -3.142327     0.183002     2.944546
    6.668000     0.704156    -2.816470     0.233308     3.082238
    6.704000     0.438564    -2.529314     0.314071     3.255793
    6.740000     0.301777    -2.311706     0.455411     3.481649
    6.776000     0.223244    -2.145336     0.731554     3.777758
    6.812000     0.174168    -2.014067     1.339899     4.106053
    6.848000     0.141415    -1.907181     2.636648     3.948983
    6.884000     0.118393    -1.817756     3.364511     2.020737
    6.920000     0.101521    -1.741236     1.973987     0.913594
     6.95600      0.08873     -1.67453      1.01918      1.11823
     6.99200      0.07875     -1.61549      0.60150      1.45893
     7.02800      0.07077     -1.56257      0.40494      1.73679
     7.06400      0.06426     -1.51463      0.30171      1.95547
     7.10000      0.05886     -1.47081      0.24278      2.13403
     7.13600      0.05431     -1.43046      0.20726      2.28651
     7.17200      0.05042     -1.39307      0.18527      2.42214
     7.20800      0.04706     -1.35822      0.17175      2.54702
     7.24400      0.04413     -1.32560      0.16388      2.66532
     7.28000      0.04154     -1.29492      0.16006      2.78008
     7.31600      0.03925     -1.26598      0.15935      2.89360
     7.35200      0.03719     -1.23858      0.16120      3.00774
     7.38800      0.03534     -1.21257      0.16531      3.12413
     7.42400      0.03366     -1.18781      0.17159      3.24427
     7.46000      0.03213     -1.16420      0.18008      3.36966
     7.49600      0.03073     -1.14163      0.19100      3.50189
     7.53200      0.02945     -1.12002      0.20471      3.64273
     7.56800      0.02826     -1.09929      0.22183      3.79427
     7.60400      0.02716     -1.07938      0.24328      3.95908
     7.64000      0.02614     -1.06023      0.27052      4.14045
     7.67600      0.02519     -1.04178      0.30586      4.34274
     7.71200      0.02430     -1.02399      0.35316      4.57203
     7.74800      0.02347     -1.00682      0.41929      4.83701
     7.78400      0.02269     -0.99023      0.51736      5.15055
     7.82000      0.02195     -0.97418      0.67509      5.53167
     7.85600      0.02125     -0.95865      0.95799      6.00416
     7.89200      0.02060     -0.94360      1.53698      6.55883
     7.92800      0.01998     -0.92902      2.77884      6.84310
     7.96400      0.01939     -0.91486      3.98293      5.51199
     8.00000      0.01883     -0.90112      2.96043      4.42867
# 
# 09/19/2018 at 11:22 YAMBO @ narro [start]
# 09/19/2018 at 11:22               [end]
#  
# Timing   [Min/Max/Average]: 19s/19s/19s
#
# .-Input file : yambo.in
# | optics                         # [R OPT] Optics
# | bse                            # [R BSE] Bethe Salpeter Equation.
# | bsk                            # [R BSK] Bethe Salpeter Equation kernel
# | bss                            # [R BSS] Bethe Salpeter Equation solver
# | BoseTemp= 0.000000     eV      # Bosonic Temperature
# | FFTGvecs=  8845        RL      # [FFT] Plane-waves
# | BSEmod= "retarded"             # [BSE] resonant/retarded/coupling
# | BSKmod= "HF"                   # [BSE] IP/Hartree/HF/ALDA/SEX/BSfxc
# | BSSmod= "hdi"                  # [BSS] (h)aydock/(d)iagonalization/(i)nversion/(t)ddft`
# | BSENGexx= 1            RL      # [BSK] Exchange components
# | BSENGBlk=  55          RL      # [BSK] Screened interaction block size
# | % KfnQP_up_E
# |  5.000000 | 1.000000 | 1.000000 |        # [EXTQP BSK BSS] E parameters UP (c/v) eV|adim|adim
# | %
# | % KfnQP_dn_E
# |  5.000000 | 1.000000 | 1.000000 |        # [EXTQP BSK BSS] E parameters DOWN (c/v) eV|adim|adim
# | %
# | % BEnRange
# | -1.000000 | 8.000000 | eV      # [BSS] Energy range
# | %
# | % BDmRange
# |   0.05000 |  0.05000 | eV      # [BSS] Damping range
# | %
# | BEnSteps= 251                  # [BSS] Energy steps
# | % BLongDir
# | 0.1000E-4 | 0.000    | 0.000    |        # [BSS] [cc] Electric Field
# | %
# | % BSEBands
# |  11 | 15 |                     # [BSK] Bands range
# | %
# | BSSInvMode= "pf"               # [BSS] Inversion solver modality `(f)ull/(p)erturbative`
# | BSEPSInvTrs=   0.0100          # [BSS EPS] Inversion treshold. Relative[o/o](>0)/Absolute(<0)
# | BSSInvPFratio= 1.000000        # [BSS] Inversion solver. Ratio between the number of frequencies solved pert/full
# | BSHayTrs=0.1000E-2             # [BSS] Relative [o/o] Haydock threshold. Strict(>0)/Average(<0)
