#                                                           
#  ____  ____     _       ____    ____  ______      ___     
# |_  _||_  _|   / \     |_   \  /   _||_   _ \   ."   `.   
#   \ \  / /    / _ \      |   \/   |    | |_) | /  .-.  \  
#    \ \/ /    / ___ \     | |\  /| |    |  __". | |   | |  
#    _|  |_  _/ /   \ \_  _| |_\/_| |_  _| |__) |\  `-"  /  
#   |______||____| |____||_____||_____||_______/  `.___."   
#                                                           
#                                                           
#                                                           
#        Version 4.3.0 Revision 15734 Hash 50fd1d2          
#                      MPI+SLK Build                        
#                http://www.yambo-code.org                  
#
# EELS @ Q(1)  [q->0 direction]:0.1000E-4  0.000     0.000   
#
#
# - Energies      are  Analyt. E
# - Wavefunctions are Slater exchange(X)+Perdew & Zunger(C)
#
# - The Green`s function is Retarded -
# - Using the Length Gauge -
# - [r,Vnl] *is* included -
#
#   BSK|Identifier              :3379
#      |Dimension               :108
#      |Bands                   :11 - 15
#      |Exchange           [res]: yes
#      |Correlation        [res]: yes
#      |Kernel`s coupling       : no
#      |Exchange           [cpl]: no
#      |Correlation        [cpl]: no
#      |W interaction is bare   : yes
#      |ALDA kernel in R-space  : no
#      |RL vectors    [exchange]:1
#      |RL vectors [correlation]:55
#      |E/h energy range    [ev]:-1.000000 - -1.000000
#      |Coupling range     [o/o]: 100.0000 -  100.0000
#    W |Interaction is diagonal : yes
#      |Matrix size             :0
#   RIM|RL components      [col]:0
#      |Random points      [col]:0
#
#    E/ev[1]      EEL-Im[2]    EEL-Re[3]    EELo-Im[4]   EELo-Re[5]
#
   -1.000       -.1068E-1    -.3627E-1    -.3914E-3    -.3607   
   -.9640       -.9740E-2    -.4354E-1    -.3769E-3    -.3609   
   -.9280       -.8928E-2    -.5020E-1    -.3625E-3    -.3612   
   -.8920       -.8211E-2    -.5633E-1    -.3481E-3    -.3615   
   -.8560       -.7567E-2    -.6197E-1    -.3337E-3    -.3617   
   -.8200       -.6984E-2    -.6718E-1    -.3194E-3    -.3619   
   -.7840       -.6452E-2    -.7199E-1    -.3051E-3    -.3622   
   -.7480       -.5964E-2    -.7644E-1    -.2909E-3    -.3624   
   -.7120       -.5513E-2    -.8056E-1    -.2767E-3    -.3626   
   -.6760       -.5094E-2    -.8436E-1    -.2625E-3    -.3628   
   -.6400       -.4703E-2    -.8787E-1    -.2483E-3    -.3630   
   -.6040       -.4336E-2    -.9111E-1    -.2342E-3    -.3631   
   -.5680       -.3992E-2    -.9410E-1    -.2201E-3    -.3633   
   -.5320       -.3666E-2    -.9685E-1    -.2060E-3    -.3634   
   -.4960       -.3356E-2    -.9937E-1    -.1920E-3    -.3636   
   -.4600       -.3062E-2    -.1017       -.1780E-3    -.3637   
   -.4240       -.2780E-2    -.1038       -.1640E-3    -.3638   
   -.3880       -.2509E-2    -.1057       -.1500E-3    -.3640   
   -.3520       -.2249E-2    -.1074       -.1360E-3    -.3641   
   -.3160       -.1997E-2    -.1089       -.1221E-3    -.3642   
   -.2800       -.1752E-2    -.1102       -.1081E-3    -.3642   
   -.2440       -.1514E-2    -.1114       -.9419E-4    -.3643   
   -.2080       -.1281E-2    -.1124       -.8028E-4    -.3644   
   -.1720       -.1053E-2    -.1133       -.6637E-4    -.3644   
   -.1360       -.8288E-3    -.1139       -.5247E-4    -.3645   
   -.1000       -.6071E-3    -.1145       -.3858E-4    -.3645   
   -.6400E-1    -.3876E-3    -.1148       -.2469E-4    -.3645   
   -.2800E-1    -.1693E-3    -.1150       -.1080E-4    -.3645   
   0.8000E-2    0.4836E-4    -.1151       0.3086E-5    -.3645   
   0.4400E-1    0.2662E-3    -.1149       0.1697E-4    -.3645   
   0.8000E-1    0.4850E-3    -.1147       0.3086E-4    -.3645   
   0.1160       0.7053E-3    -.1142       0.4475E-4    -.3645   
   0.1520       0.9282E-3    -.1137       0.5865E-4    -.3645   
   0.1880       0.1154E-2    -.1129       0.7255E-4    -.3644   
   0.2240       0.1384E-2    -.1120       0.8646E-4    -.3643   
   0.2600       0.1619E-2    -.1109       0.1004E-3    -.3643   
   0.2960       0.1860E-2    -.1097       0.1143E-3    -.3642   
   0.3320       0.2108E-2    -.1082       0.1283E-3    -.3641   
   0.3680       0.2364E-2    -.1066       0.1422E-3    -.3640   
   0.4040       0.2628E-2    -.1048       0.1562E-3    -.3639   
   0.4400       0.2904E-2    -.1029       0.1702E-3    -.3638   
   0.4760       0.3191E-2    -.1007       0.1842E-3    -.3637   
   0.5120       0.3492E-2    -.9827E-1    0.1982E-3    -.3635   
   0.5480       0.3808E-2    -.9566E-1    0.2123E-3    -.3634   
   0.5840       0.4142E-2    -.9280E-1    0.2264E-3    -.3632   
   0.6200       0.4496E-2    -.8970E-1    0.2405E-3    -.3631   
   0.6560       0.4873E-2    -.8634E-1    0.2546E-3    -.3629   
   0.6920       0.5276E-2    -.8270E-1    0.2688E-3    -.3627   
   0.7280       0.5709E-2    -.7877E-1    0.2830E-3    -.3625   
   0.7640       0.6176E-2    -.7451E-1    0.2972E-3    -.3623   
   0.8000       0.6683E-2    -.6990E-1    0.3114E-3    -.3621   
   0.8360       0.7236E-2    -.6492E-1    0.3257E-3    -.3618   
   0.8720       0.7845E-2    -.5952E-1    0.3401E-3    -.3616   
   0.9080       0.8520E-2    -.5367E-1    0.3544E-3    -.3613   
   0.9440       0.9276E-2    -.4731E-1    0.3689E-3    -.3611   
   0.9800       0.1014E-1    -.4039E-1    0.3833E-3    -.3608   
    1.016       0.1115E-1    -.3282E-1    0.3978E-3    -.3605   
    1.052       0.1239E-1    -.2454E-1    0.4124E-3    -.3602   
    1.088       0.1408E-1    -.1551E-1    0.4270E-3    -.3599   
    1.124       0.1645E-1    -.6180E-2    0.4416E-3    -.3596   
    1.160       0.1818E-1    0.2810E-2    0.4563E-3    -.3593   
    1.196       0.1876E-1    0.1391E-1    0.4710E-3    -.3590   
    1.232       0.2009E-1    0.2715E-1    0.4859E-3    -.3586   
    1.268       0.2216E-1    0.4198E-1    0.5007E-3    -.3583   
    1.304       0.2486E-1    0.5857E-1    0.5156E-3    -.3579   
    1.340       0.2823E-1    0.7729E-1    0.5306E-3    -.3575   
    1.376       0.3243E-1    0.9863E-1    0.5457E-3    -.3571   
    1.412       0.3772E-1    0.1232       0.5608E-3    -.3567   
    1.448       0.4449E-1    0.1519       0.5760E-3    -.3563   
    1.484       0.5336E-1    0.1858       0.5912E-3    -.3559   
    1.520       0.6529E-1    0.2265       0.6065E-3    -.3555   
    1.556       0.8184E-1    0.2764       0.6219E-3    -.3550   
    1.592       0.1058       0.3388       0.6374E-3    -.3546   
    1.628       0.1421       0.4190       0.6530E-3    -.3541   
    1.664       0.2008       0.5252       0.6686E-3    -.3536   
    1.700       0.3042       0.6695       0.6843E-3    -.3532   
    1.736       0.5063       0.8657       0.7001E-3    -.3527   
    1.772       0.9514        1.089       0.7160E-3    -.3521   
    1.808        1.913       0.9757       0.7320E-3    -.3516   
    1.844        2.529       -.4760       0.7480E-3    -.3511   
    1.880        1.494       -1.408       0.7642E-3    -.3506   
    1.916       0.7453       -1.300       0.7805E-3    -.3500   
    1.952       0.4162       -1.074       0.7968E-3    -.3494   
    1.988       0.2607       -.8970       0.8133E-3    -.3488   
    2.024       0.1781       -.7668       0.8298E-3    -.3483   
    2.060       0.1297       -.6695       0.8465E-3    -.3477   
    2.096       0.9923E-1    -.5944       0.8633E-3    -.3470   
    2.132       0.7897E-1    -.5345       0.8802E-3    -.3464   
    2.168       0.6493E-1    -.4853       0.8972E-3    -.3458   
    2.204       0.5489E-1    -.4439       0.9144E-3    -.3451   
    2.240       0.4755E-1    -.4082       0.9316E-3    -.3445   
    2.276       0.4212E-1    -.3768       0.9490E-3    -.3438   
    2.312       0.3809E-1    -.3486       0.9665E-3    -.3431   
    2.348       0.3515E-1    -.3227       0.9842E-3    -.3424   
    2.384       0.3308E-1    -.2986       0.1002E-2    -.3417   
    2.420       0.3177E-1    -.2756       0.1020E-2    -.3409   
    2.456       0.3117E-1    -.2533       0.1038E-2    -.3402   
    2.492       0.3130E-1    -.2312       0.1056E-2    -.3394   
    2.528       0.3225E-1    -.2088       0.1074E-2    -.3387   
    2.564       0.3425E-1    -.1855       0.1093E-2    -.3379   
    2.600       0.3773E-1    -.1606       0.1112E-2    -.3371   
    2.636       0.4349E-1    -.1330       0.1131E-2    -.3363   
    2.672       0.5320E-1    -.1012       0.1149E-2    -.3355   
    2.708       0.7055E-1    -.6316E-1    0.1169E-2    -.3346   
    2.744       0.1045       -.1725E-1    0.1188E-2    -.3338   
    2.780       0.1770       0.2779E-1    0.1208E-2    -.3329   
    2.816       0.2941       0.8766E-2    0.1227E-2    -.3321   
    2.852       0.3451       -.6466E-1    0.1247E-2    -.3312   
    2.888       0.4129       -.1256       0.1267E-2    -.3303   
    2.924       0.4192       -.3120       0.1287E-2    -.3293   
    2.960       0.2587       -.3832       0.1308E-2    -.3284   
    2.996       0.1674       -.3498       0.1329E-2    -.3275   
    3.032       0.1126       -.3126       0.1349E-2    -.3265   
    3.068       0.8061E-1    -.2670       0.1371E-2    -.3255   
    3.104       0.6805E-1    -.2238       0.1392E-2    -.3245   
    3.140       0.6953E-1    -.1853       0.1413E-2    -.3235   
    3.176       0.8544E-1    -.1579       0.1435E-2    -.3225   
    3.212       0.9820E-1    -.1531       0.1457E-2    -.3214   
    3.248       0.8767E-1    -.1468       0.1480E-2    -.3204   
    3.284       0.8042E-1    -.1155       0.1502E-2    -.3193   
    3.320       0.9831E-1    -.7707E-1    0.1525E-2    -.3182   
    3.356       0.1494       -.5778E-1    0.1548E-2    -.3171   
    3.392       0.1949       -.1006       0.1571E-2    -.3160   
    3.428       0.1620       -.1563       0.1595E-2    -.3149   
    3.464       0.1068       -.1401       0.1619E-2    -.3137   
    3.500       0.8737E-1    -.9561E-1    0.1643E-2    -.3125   
    3.536       0.9543E-1    -.4733E-1    0.1668E-2    -.3113   
    3.572       0.1370       -.1795E-2    0.1692E-2    -.3101   
    3.608       0.2299       -.4682E-2    0.1717E-2    -.3089   
    3.644       0.2545       -.1251       0.1743E-2    -.3077   
    3.680       0.1580       -.1589       0.1769E-2    -.3064   
    3.716       0.1060       -.1169       0.1795E-2    -.3051   
    3.752       0.9492E-1    -.6777E-1    0.1822E-2    -.3038   
    3.788       0.1145       -.2856E-1    0.1848E-2    -.3025   
    3.824       0.1437       -.2999E-1    0.1876E-2    -.3011   
    3.860       0.1306       -.3086E-1    0.1903E-2    -.2998   
    3.896       0.1344       -.8266E-2    0.1932E-2    -.2984   
    3.932       0.1381       0.3537E-2    0.1960E-2    -.2970   
    3.968       0.1555       0.3324E-1    0.1989E-2    -.2956   
    4.004       0.2094       0.2873E-1    0.2018E-2    -.2941   
    4.040       0.2099       -.4089E-1    0.2048E-2    -.2927   
    4.076       0.1442       -.5082E-1    0.2079E-2    -.2912   
    4.112       0.1040       -.9751E-2    0.2110E-2    -.2897   
    4.148       0.9532E-1    0.4192E-1    0.2141E-2    -.2881   
    4.184       0.1128       0.9212E-1    0.2173E-2    -.2866   
    4.220       0.1557       0.1223       0.2205E-2    -.2850   
    4.256       0.1949       0.1211       0.2238E-2    -.2834   
    4.292       0.2090       0.9973E-1    0.2272E-2    -.2818   
    4.328       0.1947       0.1235       0.2306E-2    -.2802   
    4.364       0.2543       0.1743       0.2341E-2    -.2785   
    4.400       0.3853       0.1049       0.2376E-2    -.2768   
    4.436       0.3222       -.7106E-1    0.2412E-2    -.2751   
    4.472       0.1870       -.6853E-1    0.2449E-2    -.2733   
    4.508       0.1311       -.1094E-1    0.2487E-2    -.2715   
    4.544       0.1197       0.2903E-1    0.2525E-2    -.2697   
    4.580       0.9878E-1    0.4616E-1    0.2564E-2    -.2679   
    4.616       0.7266E-1    0.8088E-1    0.2604E-2    -.2660   
    4.652       0.5933E-1    0.1205       0.2645E-2    -.2641   
    4.688       0.5292E-1    0.1581       0.2686E-2    -.2622   
    4.724       0.4980E-1    0.1938       0.2729E-2    -.2603   
    4.760       0.4847E-1    0.2284       0.2773E-2    -.2583   
    4.796       0.4827E-1    0.2627       0.2817E-2    -.2563   
    4.832       0.4890E-1    0.2973       0.2863E-2    -.2542   
    4.868       0.5019E-1    0.3326       0.2909E-2    -.2522   
    4.904       0.5209E-1    0.3692       0.2957E-2    -.2501   
    4.940       0.5458E-1    0.4072       0.3006E-2    -.2479   
    4.976       0.5770E-1    0.4473       0.3056E-2    -.2457   
    5.012       0.6153E-1    0.4898       0.3108E-2    -.2435   
    5.048       0.6617E-1    0.5353       0.3161E-2    -.2413   
    5.084       0.7180E-1    0.5844       0.3215E-2    -.2390   
    5.120       0.7867E-1    0.6379       0.3271E-2    -.2366   
    5.156       0.8713E-1    0.6966       0.3329E-2    -.2342   
    5.192       0.9769E-1    0.7618       0.3388E-2    -.2318   
    5.228       0.1111       0.8352       0.3449E-2    -.2294   
    5.264       0.1285       0.9189       0.3512E-2    -.2269   
    5.300       0.1518        1.016       0.3577E-2    -.2243   
    5.336       0.1839        1.131       0.3644E-2    -.2217   
    5.372       0.2302        1.270       0.3713E-2    -.2191   
    5.408       0.3008        1.444       0.3785E-2    -.2164   
    5.444       0.4161        1.666       0.3859E-2    -.2136   
    5.480       0.6226        1.961       0.3935E-2    -.2108   
    5.516        1.038        2.345       0.4015E-2    -.2080   
    5.552        1.970        2.709       0.4098E-2    -.2050   
    5.588        3.741        2.055       0.4183E-2    -.2021   
    5.624        3.821       -.5497       0.4273E-2    -.1990   
    5.660        2.054       -1.284       0.4366E-2    -.1959   
    5.696        1.106       -.9096       0.4463E-2    -.1927   
    5.732       0.6965       -.4861       0.4564E-2    -.1895   
    5.768       0.5075       -.1375       0.4670E-2    -.1862   
    5.804       0.4178       0.1551       0.4781E-2    -.1828   
    5.840       0.3814       0.4188       0.4897E-2    -.1793   
    5.876       0.3822       0.6752       0.5019E-2    -.1757   
    5.912       0.4172       0.9431       0.5147E-2    -.1721   
    5.948       0.4948        1.243       0.5282E-2    -.1683   
    5.984       0.6395        1.601       0.5425E-2    -.1645   
    6.020       0.9109        2.054       0.5576E-2    -.1605   
    6.056        1.460        2.637       0.5736E-2    -.1564   
    6.092        2.688        3.267       0.5905E-2    -.1522   
    6.128        5.291        2.853       0.6086E-2    -.1479   
    6.164        6.565       -1.072       0.6278E-2    -.1435   
      6.2000       3.7689      -3.1559       0.0065      -0.1389
      6.2360       1.9225      -2.7570       0.0067      -0.1342
      6.2720       1.1120      -2.1265       0.0069      -0.1293
      6.3080       0.7260      -1.6268       0.0072      -0.1242
      6.3440       0.5198      -1.2472       0.0075      -0.1189
      6.3800       0.3992      -0.9501       0.0078      -0.1134
      6.4160       0.3238      -0.7082       0.0081      -0.1077
      6.4520       0.2747      -0.5037       0.0084      -0.1018
      6.4880       0.2417      -0.3248       0.0088      -0.0956
      6.5240       0.2193      -0.1635       0.0093      -0.0891
      6.5600       0.2044      -0.0144       0.0097      -0.0823
     6.59600      0.19486      0.12667      0.01026     -0.07512
     6.63200      0.18952      0.26301      0.01085     -0.06755
     6.66800      0.18764      0.39710      0.01151     -0.05955
     6.70400      0.18874      0.53111      0.01225     -0.05104
     6.74000      0.19257      0.66699      0.01309     -0.04198
     6.77600      0.19904      0.80658      0.01406     -0.03228
     6.81200      0.20819      0.95174      0.01517     -0.02184
     6.84800      0.22021      1.10439      0.01646     -0.01056
    6.884       0.2354        1.267       0.1797E-1    0.1705E-2
     6.92000      0.25424      1.44082      0.01977      0.01513
     6.95600      0.27740      1.62973      0.02192      0.02992
     6.99200      0.30577      1.83662      0.02454      0.04637
     7.02800      0.34061      2.06550      0.02776      0.06483
     7.06400      0.38363      2.32134      0.03179      0.08577
     7.10000      0.43725      2.61046      0.03694      0.10981
     7.13600      0.50488      2.94105      0.04367      0.13783
     7.17200      0.59147      3.32396      0.05269      0.17103
     7.20800      0.70447      3.77382      0.06517      0.21114
     7.24400      0.85535      4.31094      0.08314      0.26075
    7.280000     1.062585     4.964186     0.110308     0.323763
    7.316000     1.357317     5.775778     0.153998     0.406268
    7.352000     1.795232     6.809316     0.230174     0.517502
    7.388000     2.483170     8.162985     0.377595     0.668519
    7.424000     3.644864     9.988570     0.699119     0.846907
     7.46000      5.80075     12.49702      1.40841      0.81663
     7.49600     10.29843     15.76620      2.00255     -0.22735
     7.53200     20.54117     17.90712      1.24700     -1.06765
     7.56800     36.70583      6.54795      0.62044     -1.01380
     7.60400     30.45959    -16.68687      0.34331     -0.83481
     7.64000     15.28189    -19.95319      0.21373     -0.69096
     7.67600      7.99892    -16.74982      0.14549     -0.58501
     7.71200      4.72831    -13.76800      0.10580     -0.50573
     7.74800      3.07918    -11.57222      0.08091     -0.44448
     7.78400      2.15190     -9.96834      0.06435     -0.39564
     7.82000      1.58431     -8.76670      0.05284     -0.35558
     7.85600      1.21348     -7.84017      0.04454     -0.32191
     7.89200      0.95857     -7.10691      0.03838     -0.29300
     7.92800      0.77612     -6.51347      0.03371     -0.26771
     7.96400      0.64117     -6.02396      0.03011     -0.24521
     8.00000      0.53860     -5.61358      0.02728     -0.22491
# 
# 09/19/2018 at 11:22 YAMBO @ narro [start]
# 09/19/2018 at 11:22               [end]
#  
# Timing   [Min/Max/Average]: 19s/19s/19s
#
# .-Input file : yambo.in
# | optics                         # [R OPT] Optics
# | bse                            # [R BSE] Bethe Salpeter Equation.
# | bsk                            # [R BSK] Bethe Salpeter Equation kernel
# | bss                            # [R BSS] Bethe Salpeter Equation solver
# | BoseTemp= 0.000000     eV      # Bosonic Temperature
# | FFTGvecs=  8845        RL      # [FFT] Plane-waves
# | BSEmod= "retarded"             # [BSE] resonant/retarded/coupling
# | BSKmod= "HF"                   # [BSE] IP/Hartree/HF/ALDA/SEX/BSfxc
# | BSSmod= "hdi"                  # [BSS] (h)aydock/(d)iagonalization/(i)nversion/(t)ddft`
# | BSENGexx= 1            RL      # [BSK] Exchange components
# | BSENGBlk=  55          RL      # [BSK] Screened interaction block size
# | % KfnQP_up_E
# |  5.000000 | 1.000000 | 1.000000 |        # [EXTQP BSK BSS] E parameters UP (c/v) eV|adim|adim
# | %
# | % KfnQP_dn_E
# |  5.000000 | 1.000000 | 1.000000 |        # [EXTQP BSK BSS] E parameters DOWN (c/v) eV|adim|adim
# | %
# | % BEnRange
# | -1.000000 | 8.000000 | eV      # [BSS] Energy range
# | %
# | % BDmRange
# |   0.05000 |  0.05000 | eV      # [BSS] Damping range
# | %
# | BEnSteps= 251                  # [BSS] Energy steps
# | % BLongDir
# | 0.1000E-4 | 0.000    | 0.000    |        # [BSS] [cc] Electric Field
# | %
# | % BSEBands
# |  11 | 15 |                     # [BSK] Bands range
# | %
# | BSSInvMode= "pf"               # [BSS] Inversion solver modality `(f)ull/(p)erturbative`
# | BSEPSInvTrs=   0.0100          # [BSS EPS] Inversion treshold. Relative[o/o](>0)/Absolute(<0)
# | BSSInvPFratio= 1.000000        # [BSS] Inversion solver. Ratio between the number of frequencies solved pert/full
# | BSHayTrs=0.1000E-2             # [BSS] Relative [o/o] Haydock threshold. Strict(>0)/Average(<0)
