#                                                           
#  __  __   ________   ___ __ __    _______   ______        
# /_/\/_/\ /_______/\ /__//_//_/\ /_______/\ /_____/\       
# \ \ \ \ \\::: _  \ \\::\| \| \ \\::: _  \ \\:::_ \ \      
#  \:\_\ \ \\::(_)  \ \\:.      \ \\::(_)  \/_\:\ \ \ \     
#   \::::_\/ \:: __  \ \\:.\-/\  \ \\::  _  \ \\:\ \ \ \    
#     \::\ \  \:.\ \  \ \\. \  \  \ \\::(_)  \ \\:\_\ \ \   
#      \__\/   \__\/\__\/ \__\/ \__\/ \_______\/ \_____\/   
#                                                           
#                                                           
#        Version 4.3.0 Revision 15734 Hash 50fd1d2          
#                      MPI+SLK Build                        
#                http://www.yambo-code.org                  
#
# Absorption @ Q(1) [q->0 direction] :0.1000E-4  0.000     0.000   
#
#
# - Energies      are Slater exchange(X)+Perdew & Zunger(C)
# - Wavefunctions are Slater exchange(X)+Perdew & Zunger(C)
#
# - The Green`s function is Retarded -
# - Using the Length Gauge -
# - [r,Vnl] *is* included -
#
#   BSK|Identifier              :617
#      |Dimension               :108
#      |Bands                   :11 - 15
#      |Exchange           [res]: yes
#      |Correlation        [res]: no
#      |Kernel`s coupling       : no
#      |Exchange           [cpl]: no
#      |Correlation        [cpl]: no
#      |W interaction is bare   : no
#      |ALDA kernel in R-space  : no
#      |RL vectors    [exchange]:109
#      |E/h energy range    [ev]:-1.000000 - -1.000000
#      |Coupling range     [o/o]: 100.0000 -  100.0000
#
#    E/ev[1]      EPS-Im[2]    EPS-Re[3]    EPSo-Im[4]   EPSo-Re[5]
#
   -1.000000    -0.145823     6.997244    -0.183256     7.463734
   -0.976000    -0.138136     6.929472    -0.172818     7.378852
   -0.952000    -0.130938     6.865237    -0.163120     7.298743
   -0.928000    -0.124183     6.804320    -0.154089     7.223079
   -0.904000    -0.117832     6.746520    -0.145657     7.151560
   -0.880000    -0.111850     6.691656    -0.137769     7.083919
   -0.856000    -0.106203     6.639560    -0.130374     7.019910
   -0.832000    -0.100864     6.590080    -0.123425     6.959312
    -0.80800     -0.09581      6.54308     -0.11688      6.90192
    -0.78400     -0.09101      6.49842     -0.11071      6.84756
    -0.76000     -0.08645      6.45600     -0.10488      6.79606
    -0.73600     -0.08211      6.41570     -0.09936      6.74726
    -0.71200     -0.07797      6.37743     -0.09412      6.70103
    -0.68800     -0.07401      6.34108     -0.08914      6.65723
    -0.66400     -0.07023      6.30659     -0.08439      6.61575
    -0.64000     -0.06660      6.27386     -0.07987      6.57648
    -0.61600     -0.06312      6.24283     -0.07555      6.53932
    -0.59200     -0.05977      6.21343     -0.07141      6.50418
    -0.56800     -0.05655      6.18560     -0.06745      6.47097
    -0.54400     -0.05345      6.15929     -0.06364      6.43962
    -0.52000     -0.05045      6.13443     -0.05998      6.41005
    -0.49600     -0.04755      6.11098     -0.05645      6.38221
    -0.47200     -0.04474      6.08890     -0.05304      6.35602
    -0.44800     -0.04201      6.06814     -0.04974      6.33143
    -0.42400     -0.03936      6.04866     -0.04655      6.30839
    -0.40000     -0.03678      6.03044     -0.04345      6.28686
    -0.37600     -0.03427      6.01343     -0.04044      6.26678
    -0.35200     -0.03182      5.99761     -0.03752      6.24813
    -0.32800     -0.02943      5.98295     -0.03466      6.23086
    -0.30400     -0.02708      5.96942     -0.03187      6.21494
    -0.28000     -0.02478      5.95701     -0.02914      6.20034
    -0.25600     -0.02252      5.94568     -0.02647      6.18703
    -0.23200     -0.02030      5.93543     -0.02384      6.17499
    -0.20800     -0.01811      5.92624     -0.02126      6.16420
    -0.18400     -0.01595      5.91808     -0.01872      6.15463
    -0.16000     -0.01382      5.91095     -0.01621      6.14627
    -0.13600     -0.01171      5.90484     -0.01373      6.13911
     -0.1120      -0.0096       5.8997      -0.0113       6.1331
     -0.0880      -0.0075       5.8956      -0.0088       6.1283
   -.6400E-1    -.5474E-2     5.893       -.6412E-2     6.125   
   -.4000E-1    -.3417E-2     5.890       -.4003E-2     6.122   
   -.1600E-1    -.1366E-2     5.889       -.1600E-2     6.121   
   0.8000E-2    0.6830E-3     5.889       0.7999E-3     6.121   
   0.3200E-1    0.2733E-2     5.890       0.3201E-2     6.122   
   0.5600E-1    0.4788E-2     5.892       0.5608E-2     6.124   
      0.0800       0.0068       5.8945       0.0080       6.1270
      0.1040       0.0089       5.8983       0.0105       6.1314
     0.12800      0.01101      5.90303      0.01290      6.13698
     0.15200      0.01311      5.90880      0.01538      6.14375
     0.17600      0.01524      5.91559      0.01788      6.15171
     0.20000      0.01739      5.92340      0.02041      6.16087
     0.22400      0.01957      5.93225      0.02298      6.17126
     0.24800      0.02178      5.94215      0.02559      6.18288
     0.27200      0.02402      5.95311      0.02824      6.19576
     0.29600      0.02631      5.96516      0.03095      6.20993
     0.32000      0.02864      5.97831      0.03372      6.22540
     0.34400      0.03102      5.99259      0.03656      6.24222
     0.36800      0.03345      6.00802      0.03946      6.26041
     0.39200      0.03594      6.02463      0.04244      6.28001
     0.41600      0.03850      6.04245      0.04551      6.30105
     0.44000      0.04112      6.06150      0.04867      6.32358
     0.46400      0.04382      6.08183      0.05193      6.34765
     0.48800      0.04660      6.10347      0.05530      6.37330
     0.51200      0.04947      6.12646      0.05879      6.40058
     0.53600      0.05244      6.15084      0.06240      6.42957
     0.56000      0.05550      6.17667      0.06616      6.46032
     0.58400      0.05869      6.20399      0.07007      6.49290
     0.60800      0.06199      6.23286      0.07415      6.52739
     0.63200      0.06542      6.26333      0.07841      6.56386
     0.65600      0.06900      6.29549      0.08286      6.60242
     0.68000      0.07273      6.32938      0.08753      6.64315
     0.70400      0.07663      6.36510      0.09243      6.68616
     0.72800      0.08070      6.40272      0.09758      6.73157
     0.75200      0.08498      6.44234      0.10301      6.77950
     0.77600      0.08946      6.48404      0.10873      6.83008
     0.80000      0.09418      6.52794      0.11479      6.88348
     0.82400      0.09915      6.57414      0.12120      6.93984
    0.848000     0.104391     6.622783     0.128010     6.999342
    0.872000     0.109932     6.673991     0.135252     7.062190
    0.896000     0.115799     6.727915     0.142970     7.128595
    0.920000     0.122023     6.784717     0.151214     7.198793
    0.944000     0.128639     6.844573     0.160039     7.273043
    0.968000     0.135684     6.907679     0.169507     7.351635
    0.992000     0.143203     6.974246     0.179689     7.434888
    1.016000     0.151244     7.044510     0.190666     7.523154
    1.040000     0.159862     7.118728     0.202531     7.616830
    1.064000     0.169118     7.197187     0.215388     7.716355
    1.088000     0.179084     7.280204     0.229361     7.822221
    1.112000     0.189841     7.368130     0.244590     7.934984
    1.136000     0.201481     7.461359     0.261241     8.055267
    1.160000     0.214110     7.560327     0.279505     8.183776
    1.184000     0.227851     7.665527     0.299607     8.321311
    1.208000     0.242846     7.777510     0.321815     8.468786
    1.232000     0.259261     7.896899     0.346442     8.627246
    1.256000     0.277290     8.024399     0.373868     8.797892
    1.280000     0.297161     8.160812     0.404545     8.982112
    1.304000     0.319144     8.307051     0.439022     9.181520
    1.328000     0.343560     8.464166     0.477970     9.397998
    1.352000     0.370793     8.633364     0.522212     9.633759
    1.376000     0.401307     8.816043     0.572771     9.891421
     1.40000      0.43566      9.01383      0.63093     10.17410
     1.42400      0.47455      9.22863      0.69830     10.48554
     1.44800      0.51882      9.46267      0.77697     10.83025
     1.47200      0.56953      9.71864      0.86963     11.21378
     1.49600      0.62801      9.99968      0.97981     11.64291
     1.52000      0.69595     10.30964      1.11226     12.12611
     1.54400      0.77553     10.65313      1.27339     12.67405
     1.56800      0.86958     11.03586      1.47212     13.30030
     1.59200      0.98186     11.46482      1.72103     14.02238
     1.61600      1.11742     11.94882      2.03844     14.86315
     1.64000      1.28315     12.49893      2.45162     15.85291
     1.66400      1.48871     13.12938      3.00265     17.03213
     1.68800      1.74786     13.85857      3.75877     18.45528
     1.71200      2.08081     14.71067      4.83216     20.19500
     1.73600      2.51805     15.71781      6.41893     22.34374
     1.76000      3.10725     16.92311      8.87989     24.99947
     1.78400      3.92580     18.38448     12.90929     28.18114
     1.80800      5.10505     20.17835     19.85029     31.45746
     1.83200      6.87922     22.39790     31.85852     32.53358
     1.85600      9.68744     25.12410     48.72037     24.02726
     1.88000     14.38355     28.28129     56.16999      0.08527
     1.90400     22.56952     31.03354     43.05620    -19.49820
     1.92800     36.20670     29.71903     27.18923    -23.62766
     1.95200     51.31124     15.63094     17.11402    -21.32352
     1.97600     50.17076     -8.65271     11.34737    -17.95993
     2.00000     34.54828    -21.05212      7.95046    -14.93352
     2.02400     21.50426    -21.60938      5.83859    -12.44626
     2.04800     13.78327    -18.71636      4.45511    -10.43382
     2.07200      9.34499    -15.58030      3.50696     -8.79613
     2.09600      6.67757    -12.89930      2.83209     -7.44700
     2.12000      4.98434    -10.71781      2.33633     -6.32021
    2.144000     3.854715    -8.950203     1.962383    -5.366359
    2.168000     3.068626    -7.504463     1.673962    -4.548687
    2.192000     2.501987    -6.306154     1.447251    -3.839598
    2.216000     2.081351    -5.299035     1.266144    -3.218139
    2.240000     1.761304    -4.441260     1.119447    -2.668190
    2.264000     1.512671    -3.701604     0.999200    -2.177180
    2.288000     1.316073    -3.056527     0.899621    -1.735184
    2.312000     1.158260    -2.488060     0.816435    -1.334268
    2.336000     1.029941    -1.982302     0.746426    -0.968016
    2.360000     0.924452    -1.528358     0.687145    -0.631183
    2.384000     0.836918    -1.117577     0.636697    -0.319436
     2.40800      0.76371     -0.74301      0.59360     -0.02916
    2.432000     0.702096    -0.399000     0.556698     0.242691
     2.45600      0.64997     -0.08091      0.52505      0.49871
    2.480000     0.605698     0.215118     0.497922     0.741115
    2.504000     0.568015     0.492323     0.474708     0.971839
    2.528000     0.535910     0.753448     0.454925     1.192568
    2.552000     0.508581     1.000842     0.438181     1.404794
    2.576000     0.485386     1.236538     0.424158     1.609847
    2.600000     0.465810     1.462312     0.412598     1.808930
    2.624000     0.449438     1.679735     0.403298     2.003141
    2.648000     0.435937     1.890208     0.396096     2.193496
    2.672000     0.425042     2.095001     0.390871     2.380947
    2.696000     0.416545     2.295276     0.387533     2.566397
    2.720000     0.410286     2.492112     0.386026     2.750714
    2.744000     0.406146     2.686526     0.386320     2.934752
    2.768000     0.404045     2.879487     0.388417     3.119352
    2.792000     0.403939     3.071940     0.392345     3.305366
    2.816000     0.405816     3.264814     0.398161     3.493665
    2.840000     0.409699     3.459041     0.405957     3.685151
    2.864000     0.415642     3.655572     0.415855     3.880778
    2.888000     0.423739     3.855390     0.428020     4.081562
    2.912000     0.434122     4.059529     0.442662     4.288605
    2.936000     0.446968     4.269093     0.460045     4.503115
    2.960000     0.462507     4.485277     0.480497     4.726433
    2.984000     0.481030     4.709392     0.504428     4.960065
    3.008000     0.502905     4.942896     0.532346     5.205717
    3.032000     0.528592     5.187432     0.564885     5.465352
    3.056000     0.558670     5.444869     0.602839     5.741240
    3.080000     0.593866     5.717362     0.647211     6.036042
    3.104000     0.635101     6.007421     0.699279     6.352908
    3.128000     0.683551     6.318006     0.760684     6.695605
    3.152000     0.740735     6.652643     0.833568     7.068685
    3.176000     0.808639     7.015585     0.920758     7.477717
    3.200000     0.889896     7.412021     1.026052     7.929593
    3.224000     0.988059     7.848365     1.154644     8.432945
    3.248000     1.108021     8.332647     1.313791     8.998735
    3.272000     1.256675     8.875054     1.513880     9.641063
     3.29600      1.44399      9.48869      1.77020     10.37831
     3.32000      1.68485     10.19064      2.10598     11.23472
     3.34400      2.00229     11.00331      2.55788     12.24247
     3.36800      2.43344     11.95616      3.18625     13.44394
     3.39200      3.04121     13.08667      4.09539     14.89236
     3.41600      3.93758     14.43686      5.47447     16.64263
     3.44000      5.33016     16.02878      7.67710     18.69971
     3.46400      7.59413     17.75717     11.32332     20.81288
     3.48800     11.21090     19.05600     17.12069     21.97845
     3.51200     15.97576     18.74549     25.09785     20.23454
     3.53600     20.98142     16.26505     33.12827     12.06532
     3.56000     24.65756     10.41226     32.27190     -1.23917
     3.58400     23.32523      4.12802     23.43879     -7.50011
     3.60800     20.38276      1.08443     16.51432     -6.65079
     3.63200     17.18663     -0.39467     13.35560     -3.60861
     3.65600     14.27596      0.62180     13.18365     -0.48738
     3.68000     13.67441      3.14325     15.50634      1.45771
     3.70400     15.63630      5.19879     19.29746      0.92249
     3.72800     19.20669      5.31340     23.18414     -3.07650
     3.75200     22.96270      2.97966     22.94222    -10.94588
     3.77600     25.46905     -1.65737     16.77833    -15.83052
     3.80000     25.71347     -7.35954     10.91415    -15.78824
     3.82400     23.17354    -13.74488      7.28409    -14.07149
     3.84800     16.85968    -17.46920      5.15453    -12.22918
     3.87200     11.07813    -17.04538      3.85301    -10.61850
     3.89600      7.45863    -15.16153      3.01294     -9.26500
     3.92000      5.31096    -13.21632      2.44379     -8.12648
     3.94400      3.98483    -11.53141      2.04303     -7.15630
     3.96800      3.12100    -10.12079      1.75266     -6.31587
    3.992000     2.530912    -8.937260     1.538325    -5.575221
    4.016000     2.112169    -7.931496     1.378887    -4.911156
    4.040000     1.806337    -7.063210     1.261043    -4.305438
    4.064000     1.578486    -6.301262     1.176418    -3.743266
    4.088000     1.406936    -5.621678     1.119982    -3.212123
    4.112000     1.277892    -5.005690     1.089221    -2.700852
    4.136000     1.182530    -4.438189     1.083809    -2.198884
    4.160000     1.115388    -3.906538     1.105679    -1.695500
    4.184000     1.073509    -3.399647     1.159548    -1.179050
    4.208000     1.056067    -2.907204     1.254097    -0.636048
     4.23200      1.06439     -2.41896      1.40426     -0.05006
    4.256000     1.102414    -1.924013     1.635670     0.599539
    4.280000     1.177736    -1.409939     1.993414     1.338474
    4.304000     1.303740    -0.861835     2.560105     2.195546
    4.328000     1.503725    -0.261229     3.493768     3.187523
    4.352000     1.819176     0.414490     5.102723     4.249644
    4.376000     2.326879     1.189457     7.928653     4.958625
     4.40000      3.17483      2.07260     12.30245      3.73979
     4.42400      4.65081      2.98304     15.56414     -1.75078
     4.44800      7.23289      3.46144     13.13866     -7.91644
     4.47200     10.99700      1.95278      8.58204     -9.82034
     4.49600     13.03051     -3.12445      5.43327     -9.32974
     4.52000     10.31869     -7.70697      3.61630     -8.32729
    4.544000     6.640351    -8.737989     2.555395    -7.372795
    4.568000     4.247565    -8.156622     1.902481    -6.566415
    4.592000     2.872778    -7.287481     1.478127    -5.899213
    4.616000     2.062756    -6.488619     1.188823    -5.343952
    4.640000     1.558691    -5.815795     0.983541    -4.875537
    4.664000     1.227663    -5.256028     0.832994    -4.474300
    4.688000     0.999912    -4.786296     0.719565    -4.125432
    4.712000     0.837025    -4.386368     0.632217    -3.817837
    4.736000     0.716760    -4.040558     0.563787    -3.543117
    4.760000     0.625639    -3.737069     0.509490    -3.294825
    4.784000     0.555159    -3.467034     0.466055    -3.067914
    4.808000     0.499775    -3.223712     0.431212    -2.858351
    4.832000     0.455767    -3.001893     0.403377    -2.662835
    4.856000     0.420591    -2.797465     0.381461    -2.478586
    4.880000     0.392482    -2.607111     0.364747    -2.303191
    4.904000     0.370221    -2.428084     0.352824    -2.134469
    4.928000     0.352982    -2.258038     0.345560    -1.970362
    4.952000     0.340248    -2.094899     0.343109    -1.808830
    4.976000     0.331760    -1.936754     0.345960    -1.647737
    5.000000     0.327509    -1.781759     0.355039    -1.484723
# 
# 09/19/2018 at 11:22 YAMBO @ narro [start]
# 09/19/2018 at 11:22               [end]
#  
# Timing   [Min/Max/Average]: 06s/06s/06s
#
# .-Input file : yambo.in
# | optics                         # [R OPT] Optics
# | bse                            # [R BSE] Bethe Salpeter Equation.
# | bsk                            # [R BSK] Bethe Salpeter Equation kernel
# | bss                            # [R BSS] Bethe Salpeter Equation solver
# | BoseTemp= 0.000000     eV      # Bosonic Temperature
# | FFTGvecs=  8845        RL      # [FFT] Plane-waves
# | BSEmod= "retarded"             # [BSE] resonant/retarded/coupling
# | BSKmod= "Hartree"              # [BSE] IP/Hartree/HF/ALDA/SEX/BSfxc
# | BSSmod= "hdi"                  # [BSS] (h)aydock/(d)iagonalization/(i)nversion/(t)ddft`
# | BSENGexx= 109          RL      # [BSK] Exchange components
# | % BEnRange
# | -1.000000 | 5.000000 | eV      # [BSS] Energy range
# | %
# | % BDmRange
# |   0.05000 |  0.05000 | eV      # [BSS] Damping range
# | %
# | BEnSteps= 251                  # [BSS] Energy steps
# | % BLongDir
# | 0.1000E-4 | 0.000    | 0.000    |        # [BSS] [cc] Electric Field
# | %
# | % BSEBands
# |  11 | 15 |                     # [BSK] Bands range
# | %
# | BSSInvMode= "pf"               # [BSS] Inversion solver modality `(f)ull/(p)erturbative`
# | BSEPSInvTrs=   0.0100          # [BSS EPS] Inversion treshold. Relative[o/o](>0)/Absolute(<0)
# | BSSInvPFratio= 1.000000        # [BSS] Inversion solver. Ratio between the number of frequencies solved pert/full
# | BSHayTrs=0.1000E-2             # [BSS] Relative [o/o] Haydock threshold. Strict(>0)/Average(<0)
