#                                                           
#  ____  ____     _       ____    ____  ______      ___     
# |_  _||_  _|   / \     |_   \  /   _||_   _ \   ."   `.   
#   \ \  / /    / _ \      |   \/   |    | |_) | /  .-.  \  
#    \ \/ /    / ___ \     | |\  /| |    |  __". | |   | |  
#    _|  |_  _/ /   \ \_  _| |_\/_| |_  _| |__) |\  `-"  /  
#   |______||____| |____||_____||_____||_______/  `.___."   
#                                                           
#                                                           
#                                                           
#        Version 4.3.0 Revision 15734 Hash 50fd1d2          
#                      MPI+SLK Build                        
#                http://www.yambo-code.org                  
#
# Absorption @ Q(1) [q->0 direction] :0.1000E-4  0.000     0.000   
#
#
# - Energies      are  Analyt. E
# - Wavefunctions are Slater exchange(X)+Perdew & Zunger(C)
#
# - The Green`s function is Retarded -
# - Using the Length Gauge -
# - [r,Vnl] *is* included -
#
#   BSK|Identifier              :3379
#      |Dimension               :108
#      |Bands                   :11 - 15
#      |Exchange           [res]: yes
#      |Correlation        [res]: yes
#      |Kernel`s coupling       : no
#      |Exchange           [cpl]: no
#      |Correlation        [cpl]: no
#      |W interaction is bare   : yes
#      |ALDA kernel in R-space  : no
#      |RL vectors    [exchange]:1
#      |RL vectors [correlation]:55
#      |E/h energy range    [ev]:-1.000000 - -1.000000
#      |Coupling range     [o/o]: 100.0000 -  100.0000
#    W |Interaction is diagonal : yes
#      |Matrix size             :0
#   RIM|RL components      [col]:0
#      |Random points      [col]:0
#
#    E/ev[1]      EPS-Im[2]    EPS-Re[3]    EPSo-Im[4]   EPSo-Re[5]
#
   -1.000       -7.469        25.37       -.3009E-2     2.773   
   -.9640       -4.894        21.87       -.2893E-2     2.771   
   -.9280       -3.434        19.31       -.2778E-2     2.769   
   -.8920       -2.534        17.38       -.2664E-2     2.767   
   -.8560       -1.941        15.90       -.2551E-2     2.765   
   -.8200       -1.531        14.73       -.2438E-2     2.763   
   -.7840       -1.235        13.78       -.2326E-2     2.761   
   -.7480       -1.014        13.00       -.2215E-2     2.760   
   -.7120       -.8456        12.36       -.2104E-2     2.758   
   -.6760       -.7132        11.81       -.1994E-2     2.757   
   -.6400       -.6073        11.35       -.1885E-2     2.755   
   -.6040       -.5212        10.95       -.1776E-2     2.754   
   -.5680       -.4500        10.61       -.1668E-2     2.753   
   -.5320       -.3903        10.31       -.1560E-2     2.751   
   -.4960       -.3395        10.05       -.1452E-2     2.750   
   -.4600       -.2959        9.827       -.1345E-2     2.749   
   -.4240       -.2580        9.630       -.1239E-2     2.748   
   -.3880       -.2246        9.458       -.1132E-2     2.748   
   -.3520       -.1950        9.309       -.1026E-2     2.747   
   -.3160       -.1683        9.180       -.9204E-3     2.746   
   -.2800       -.1441        9.068       -.8150E-3     2.745   
   -.2440       -.1219        8.974       -.7097E-3     2.745   
   -.2080       -.1014        8.894       -.6046E-3     2.744   
   -.1720       -.8210E-1     8.829       -.4997E-3     2.744   
   -.1360       -.6384E-1     8.776       -.3950E-3     2.744   
   -.1000       -.4635E-1     8.737       -.2903E-3     2.743   
   -.6400E-1    -.2940E-1     8.710       -.1858E-3     2.743   
   -.2800E-1    -.1280E-1     8.695       -.8127E-4     2.743   
   0.8000E-2    0.3654E-2     8.692       0.2322E-4     2.743   
   0.4400E-1    0.2015E-1     8.700       0.1277E-3     2.743   
   0.8000E-1    0.3688E-1     8.721       0.2322E-3     2.743   
   0.1160       0.5404E-1     8.753       0.3368E-3     2.744   
   0.1520       0.7185E-1     8.798       0.4415E-3     2.744   
   0.1880       0.9053E-1     8.856       0.5463E-3     2.744   
   0.2240       0.1103        8.928       0.6513E-3     2.745   
   0.2600       0.1316        9.014       0.7565E-3     2.745   
   0.2960       0.1546        9.116       0.8618E-3     2.746   
   0.3320       0.1798        9.235       0.9674E-3     2.746   
   0.3680       0.2077        9.373       0.1073E-2     2.747   
   0.4040       0.2390        9.532       0.1179E-2     2.748   
   0.4400       0.2742        9.714       0.1286E-2     2.749   
   0.4760       0.3145        9.923       0.1393E-2     2.750   
   0.5120       0.3611        10.16       0.1500E-2     2.751   
   0.5480       0.4156        10.44       0.1608E-2     2.752   
   0.5840       0.4800        10.75       0.1716E-2     2.753   
   0.6200       0.5574        11.12       0.1824E-2     2.754   
   0.6560       0.6516        11.54       0.1934E-2     2.756   
   0.6920       0.7682        12.04       0.2043E-2     2.757   
   0.7280       0.9154        12.63       0.2153E-2     2.759   
   0.7640        1.105        13.33       0.2264E-2     2.760   
   0.8000        1.355        14.18       0.2376E-2     2.762   
   0.8360        1.696        15.22       0.2488E-2     2.764   
   0.8720        2.177        16.51       0.2601E-2     2.766   
   0.9080        2.885        18.18       0.2715E-2     2.767   
   0.9440        3.991        20.36       0.2829E-2     2.769   
   0.9800        5.847        23.29       0.2944E-2     2.772   
    1.016        9.277        27.32       0.3061E-2     2.774   
    1.052        16.40        32.47       0.3178E-2     2.776   
    1.088        32.09        35.35       0.3296E-2     2.778   
    1.124        53.27        20.02       0.3415E-2     2.781   
    1.160        53.71       -8.301       0.3535E-2     2.783   
    1.196        34.40       -25.51       0.3656E-2     2.786   
    1.232        17.61       -23.80       0.3778E-2     2.788   
    1.268        9.834       -18.63       0.3901E-2     2.791   
    1.304        6.140       -14.47       0.4025E-2     2.794   
    1.340        4.169       -11.42       0.4151E-2     2.797   
    1.376        3.008       -9.150       0.4278E-2     2.800   
    1.412        2.272       -7.421       0.4406E-2     2.803   
    1.448        1.776       -6.064       0.4536E-2     2.806   
    1.484        1.428       -4.973       0.4667E-2     2.810   
      1.5200       1.1749      -4.0763       0.0048       2.8131
      1.5560       0.9851      -3.3267       0.0049       2.8166
      1.5920       0.8395      -2.6896       0.0051       2.8202
      1.6280       0.7257      -2.1404       0.0052       2.8239
      1.6640       0.6353      -1.6612       0.0053       2.8277
      1.7000       0.5625      -1.2381       0.0055       2.8316
      1.7360       0.5034      -0.8607       0.0056       2.8356
      1.7720       0.4549      -0.5207       0.0058       2.8397
      1.8080       0.4149      -0.2117       0.0059       2.8439
      1.8440       0.3818       0.0719       0.0061       2.8482
      1.8800       0.3545       0.3342       0.0062       2.8526
      1.9160       0.3320       0.5790       0.0064       2.8572
      1.9520       0.3136       0.8093       0.0065       2.8618
      1.9880       0.2988       1.0280       0.0067       2.8666
      2.0240       0.2873       1.2373       0.0068       2.8714
      2.0600       0.2788       1.4396       0.0070       2.8764
      2.0960       0.2733       1.6368       0.0072       2.8815
      2.1320       0.2706       1.8311       0.0073       2.8867
      2.1680       0.2709       2.0244       0.0075       2.8921
      2.2040       0.2744       2.2189       0.0077       2.8975
      2.2400       0.2815       2.4169       0.0079       2.9031
      2.2760       0.2930       2.6213       0.0080       2.9088
      2.3120       0.3099       2.8351       0.0082       2.9147
      2.3480       0.3336       3.0625       0.0084       2.9207
      2.3840       0.3666       3.3088       0.0086       2.9268
      2.4200       0.4128       3.5809       0.0088       2.9330
      2.4560       0.4786       3.8889       0.0090       2.9394
      2.4920       0.5749       4.2471       0.0092       2.9459
      2.5280       0.7223       4.6770       0.0094       2.9526
      2.5640       0.9622       5.2120       0.0096       2.9594
      2.6000       1.3862       5.9010       0.0098       2.9664
      2.6360       2.2219       6.7937       0.0100       2.9735
     2.67200      4.07147      7.74295      0.01021      2.98078
     2.70800      7.86850      7.04405      0.01044      2.98821
     2.74400      9.31446      1.53774      0.01066      2.99581
     2.78000      5.51358     -0.86571      0.01089      3.00356
     2.81600      3.39738     -0.10127      0.01113      3.01149
     2.85200      2.79961      0.52459      0.01137      3.01959
     2.88800      2.21702      0.67429      0.01162      3.02786
     2.92400      1.53508      1.14245      0.01187      3.03631
     2.96000      1.21039      1.79272      0.01213      3.04495
     2.99600      1.11308      2.32605      0.01239      3.05377
     3.03200      1.02009      2.83112      0.01266      3.06278
     3.06800      1.03601      3.43207      0.01293      3.07199
     3.10400      1.24317      4.08945      0.01322      3.08141
     3.14000      1.77581      4.73154      0.01350      3.09102
     3.17600      2.64966      4.89799      0.01380      3.10085
     3.21200      2.96866      4.62779      0.01410      3.11089
     3.24800      2.99750      5.02042      0.01441      3.12115
     3.28400      4.06083      5.83150      0.01473      3.13164
     3.32000      6.30023      4.93899      0.01506      3.14236
     3.35600      5.82278      2.25222      0.01539      3.15332
     3.39200      4.05074      2.09177      0.01574      3.16452
     3.42800      3.19663      3.08452      0.01609      3.17597
     3.46400      3.44125      4.51597      0.01645      3.18768
     3.50000      5.20832      5.69974      0.01682      3.19965
     3.53600      8.40994      4.17119      0.01720      3.21189
     3.57200      7.29563      0.09557      0.01760      3.22442
     3.60800      4.34819      0.08856      0.01800      3.23722
     3.64400      3.16458      1.55508      0.01841      3.25033
     3.68000      3.14662      3.16360      0.01884      3.26373
     3.71600      4.25829      4.69663      0.01928      3.27745
     3.75200      6.97795      4.98234      0.01973      3.29149
     3.78800      8.22138      2.05050      0.02020      3.30586
     3.82400      6.66782      1.39155      0.02068      3.32057
     3.86000      7.25112      1.71307      0.02118      3.33563
     3.89600      7.41382      0.45606      0.02169      3.35106
     3.93200      7.23562     -0.18531      0.02222      3.36686
     3.96800      6.15117     -1.31528      0.02277      3.38304
     4.00400      4.68700     -0.64294      0.02333      3.39963
     4.04000      4.59030      0.89437      0.02391      3.41662
     4.07600      6.16858      2.17393      0.02451      3.43404
     4.11200      9.52910      0.89319      0.02514      3.45191
     4.14800      8.79053     -3.86632      0.02578      3.47023
     4.18400      5.31852     -4.34515      0.02645      3.48902
     4.22000      3.97271     -3.12037      0.02714      3.50830
     4.25600      3.70109     -2.30068      0.02786      3.52809
     4.29200      3.89759     -1.86009      0.02861      3.54840
     4.32800      3.66314     -2.32312      0.02938      3.56926
     4.36400      2.67508     -1.83407      0.03018      3.59069
     4.40000      2.41637     -0.65778      0.03102      3.61270
     4.43600      2.95951      0.65271      0.03188      3.63533
     4.47200      4.71515      1.72824      0.03279      3.65859
     4.50800      7.57628      0.63258      0.03372      3.68251
     4.54400      7.89249     -1.91450      0.03470      3.70713
     4.58000      8.30916     -3.88319      0.03572      3.73246
     4.61600      6.14652     -6.84180      0.03679      3.75854
     4.65200      3.28655     -6.67805      0.03790      3.78540
     4.68800      1.90338     -5.68721      0.03906      3.81308
     4.72400      1.24406     -4.84095      0.04028      3.84162
     4.76000      0.88911     -4.18978      0.04155      3.87105
     4.79600      0.67658     -3.68217      0.04288      3.90141
     4.83200      0.53864     -3.27498      0.04428      3.93275
     4.86800      0.44351     -2.93929      0.04575      3.96513
     4.90400      0.37478     -2.65600      0.04729      3.99858
     4.94000      0.32331     -2.41223      0.04891      4.03317
     4.97600      0.28366     -2.19897      0.05061      4.06895
     5.01200      0.25243     -2.00977      0.05241      4.10598
     5.04800      0.22741     -1.83987      0.05430      4.14434
     5.08400      0.20709     -1.68564      0.05630      4.18410
     5.12000      0.19046     -1.54425      0.05841      4.22534
     5.15600      0.17680     -1.41345      0.06065      4.26813
     5.19200      0.16560     -1.29137      0.06303      4.31258
     5.22800      0.15650     -1.17646      0.06554      4.35879
     5.26400      0.14928     -1.06732      0.06822      4.40686
     5.30000      0.14382     -0.96272      0.07107      4.45690
     5.33600      0.14009     -0.86144      0.07410      4.50906
     5.37200      0.13819     -0.76228      0.07735      4.56347
     5.40800      0.13835     -0.66392      0.08081      4.62029
     5.44400      0.14104     -0.56485      0.08453      4.67967
     5.48000      0.14705     -0.46321      0.08852      4.74182
     5.51600      0.15776     -0.35655      0.09281      4.80693
     5.55200      0.17564     -0.24143      0.09743      4.87523
    5.588000     0.205345    -0.112829     0.102422     4.946972
     5.62400      0.25638      0.03688      0.10783      5.02243
    5.660000     0.350015     0.218812     0.113695     5.101927
    5.696000     0.539398     0.443728     0.120079     5.185799
    5.732000     0.965516     0.673849     0.127043     5.274439
    5.768000     1.835509     0.497386     0.134664     5.368288
    5.804000     2.103794    -0.781001     0.143029     5.467842
    5.840000     1.188648    -1.305208     0.152241     5.573664
    5.876000     0.634909    -1.121721     0.162421     5.686399
    5.912000     0.392273    -0.886814     0.173716     5.806782
    5.948000     0.276389    -0.694442     0.186296     5.935660
    5.984000     0.215082    -0.538571     0.200372     6.074014
    6.020000     0.180475    -0.406874     0.216194     6.222985
    6.056000     0.160677    -0.290286     0.234072     6.383909
    6.092000     0.150192    -0.182522     0.254384     6.558359
     6.12800      0.14644     -0.07895      0.27761      6.74820
     6.16400      0.14837      0.02423      0.30433      6.95568
    6.200000     0.155971     0.130602     0.335305     7.183472
    6.236000     0.170179     0.244046     0.371505     7.434871
    6.272000     0.193104     0.369277     0.414191     7.713908
    6.308000     0.228765     0.512620     0.465028     8.025596
    6.344000     0.284718     0.683169     0.526256     8.376249
    6.380000     0.375859     0.894628     0.600940     8.773923
    6.416000     0.534004     1.167809     0.693362     9.229054
    6.452000     0.834482     1.530326     0.809648     9.755397
     6.48800      1.47468      1.98186      0.95880     10.37143
     6.52400      2.93040      2.18499      1.15450     11.10251
     6.56000      4.86798      0.34368      1.41825     11.98429
     6.59600      3.60745     -2.34502      1.78548     13.06826
     6.63200      1.80336     -2.50267      2.31763     14.43095
     6.66800      0.97272     -2.05861      3.12837     16.18926
     6.70400      0.59408     -1.67172      4.44534     18.52479
     6.74000      0.39957     -1.38392      6.77071     21.71041
     6.77600      0.28839     -1.16864     11.34218     26.04411
     6.81200      0.21935     -1.00273     21.45172     30.88953
     6.84800      0.17364     -0.87086     43.03959     27.61354
     6.88400      0.14183     -0.76314     55.13721     -5.22964
     6.92000      0.11877     -0.67309     31.90266    -24.40956
     6.95600      0.10150     -0.59632     15.93152    -21.74518
     6.99200      0.08820     -0.52979      8.91457    -16.84701
     7.02800      0.07772     -0.47133      5.58122    -13.03498
     7.06400      0.06930     -0.41933      3.79981    -10.25081
     7.10000      0.06241     -0.37262      2.75204     -8.18043
     7.13600      0.05670     -0.33028      2.08896     -6.59336
     7.17200      0.05189     -0.29161      1.64509     -5.34017
     7.20800      0.04780     -0.25606      1.33469     -4.32415
     7.24400      0.04428     -0.22318      1.11002     -3.48116
     7.28000      0.04123     -0.19262      0.94288     -2.76744
     7.31600      0.03856     -0.16408      0.81580     -2.15220
     7.35200      0.03620     -0.13731      0.71753     -1.61322
     7.38800      0.03411     -0.11213      0.64054     -1.13405
     7.42400      0.03224     -0.08835      0.57969     -0.70223
     7.46000      0.03056     -0.06583      0.53137     -0.30811
     7.49600      0.02904     -0.04446      0.49301      0.05597
     7.53200      0.02766     -0.02411      0.46273      0.39618
    7.568       0.2640E-1    -.4710E-2    0.4392       0.7176   
     7.60400      0.02525      0.01383      0.42136      1.02460
     7.64000      0.02419      0.03159      0.40858      1.32088
     7.67600      0.02322      0.04862      0.40034      1.60980
     7.71200      0.02231      0.06497      0.39633      1.89443
     7.74800      0.02147      0.08070      0.39640      2.17769
     7.78400      0.02069      0.09585      0.40054      2.46242
     7.82000      0.01996      0.11046      0.40888      2.75154
     7.85600      0.01928      0.12456      0.42174      3.04809
     7.89200      0.01864      0.13819      0.43957      3.35538
     7.92800      0.01804      0.15138      0.46308      3.67711
     7.96400      0.01747      0.16414      0.49326      4.01757
     8.00000      0.01694      0.17651      0.53146      4.38179
# 
# 09/19/2018 at 11:22 YAMBO @ narro [start]
# 09/19/2018 at 11:22               [end]
#  
# Timing   [Min/Max/Average]: 19s/19s/19s
#
# .-Input file : yambo.in
# | optics                         # [R OPT] Optics
# | bse                            # [R BSE] Bethe Salpeter Equation.
# | bsk                            # [R BSK] Bethe Salpeter Equation kernel
# | bss                            # [R BSS] Bethe Salpeter Equation solver
# | BoseTemp= 0.000000     eV      # Bosonic Temperature
# | FFTGvecs=  8845        RL      # [FFT] Plane-waves
# | BSEmod= "retarded"             # [BSE] resonant/retarded/coupling
# | BSKmod= "HF"                   # [BSE] IP/Hartree/HF/ALDA/SEX/BSfxc
# | BSSmod= "hdi"                  # [BSS] (h)aydock/(d)iagonalization/(i)nversion/(t)ddft`
# | BSENGexx= 1            RL      # [BSK] Exchange components
# | BSENGBlk=  55          RL      # [BSK] Screened interaction block size
# | % KfnQP_up_E
# |  5.000000 | 1.000000 | 1.000000 |        # [EXTQP BSK BSS] E parameters UP (c/v) eV|adim|adim
# | %
# | % KfnQP_dn_E
# |  5.000000 | 1.000000 | 1.000000 |        # [EXTQP BSK BSS] E parameters DOWN (c/v) eV|adim|adim
# | %
# | % BEnRange
# | -1.000000 | 8.000000 | eV      # [BSS] Energy range
# | %
# | % BDmRange
# |   0.05000 |  0.05000 | eV      # [BSS] Damping range
# | %
# | BEnSteps= 251                  # [BSS] Energy steps
# | % BLongDir
# | 0.1000E-4 | 0.000    | 0.000    |        # [BSS] [cc] Electric Field
# | %
# | % BSEBands
# |  11 | 15 |                     # [BSK] Bands range
# | %
# | BSSInvMode= "pf"               # [BSS] Inversion solver modality `(f)ull/(p)erturbative`
# | BSEPSInvTrs=   0.0100          # [BSS EPS] Inversion treshold. Relative[o/o](>0)/Absolute(<0)
# | BSSInvPFratio= 1.000000        # [BSS] Inversion solver. Ratio between the number of frequencies solved pert/full
# | BSHayTrs=0.1000E-2             # [BSS] Relative [o/o] Haydock threshold. Strict(>0)/Average(<0)
