#                                                           
#  /$$     /$$ /$$$$$$  /$$      /$$ /$$$$$$$   /$$$$$$     
# |  $$   /$$//$$__  $$| $$$    /$$$| $$__  $$ /$$__  $$    
#  \  $$ /$$/| $$  \ $$| $$$$  /$$$$| $$  \ $$| $$  \ $$    
#   \  $$$$/ | $$$$$$$$| $$ $$/$$ $$| $$$$$$$ | $$  | $$    
#    \  $$/  | $$__  $$| $$  $$$| $$| $$__  $$| $$  | $$    
#     | $$   | $$  | $$| $$\  $ | $$| $$  \ $$| $$  | $$    
#     | $$   | $$  | $$| $$ \/  | $$| $$$$$$$/|  $$$$$$/    
#     |__/   |__/  |__/|__/     |__/|_______/  \______/     
#                                                           
#       Version 4.3.0 Revision 15734 Hash 50fd1d2           
#                     MPI+SLK Build                         
#               http://www.yambo-code.org                   
#
# Joint density of states @ Q(1) [q->0 direction] :0.1000E-4  0.000     0.000   
#
# - Energies      are  Analyt. E
# - The Green`s function is Resonant -
#
#   BSK|Identifier              :7497
#      |Dimension               :108
#      |Bands                   :11 - 15
#      |Exchange           [res]: yes
#      |Correlation        [res]: yes
#      |Kernel`s coupling       : no
#      |Exchange           [cpl]: no
#      |Correlation        [cpl]: no
#      |W interaction is bare   : yes
#      |ALDA kernel in R-space  : no
#      |RL vectors    [exchange]:109
#      |RL vectors [correlation]:55
#      |E/h energy range    [ev]:-1.000000 - -1.000000
#      |Coupling range     [o/o]: 100.0000 -  100.0000
#    W |Interaction is diagonal : yes
#      |Matrix size             :0
#   RIM|RL components      [col]:0
#      |Random points      [col]:0
#
#    E/ev[1]      jdos-Im[2]   jdos-Re[3]   jdoso-Im[4]  jdoso-Re[5]  jdos`-Im[6]  jdos`-Re[7]
#
     -1.0000       0.0104       0.9376       0.0024       0.4635
     -0.9640       0.0106       0.9452       0.0024       0.4652
     -0.9280       0.0108       0.9528       0.0024       0.4669
     -0.8920       0.0110       0.9607       0.0024       0.4687
     -0.8560       0.0112       0.9687       0.0024       0.4704
     -0.8200       0.0114       0.9768       0.0025       0.4722
     -0.7840       0.0116       0.9851       0.0025       0.4739
     -0.7480       0.0119       0.9935       0.0025       0.4757
     -0.7120       0.0121       1.0022       0.0025       0.4775
     -0.6760       0.0123       1.0110       0.0025       0.4793
     -0.6400       0.0126       1.0199       0.0025       0.4812
     -0.6040       0.0129       1.0291       0.0026       0.4830
     -0.5680       0.0131       1.0385       0.0026       0.4849
     -0.5320       0.0134       1.0480       0.0026       0.4867
     -0.4960       0.0137       1.0578       0.0026       0.4886
     -0.4600       0.0140       1.0678       0.0026       0.4905
     -0.4240       0.0144       1.0780       0.0027       0.4924
     -0.3880       0.0147       1.0885       0.0027       0.4944
     -0.3520       0.0151       1.0992       0.0027       0.4963
     -0.3160       0.0154       1.1102       0.0027       0.4983
     -0.2800       0.0158       1.1214       0.0028       0.5002
     -0.2440       0.0162       1.1330       0.0028       0.5022
     -0.2080       0.0167       1.1448       0.0028       0.5042
     -0.1720       0.0171       1.1570       0.0028       0.5063
     -0.1360       0.0176       1.1695       0.0028       0.5083
     -0.1000       0.0181       1.1823       0.0029       0.5104
     -0.0640       0.0187       1.1956       0.0029       0.5124
     -0.0280       0.0192       1.2092       0.0029       0.5145
      0.0080       0.0198       1.2232       0.0029       0.5166
      0.0440       0.0205       1.2377       0.0030       0.5188
      0.0800       0.0212       1.2527       0.0030       0.5209
      0.1160       0.0219       1.2682       0.0030       0.5231
      0.1520       0.0228       1.2843       0.0030       0.5253
      0.1880       0.0236       1.3009       0.0031       0.5275
      0.2240       0.0246       1.3182       0.0031       0.5297
      0.2600       0.0256       1.3363       0.0031       0.5319
      0.2960       0.0267       1.3550       0.0031       0.5342
      0.3320       0.0280       1.3747       0.0032       0.5364
      0.3680       0.0293       1.3952       0.0032       0.5387
      0.4040       0.0309       1.4168       0.0032       0.5410
      0.4400       0.0326       1.4396       0.0033       0.5434
      0.4760       0.0345       1.4636       0.0033       0.5457
      0.5120       0.0367       1.4891       0.0033       0.5481
      0.5480       0.0393       1.5163       0.0033       0.5505
      0.5840       0.0422       1.5453       0.0034       0.5529
      0.6200       0.0456       1.5767       0.0034       0.5554
      0.6560       0.0497       1.6106       0.0034       0.5578
      0.6920       0.0547       1.6477       0.0035       0.5603
      0.7280       0.0607       1.6885       0.0035       0.5628
      0.7640       0.0683       1.7340       0.0035       0.5653
      0.8000       0.0780       1.7854       0.0036       0.5679
      0.8360       0.0908       1.8442       0.0036       0.5705
      0.8720       0.1082       1.9127       0.0036       0.5731
      0.9080       0.1330       1.9945       0.0037       0.5757
      0.9440       0.1699       2.0947       0.0037       0.5783
      0.9800       0.2292       2.2210       0.0037       0.5810
      1.0160       0.3330       2.3849       0.0038       0.5837
      1.0520       0.5375       2.5948       0.0038       0.5864
      1.0880       0.9838       2.7928       0.0038       0.5892
      1.1240       1.7498       2.5299       0.0039       0.5919
      1.1600       1.8036       1.6495       0.0039       0.5947
      1.1960       1.4089       1.5455       0.0039       0.5976
      1.2320       1.6683       1.6121       0.0040       0.6004
      1.2680       1.9073       0.8399       0.0040       0.6033
      1.3040       1.1721       0.3365       0.0041       0.6062
      1.3400       0.6292       0.4933       0.0041       0.6091
      1.3760       0.3823       0.7192       0.0041       0.6121
      1.4120       0.2618       0.9023       0.0042       0.6151
      1.4480       0.1959       1.0461       0.0042       0.6181
      1.4840       0.1564       1.1624       0.0043       0.6212
      1.5200       0.1311       1.2601       0.0043       0.6243
      1.5560       0.1143       1.3449       0.0044       0.6274
      1.5920       0.1027       1.4207       0.0044       0.6305
      1.6280       0.0946       1.4902       0.0044       0.6337
      1.6640       0.0889       1.5552       0.0045       0.6369
      1.7000       0.0850       1.6170       0.0045       0.6402
      1.7360       0.0824       1.6766       0.0046       0.6435
      1.7720       0.0809       1.7349       0.0046       0.6468
      1.8080       0.0803       1.7926       0.0047       0.6501
      1.8440       0.0803       1.8500       0.0047       0.6535
      1.8800       0.0810       1.9078       0.0048       0.6569
      1.9160       0.0823       1.9663       0.0048       0.6604
      1.9520       0.0841       2.0259       0.0049       0.6639
      1.9880       0.0865       2.0871       0.0049       0.6674
      2.0240       0.0894       2.1501       0.0050       0.6710
      2.0600       0.0929       2.2155       0.0050       0.6746
      2.0960       0.0970       2.2835       0.0051       0.6783
      2.1320       0.1018       2.3547       0.0052       0.6820
      2.1680       0.1073       2.4295       0.0052       0.6857
      2.2040       0.1138       2.5086       0.0053       0.6895
      2.2400       0.1213       2.5926       0.0053       0.6933
      2.2760       0.1300       2.6824       0.0054       0.6971
      2.3120       0.1403       2.7788       0.0055       0.7010
      2.3480       0.1526       2.8831       0.0055       0.7050
      2.3840       0.1673       2.9967       0.0056       0.7090
      2.4200       0.1853       3.1216       0.0056       0.7130
      2.4560       0.2080       3.2603       0.0057       0.7171
      2.4920       0.2371       3.4163       0.0058       0.7212
      2.5280       0.2761       3.5944       0.0058       0.7254
      2.5640       0.3309       3.8016       0.0059       0.7297
      2.6000       0.4136       4.0482       0.0060       0.7339
      2.6360       0.5511       4.3483       0.0061       0.7383
      2.6720       0.8106       4.7106       0.0061       0.7427
      2.7080       1.3561       5.0493       0.0062       0.7471
      2.7440       2.1672       4.8036       0.0063       0.7516
      2.7800       2.0172       4.1909       0.0064       0.7562
      2.8160       1.7128       4.5442       0.0064       0.7608
      2.8520       2.1128       5.1258       0.0065       0.7654
      2.8880       2.9904       5.1286       0.0066       0.7701
      2.9240       3.3558       4.4855       0.0067       0.7749
      2.9600       3.0713       4.4826       0.0068       0.7798
      2.9960       3.5888       4.8535       0.0069       0.7847
      3.0320       4.3451       4.4865       0.0069       0.7897
      3.0680       4.6468       3.8761       0.0070       0.7947
      3.1040       4.4653       3.0000       0.0071       0.7998
      3.1400       3.7598       3.1932       0.0072       0.8050
      3.1760       4.0903       3.5296       0.0073       0.8102
      3.2120       4.2508       3.3758       0.0074       0.8155
      3.2480       4.2571       3.2757       0.0075       0.8209
      3.2840       4.3187       3.8300       0.0076       0.8263
      3.3200       5.6226       4.1441       0.0077       0.8319
      3.3560       7.1706       2.7882       0.0078       0.8375
      3.3920       6.6915       0.1509       0.0079       0.8431
      3.4280       4.2639      -0.4664       0.0081       0.8489
      3.4640       2.9435       0.6671       0.0082       0.8547
      3.5000       2.8174       1.9743       0.0083       0.8607
      3.5360       3.6983       2.8147       0.0084       0.8667
      3.5720       4.5552       2.2876       0.0085       0.8728
      3.6080       4.4569       1.8673       0.0087       0.8790
      3.6440       4.1571       1.5158       0.0088       0.8852
      3.6800       3.4821       1.7685       0.0089       0.8916
      3.7160       3.3690       2.7601       0.0090       0.8981
      3.7520       4.1578       3.4793       0.0092       0.9046
      3.7880       5.0713       3.5174       0.0093       0.9113
      3.8240       5.6474       3.4994       0.0095       0.9181
      3.8600       7.0402       3.4769       0.0096       0.9249
      3.8960       8.0067       1.4178       0.0098       0.9319
      3.9320       6.6965       0.3510       0.0099       0.9390
     3.96800      6.31331      0.73930      0.01008      0.94619
     4.00400      6.68346      0.34934      0.01024      0.95351
     4.04000      6.24076     -0.01710      0.01041      0.96094
     4.07600      6.18922     -0.23290      0.01058      0.96849
     4.11200      5.82090     -0.33783      0.01075      0.97617
     4.14800      5.51399     -0.42070      0.01093      0.98397
     4.18400      5.18284      0.28975      0.01112      0.99190
     4.22000      6.25920      0.77642      0.01130      0.99997
     4.25600      6.90818     -0.15257      0.01150      1.00818
     4.29200      6.94119     -0.50307      0.01170      1.01653
     4.32800      7.25597     -1.37178      0.01190      1.02502
     4.36400      6.77762     -2.28749      0.01211      1.03367
     4.40000      5.78124     -2.61589      0.01233      1.04246
     4.43600      5.17557     -1.95811      0.01256      1.05142
     4.47200      5.63261     -1.34175      0.01278      1.06054
     4.50800      6.75647     -1.64051      0.01302      1.06983
     4.54400      6.93552     -3.36695      0.01326      1.07928
     4.58000      5.60083     -3.99855      0.01352      1.08892
     4.61600      5.22148     -3.91618      0.01377      1.09874
     4.65200      4.56840     -4.25428      0.01404      1.10875
     4.68800      4.02116     -4.05260      0.01432      1.11895
     4.72400      3.73484     -4.11850      0.01460      1.12936
     4.76000      2.83639     -4.12285      0.01489      1.13997
     4.79600      2.19563     -3.27675      0.01520      1.15080
     4.83200      2.32477     -2.30757      0.01551      1.16185
     4.86800      3.12964     -1.88469      0.01583      1.17312
     4.90400      3.55962     -2.32487      0.01617      1.18464
     4.94000      3.44254     -2.52929      0.01651      1.19640
     4.97600      3.46112     -2.48793      0.01687      1.20841
     5.01200      3.73371     -2.61442      0.01724      1.22068
     5.04800      3.58783     -3.11063      0.01763      1.23323
     5.08400      3.13212     -3.03011      0.01803      1.24606
     5.12000      3.38176     -2.70564      0.01845      1.25918
     5.15600      3.78407     -3.18092      0.01888      1.27261
     5.19200      3.44271     -3.73854      0.01933      1.28636
     5.22800      3.06747     -3.96599      0.01980      1.30043
     5.26400      2.59108     -4.08022      0.02028      1.31485
     5.30000      2.22370     -4.02133      0.02079      1.32963
     5.33600      1.72564     -3.84900      0.02132      1.34478
     5.37200      1.57593     -3.31851      0.02188      1.36032
     5.40800      1.98718     -3.10610      0.02246      1.37626
     5.44400      2.06321     -3.69343      0.02307      1.39264
     5.48000      1.34958     -3.86482      0.02370      1.40946
     5.51600      0.87291     -3.49225      0.02437      1.42675
     5.55200      0.67561     -3.06645      0.02508      1.44453
     5.58800      0.61783     -2.66441      0.02582      1.46283
     5.62400      0.66024     -2.26618      0.02660      1.48168
     5.66000      0.83663     -1.84850      0.02742      1.50110
     5.69600      1.27317     -1.46235      0.02830      1.52114
     5.73200      1.97359     -1.45301      0.02923      1.54182
     5.76800      2.54704     -1.77606      0.03021      1.56318
     5.80400      2.88242     -2.59415      0.03126      1.58528
     5.84000      2.74389     -3.26940      0.03239      1.60815
     5.87600      2.10206     -4.07339      0.03359      1.63186
     5.91200      1.17050     -4.01457      0.03489      1.65647
     5.94800      0.70124     -3.64837      0.03629      1.68203
     5.98400      0.47842     -3.32291      0.03780      1.70864
     6.02000      0.35994     -3.06128      0.03945      1.73637
     6.05600      0.29050     -2.84654      0.04125      1.76534
     6.09200      0.24718     -2.66375      0.04323      1.79565
     6.12800      0.21945     -2.50248      0.04541      1.82744
     6.16400      0.20215     -2.35545      0.04784      1.86087
     6.20000      0.19275     -2.21714      0.05057      1.89613
     6.23600      0.19028     -2.08291      0.05365      1.93344
     6.27200      0.19499     -1.94833      0.05716      1.97308
     6.30800      0.20845     -1.80855      0.06120      2.01538
     6.34400      0.23422     -1.65745      0.06592      2.06074
     6.38000      0.27969     -1.48664      0.07150      2.10970
     6.41600      0.36051     -1.28385      0.07819      2.16291
     6.45200      0.51282     -1.03219      0.08638      2.22124
     6.48800      0.82874     -0.72200      0.09660      2.28584
    6.524000     1.535062    -0.467373     0.109688     2.358287
    6.560000     2.670602    -0.983347     0.126927     2.440765
    6.596000     2.934016    -2.423700     0.150453     2.536418
    6.632000     1.980115    -3.446353     0.183954     2.649895
    6.668000     1.034476    -3.377970     0.234255     2.788272
    6.704000     0.591298    -3.070591     0.315014     2.962507
    6.740000     0.382401    -2.811893     0.456350     3.189041
    6.776000     0.271505    -2.613948     0.732488     3.485823
    6.812000     0.206213    -2.459844     1.340829     3.814790
    6.848000     0.164584    -2.335918     2.637574     3.658387
    6.884000     0.136374    -2.233147     3.365433     1.730806
    6.920000     0.116329    -2.145648     1.974904     0.624325
    6.956000     0.101546    -2.069498     1.020096     0.829624
     6.99200      0.09032     -2.00200      0.60241      1.17098
     7.02800      0.08160     -1.94123      0.40585      1.44948
     7.06400      0.07472     -1.88580      0.30261      1.66882
     7.10000      0.06923     -1.83462      0.24367      1.84803
     7.13600      0.06483     -1.78688      0.20815      2.00115
     7.17200      0.06133     -1.74190      0.18616      2.13742
     7.20800      0.05860     -1.69911      0.17263      2.26294
     7.24400      0.05656     -1.65801      0.16476      2.38188
     7.28000      0.05521     -1.61813      0.16094      2.49727
     7.31600      0.05457     -1.57901      0.16022      2.61141
     7.35200      0.05474     -1.54012      0.16206      2.72618
     7.38800      0.05589     -1.50090      0.16617      2.84319
     7.42400      0.05838     -1.46060      0.17245      2.96396
     7.46000      0.06277     -1.41824      0.18094      3.08997
     7.49600      0.07013     -1.37245      0.19185      3.22281
     7.53200      0.08246     -1.32115      0.20556      3.36427
    7.568000     0.103906    -1.261216     0.222674     3.516421
    7.604000     0.143913    -1.188139     0.244122     3.681837
    7.640000     0.226421    -1.098369     0.271357     3.863806
    7.676000     0.414329    -1.014885     0.306693     4.066706
    7.712000     0.771177    -1.141618     0.353994     4.296593
    7.748000     0.780050    -1.662476     0.420115     4.562168
    7.784000     0.419640    -1.802875     0.518185     4.876305
    7.820000     0.225455    -1.723467     0.675910     5.258020
    7.856000     0.139285    -1.637076     0.958809     5.731100
     7.89200      0.09666     -1.56866      1.53780      6.28635
     7.92800      0.07294     -1.51489      2.77965      6.57121
     7.96400      0.05844     -1.47125      3.98374      5.24068
     8.00000      0.04890     -1.43463      2.96123      4.15794
# 
# 09/19/2018 at 11:13 YAMBO @ narro [start]
# 09/19/2018 at 11:13               [end]
#  
# Timing   [Min/Max/Average]: 25s/25s/25s
#
# .-Input file : yambo.in
# | optics                         # [R OPT] Optics
# | bse                            # [R BSE] Bethe Salpeter Equation.
# | bsk                            # [R BSK] Bethe Salpeter Equation kernel
# | bss                            # [R BSS] Bethe Salpeter Equation solver
# | BoseTemp= 0.000000     eV      # Bosonic Temperature
# | FFTGvecs=  8845        RL      # [FFT] Plane-waves
# | BSEmod= "resonant"             # [BSE] resonant/retarded/coupling
# | BSKmod= "HF"                   # [BSE] IP/Hartree/HF/ALDA/SEX/BSfxc
# | BSSmod= "hdi"                  # [BSS] (h)aydock/(d)iagonalization/(i)nversion/(t)ddft`
# | BSENGexx= 109          RL      # [BSK] Exchange components
# | BSENGBlk=  55          RL      # [BSK] Screened interaction block size
# | % KfnQP_up_E
# |  5.000000 | 1.000000 | 1.000000 |        # [EXTQP BSK BSS] E parameters UP (c/v) eV|adim|adim
# | %
# | % KfnQP_dn_E
# |  5.000000 | 1.000000 | 1.000000 |        # [EXTQP BSK BSS] E parameters DOWN (c/v) eV|adim|adim
# | %
# | % BEnRange
# | -1.000000 | 8.000000 | eV      # [BSS] Energy range
# | %
# | % BDmRange
# |   0.05000 |  0.05000 | eV      # [BSS] Damping range
# | %
# | BEnSteps= 251                  # [BSS] Energy steps
# | % BLongDir
# | 0.1000E-4 | 0.000    | 0.000    |        # [BSS] [cc] Electric Field
# | %
# | % BSEBands
# |  11 | 15 |                     # [BSK] Bands range
# | %
# | BSSInvMode= "pf"               # [BSS] Inversion solver modality `(f)ull/(p)erturbative`
# | BSEPSInvTrs=   0.0100          # [BSS EPS] Inversion treshold. Relative[o/o](>0)/Absolute(<0)
# | BSSInvPFratio= 1.000000        # [BSS] Inversion solver. Ratio between the number of frequencies solved pert/full
# | BSHayTrs=0.1000E-2             # [BSS] Relative [o/o] Haydock threshold. Strict(>0)/Average(<0)
