#                                                           
#                                                           
# Y88b    /   e           e    e      888~~\    ,88~-_      
#  Y88b  /   d8b         d8b  d8b     888   |  d888   \     
#   Y88b/   /Y88b       d888bdY88b    888 _/  88888    |    
#    Y8Y   /  Y88b     / Y88Y Y888b   888  \  88888    |    
#     Y   /____Y88b   /   YY   Y888b  888   |  Y888   /     
#    /   /      Y88b /          Y888b 888__/    `88_-~      
#                                                           
#                                                           
#      Version 4.4.0 Revision 15985 Hash fa2210659          
#                  MPI+SLK+OpenMP Build                     
#               http://www.yambo-code.org                   
#
# EELS @ Q(1)  [q->0 direction]:0.1000E-4  0.000     0.000   
#
#
# - Energies      are  Analyt. E
# - Wavefunctions are Slater exchange(X)+Perdew & Zunger(C)
#
# - The Green`s function is Resonant -
# - Using the Length Gauge -
# - [r,Vnl] *is* included -
#
#   BSK|Identifier              :4583
#      |Dimension               :108
#      |Bands                   :11 - 15
#      |Exchange           [res]: yes
#      |Correlation        [res]: yes
#      |Kernel`s coupling       : no
#      |Exchange           [cpl]: no
#      |Correlation        [cpl]: no
#      |W interaction is bare   : yes
#      |ALDA kernel in R-space  : no
#      |RL vectors    [exchange]:109
#      |RL vectors [correlation]:55
#      |E/h energy range    [ev]:-1.000000 - -1.000000
#      |Coupling range     [o/o]: 100.0000 -  100.0000
#    W |Interaction is diagonal : yes
#      |Matrix size             :0
#   RIM|RL components      [col]:0
#      |Random points      [col]:0
#
#    E/ev[1]      EEL-Im[2]    EEL-Re[3]    EELo-Im[4]   EELo-Re[5]
#
     -1.0000      -0.0079      -0.0570      -0.0021      -0.5365
   -.9640       -.7165E-2    -.6236E-1    -.8424E-3    -.5368   
   -.9280       -.6665E-2    -.6736E-1    -.8051E-3    -.5377   
   -.8920       -.6200E-2    -.7198E-1    -.7733E-3    -.5383   
   -.8560       -.5771E-2    -.7628E-1    -.7416E-3    -.5387   
   -.8200       -.5373E-2    -.8027E-1    -.7098E-3    -.5391   
   -.7840       -.5004E-2    -.8400E-1    -.6782E-3    -.5395   
   -.7480       -.4658E-2    -.8746E-1    -.6466E-3    -.5399   
   -.7120       -.4334E-2    -.9069E-1    -.6150E-3    -.5402   
   -.6760       -.4029E-2    -.9369E-1    -.5833E-3    -.5404   
   -.6400       -.3740E-2    -.9648E-1    -.5520E-3    -.5408   
   -.6040       -.3466E-2    -.9907E-1    -.5206E-3    -.5410   
   -.5680       -.3205E-2    -.1015       -.4893E-3    -.5413   
   -.5320       -.2956E-2    -.1037       -.4580E-3    -.5415   
   -.4960       -.2717E-2    -.1057       -.4268E-3    -.5417   
   -.4600       -.2488E-2    -.1076       -.3956E-3    -.5419   
   -.4240       -.2266E-2    -.1093       -.3645E-3    -.5421   
   -.3880       -.2051E-2    -.1108       -.3334E-3    -.5422   
   -.3520       -.1843E-2    -.1122       -.3023E-3    -.5424   
   -.3160       -.1640E-2    -.1135       -.2714E-3    -.5426   
   -.2800       -.1443E-2    -.1146       -.2403E-3    -.5427   
   -.2440       -.1249E-2    -.1156       -.2094E-3    -.5428   
   -.2080       -.1059E-2    -.1164       -.1785E-3    -.5429   
   -.1720       -.8713E-3    -.1171       -.1475E-3    -.5430   
   -.1360       -.6865E-3    -.1177       -.1166E-3    -.5430   
   -.1000       -.5035E-3    -.1181       -.8577E-4    -.5431   
   -.6400E-1    -.3219E-3    -.1184       -.5490E-4    -.5431   
   -.2800E-1    -.1412E-3    -.1185       -.2403E-4    -.5431   
   0.8000E-2    0.3919E-4    -.1186       0.6833E-5    -.5431   
   0.4400E-1    0.2196E-3    -.1185       0.3770E-4    -.5431   
   0.8000E-1    0.4007E-3    -.1183       0.6856E-4    -.5431   
   0.1160       0.5827E-3    -.1179       0.9943E-4    -.5430   
   0.1520       0.7664E-3    -.1174       0.1303E-3    -.5430   
   0.1880       0.9521E-3    -.1168       0.1613E-3    -.5430   
   0.2240       0.1140E-2    -.1161       0.1921E-3    -.5428   
   0.2600       0.1332E-2    -.1152       0.2231E-3    -.5428   
   0.2960       0.1527E-2    -.1141       0.2540E-3    -.5426   
   0.3320       0.1727E-2    -.1130       0.2850E-3    -.5425   
   0.3680       0.1932E-2    -.1116       0.3160E-3    -.5423   
   0.4040       0.2142E-2    -.1102       0.3471E-3    -.5421   
   0.4400       0.2359E-2    -.1086       0.3783E-3    -.5420   
   0.4760       0.2584E-2    -.1068       0.4094E-3    -.5418   
   0.5120       0.2817E-2    -.1048       0.4406E-3    -.5416   
   0.5480       0.3059E-2    -.1027       0.4719E-3    -.5414   
   0.5840       0.3313E-2    -.1004       0.5032E-3    -.5412   
   0.6200       0.3578E-2    -.9794E-1    0.5346E-3    -.5409   
   0.6560       0.3856E-2    -.9527E-1    0.5659E-3    -.5406   
   0.6920       0.4150E-2    -.9239E-1    0.5974E-3    -.5403   
   0.7280       0.4461E-2    -.8929E-1    0.6290E-3    -.5401   
   0.7640       0.4791E-2    -.8595E-1    0.6608E-3    -.5398   
   0.8000       0.5143E-2    -.8237E-1    0.6922E-3    -.5394   
   0.8360       0.5519E-2    -.7853E-1    0.7239E-3    -.5390   
   0.8720       0.5923E-2    -.7440E-1    0.7554E-3    -.5385   
   0.9080       0.6358E-2    -.6997E-1    0.7874E-3    -.5381   
   0.9440       0.6826E-2    -.6519E-1    0.8194E-3    -.5375   
      0.9800       0.0074      -0.0600       0.0014      -0.5364
      1.0160       0.0080      -0.0546       0.0021      -0.5367
      1.0520       0.0086      -0.0487       0.0022      -0.5366
      1.0880       0.0093      -0.0423       0.0022      -0.5364
      1.1240       0.0100      -0.0354       0.0022      -0.5361
      1.1600       0.0109      -0.0279       0.0022      -0.5357
      1.1960       0.0121      -0.0199       0.0022      -0.5354
      1.2320       0.0142      -0.0107       0.0023      -0.5351
    1.268       0.1450E-1    -.1172E-2    0.2290E-2    -.5346   
      1.3040       0.0171       0.0087       0.0023      -0.5341
      1.3400       0.0179       0.0214       0.0023      -0.5336
      1.3760       0.0195       0.0344       0.0024      -0.5331
      1.4120       0.0220       0.0491       0.0024      -0.5327
      1.4480       0.0251       0.0658       0.0024      -0.5321
      1.4840       0.0290       0.0849       0.0024      -0.5317
      1.5200       0.0338       0.1068       0.0025      -0.5311
      1.5560       0.0401       0.1323       0.0025      -0.5304
      1.5920       0.0482       0.1624       0.0025      -0.5299
      1.6280       0.0593       0.1985       0.0025      -0.5293
      1.6640       0.0748       0.2428       0.0025      -0.5286
      1.7000       0.0975       0.2981       0.0026      -0.5280
      1.7360       0.1324       0.3693       0.0026      -0.5274
      1.7720       0.1900       0.4633       0.0026      -0.5266
      1.8080       0.2933       0.5898       0.0027      -0.5259
      1.8440       0.4997       0.7542       0.0027      -0.5252
      1.8800       0.9514       0.8949       0.0027      -0.5245
      1.9160       1.7700       0.5509       0.0027      -0.5238
      1.9520       1.8303      -0.6755       0.0028      -0.5230
      1.9880       1.0089      -1.0980       0.0028      -0.5221
      2.0240       0.5295      -0.9712       0.0028      -0.5213
      2.0600       0.3108      -0.8051       0.0028      -0.5205
      2.0960       0.2020      -0.6751       0.0029      -0.5196
      2.1320       0.1420      -0.5776       0.0029      -0.5188
      2.1680       0.1059      -0.5030       0.0029      -0.5179
      2.2040       0.0827      -0.4441       0.0030      -0.5170
      2.2400       0.0671      -0.3961       0.0030      -0.5160
      2.2760       0.0561      -0.3559       0.0030      -0.5151
      2.3120       0.0483      -0.3213       0.0030      -0.5142
      2.3480       0.0425      -0.2909       0.0031      -0.5132
      2.3840       0.0383      -0.2635       0.0031      -0.5123
      2.4200       0.0352      -0.2384       0.0031      -0.5112
      2.4560       0.0330      -0.2149       0.0032      -0.5101
      2.4920       0.0314      -0.1925       0.0032      -0.5091
      2.5280       0.0306      -0.1709       0.0032      -0.5079
      2.5640       0.0302      -0.1495       0.0033      -0.5068
      2.6000       0.0305      -0.1280       0.0033      -0.5058
      2.6360       0.0314      -0.1061       0.0033      -0.5046
      2.6720       0.0331      -0.0834       0.0034      -0.5035
      2.7080       0.0364      -0.0596       0.0034      -0.5022
      2.7440       0.0435      -0.0322       0.0034      -0.5011
      2.7800       0.0460      -0.0040       0.0035      -0.4998
      2.8160       0.0584       0.0279       0.0035      -0.4985
      2.8520       0.0689       0.0709       0.0035      -0.4972
      2.8880       0.0900       0.1207       0.0036      -0.4959
      2.9240       0.1301       0.1846       0.0036      -0.4946
      2.9600       0.2110       0.2667       0.0037      -0.4932
      2.9960       0.3915       0.3483       0.0037      -0.4919
      3.0320       0.7461       0.2490       0.0037      -0.4904
      3.0680       0.8175      -0.2699       0.0038      -0.4890
      3.1040       0.4598      -0.4563       0.0038      -0.4876
      3.1400       0.2528      -0.3829       0.0039      -0.4861
      3.1760       0.1678      -0.2881       0.0039      -0.4846
      3.2120       0.1431      -0.2065       0.0039      -0.4830
      3.2480       0.1624      -0.1314       0.0040      -0.4815
      3.2840       0.2083      -0.1027       0.0040      -0.4799
      3.3200       0.2744      -0.1795       0.0041      -0.4783
      3.3560       0.1910      -0.2461       0.0041      -0.4767
      3.3920       0.1133      -0.2127       0.0042      -0.4750
      3.4280       0.0783      -0.1648       0.0042      -0.4733
      3.4640       0.0626      -0.1216       0.0043      -0.4715
      3.5000       0.0565      -0.0829       0.0043      -0.4698
      3.5360       0.0586      -0.0449       0.0043      -0.4680
      3.5720       0.0581      -0.0075       0.0044      -0.4662
      3.6080       0.0717       0.0269       0.0044      -0.4643
      3.6440       0.0916       0.0735       0.0045      -0.4624
      3.6800       0.1435       0.1105       0.0045      -0.4605
      3.7160       0.2280       0.0778       0.0046      -0.4586
      3.7520       0.1987      -0.0080       0.0046      -0.4566
      3.7880       0.1250       0.0091       0.0047      -0.4545
      3.8240       0.1027       0.0446       0.0048      -0.4526
      3.8600       0.1009       0.0957       0.0048      -0.4504
      3.8960       0.1081       0.1258       0.0049      -0.4483
      3.9320       0.1143       0.1623       0.0049      -0.4461
      3.9680       0.1317       0.2041       0.0050      -0.4439
      4.0040       0.1575       0.2225       0.0050      -0.4417
      4.0400       0.1685       0.2624       0.0051      -0.4394
      4.0760       0.1973       0.3108       0.0051      -0.4371
      4.1120       0.2486       0.3682       0.0052      -0.4347
      4.1480       0.3624       0.4371       0.0053      -0.4324
      4.1840       0.5598       0.3523       0.0053      -0.4299
      4.2200       0.4903       0.1612       0.0054      -0.4274
      4.2560       0.3843       0.1742       0.0055      -0.4249
      4.2920       0.4192       0.3205       0.0055      -0.4223
      4.3280       0.6332       0.4183       0.0056      -0.4197
      4.3640       0.9841       0.1344       0.0057      -0.4171
      4.4000       0.7567      -0.3549       0.0057      -0.4143
      4.4360       0.3983      -0.3645       0.0058      -0.4116
      4.4720       0.2310      -0.2502       0.0059      -0.4088
      4.5080       0.1573      -0.1471       0.0059      -0.4059
      4.5440       0.1245      -0.0584       0.0060      -0.4030
      4.5800       0.0950       0.0075       0.0061      -0.4001
      4.6160       0.0891       0.0634       0.0062      -0.3971
      4.6520       0.0746       0.1193       0.0062      -0.3940
      4.6880       0.0682       0.1680       0.0063      -0.3909
      4.7240       0.0655       0.2151       0.0064      -0.3877
      4.7600       0.0645       0.2612       0.0065      -0.3845
      4.7960       0.0646       0.3070       0.0066      -0.3811
      4.8320       0.0657       0.3530       0.0066      -0.3778
      4.8680       0.0676       0.4000       0.0067      -0.3743
      4.9040       0.0705       0.4484       0.0068      -0.3708
      4.9400       0.0742       0.4990       0.0069      -0.3673
      4.9760       0.0790       0.5522       0.0070      -0.3637
      5.0120       0.0848       0.6088       0.0071      -0.3600
      5.0480       0.0921       0.6697       0.0072      -0.3563
      5.0840       0.1010       0.7358       0.0073      -0.3524
      5.1200       0.1119       0.8082       0.0074      -0.3485
      5.1560       0.1257       0.8885       0.0075      -0.3445
      5.1920       0.1431       0.9789       0.0076      -0.3404
      5.2280       0.1656       1.0816       0.0077      -0.3364
      5.2640       0.1953       1.2004       0.0078      -0.3321
      5.3000       0.2358       1.3406       0.0079      -0.3278
      5.3360       0.2929       1.5095       0.0080      -0.3234
      5.3720       0.3771       1.7178       0.0081      -0.3189
      5.4080       0.5097       1.9833       0.0082      -0.3144
      5.4440       0.7341       2.3308       0.0083      -0.3097
      5.4800       1.1514       2.7889       0.0084      -0.3049
      5.5160       2.0259       3.3378       0.0085      -0.3001
      5.5520       3.9267       3.4624       0.0087      -0.2951
      5.5880       6.1146       0.9629       0.0088      -0.2900
      5.6240       4.3906      -2.1010       0.0089      -0.2849
      5.6600       2.2547      -2.1998       0.0091      -0.2796
      5.6960       1.2613      -1.6194       0.0092      -0.2742
      5.7320       0.8091      -1.0992       0.0093      -0.2687
      5.7680       0.5891      -0.6895       0.0095      -0.2630
      5.8040       0.4938      -0.3466       0.0096      -0.2573
      5.8400       0.4129      -0.0414       0.0098      -0.2513
      5.8760       0.4060       0.1767       0.0099      -0.2453
     5.91200      0.38807      0.45641      0.01007     -0.23916
     5.94800      0.40180      0.71677      0.01023     -0.23284
     5.98400      0.45946      1.00239      0.01040     -0.22638
     6.02000      0.56745      1.33377      0.01057     -0.21975
     6.05600      0.75924      1.73710      0.01075     -0.21299
     6.09200      1.11805      2.24896      0.01093     -0.20606
     6.12800      1.84915      2.88546      0.01111     -0.19896
     6.16400      3.47578      3.40488      0.01131     -0.19170
     6.20000      6.33101      2.04430      0.01151     -0.18424
     6.23600      6.12808     -2.15206      0.01171     -0.17660
     6.27200      3.28899     -3.25115      0.01193     -0.16877
     6.30800      1.75871     -2.69268      0.01215     -0.16074
     6.34400      1.06668     -2.06696      0.01238     -0.15249
     6.38000      0.72282     -1.57218      0.01262     -0.14405
     6.41600      0.53399     -1.18668      0.01288     -0.13536
     6.45200      0.42148     -0.87550      0.01314     -0.12643
     6.48800      0.35254     -0.61544      0.01341     -0.11728
     6.52400      0.31470     -0.39003      0.01370     -0.10786
     6.56000      0.30564     -0.17225      0.01399     -0.09817
      6.5960       0.2674       0.0090       0.0143      -0.0882
     6.63200      0.27873      0.18581      0.01463     -0.07798
     6.66800      0.25716      0.37404      0.01497     -0.06743
     6.70400      0.25564      0.55180      0.01532     -0.05659
     6.74000      0.26402      0.73526      0.01570     -0.04544
     6.77600      0.27862      0.92722      0.01616     -0.03404
     6.81200      0.29824      1.12911      0.01713     -0.02242
      6.8480       0.3244       1.3457       0.0187      -0.0092
    6.884       0.3577        1.580       0.1807E-1    0.1658E-2
     6.92000      0.40094      1.83992      0.01965      0.01515
     6.95600      0.45590      2.12957      0.01906      0.02879
     6.99200      0.52582      2.45625      0.01953      0.04245
     7.02800      0.61625      2.83075      0.02031      0.05671
     7.06400      0.73623      3.26908      0.02120      0.07151
     7.10000      0.89718      3.78784      0.02217      0.08684
     7.13600      1.11789      4.41128      0.02323      0.10270
     7.17200      1.44146      5.19374      0.02440      0.11913
     7.20800      1.91001      6.15983      0.02570      0.13613
     7.24400      2.67109      7.43825      0.02715      0.15375
     7.28000      3.96681      9.13002      0.02878      0.17201
     7.31600      6.29190     11.29338      0.03062      0.19093
     7.35200     11.03023     13.73375      0.03270      0.21055
     7.38800     20.65595     13.65551      0.03508      0.23089
     7.42400     31.13195      1.68215      0.03778      0.25195
     7.46000     24.47359    -14.23088      0.04088      0.27373
     7.49600     13.45315    -16.73123      0.04444      0.29625
     7.53200      7.66486    -14.67504      0.04855      0.31950
     7.56800      4.70981    -12.37977      0.05329      0.34344
     7.60400      3.16044    -10.60231      0.05881      0.36805
     7.64000      2.26298     -9.26506      0.06519      0.39314
     7.67600      1.70185     -8.24580      0.07254      0.41846
     7.71200      1.32925     -7.45183      0.08103      0.44380
     7.74800      1.06391     -6.80162      0.09073      0.46866
    7.784000     0.876738    -6.288581     0.101677     0.492386
    7.820000     0.733788    -5.852564     0.113781     0.514016
    7.856000     0.627856    -5.501740     0.126364     0.531545
    7.892000     0.548135    -5.220091     0.138225     0.542479
    7.927999     0.487999    -4.998513     0.145799     0.541007
    7.964000     0.455697    -4.911038     0.130893     0.499115
    8.000       0.3201E-2    -4.687       0.9622E-3    0.5496   
# 
# 09/21/2018 at 08:39 YAMBO @ amore9 [start]
# 09/21/2018 at 08:39                [end]
#  
# Timing   [Min/Max/Average]: 03s/03s/03s
#
# .-Input file : yambo.in
# | optics                         # [R OPT] Optics
# | bse                            # [R BSE] Bethe Salpeter Equation.
# | bsk                            # [R BSK] Bethe Salpeter Equation kernel
# | bss                            # [R BSS] Bethe Salpeter Equation solver
# | BoseTemp= 0.000000     eV      # Bosonic Temperature
# | FFTGvecs=  8845        RL      # [FFT] Plane-waves
# | X_Threads= 1                   # [OPENMP/X] Number of threads for response functions
# | DIP_Threads= 1                 # [OPENMP/X] Number of threads for dipoles
# | K_Threads= 1                   # [OPENMP/BSK] Number of threads for response functions
# | BSEmod= "resonant"             # [BSE] resonant/retarded/coupling
# | BSKmod= "HF"                   # [BSE] IP/Hartree/HF/ALDA/SEX/BSfxc
# | BSSmod= "hdi"                  # [BSS] (h)aydock/(d)iagonalization/(i)nversion/(t)ddft`
# | BSENGexx= 109          RL      # [BSK] Exchange components
# | BSENGBlk=  55          RL      # [BSK] Screened interaction block size
# | % KfnQP_up_E
# |  5.000000 | 1.000000 | 1.000000 |        # [EXTQP BSK BSS] E parameters UP (c/v) eV|adim|adim
# | %
# | % KfnQP_dn_E
# |  5.000000 | 1.000000 | 1.000000 |        # [EXTQP BSK BSS] E parameters DOWN (c/v) eV|adim|adim
# | %
# | % BEnRange
# | -1.000000 | 8.000000 | eV      # [BSS] Energy range
# | %
# | % BDmRange
# |   0.05000 |  0.05000 | eV      # [BSS] Damping range
# | %
# | BEnSteps= 251                  # [BSS] Energy steps
# | % BLongDir
# | 0.1000E-4 | 0.000    | 0.000    |        # [BSS] [cc] Electric Field
# | %
# | % BSEBands
# |  11 | 15 |                     # [BSK] Bands range
# | %
# | BSSInvMode= "pf"               # [BSS] Inversion solver modality `(f)ull/(p)erturbative`
# | BSEPSInvTrs=   0.0100          # [BSS EPS] Inversion treshold. Relative[o/o](>0)/Absolute(<0)
# | BSSInvPFratio= 1.000000        # [BSS] Inversion solver. Ratio between the number of frequencies solved pert/full
# | BSHayTrs=0.1000E-2             # [BSS] Relative [o/o] Haydock threshold. Strict(>0)/Average(<0)
