#                                                           
#  __  __   ________   ___ __ __    _______   ______        
# /_/\/_/\ /_______/\ /__//_//_/\ /_______/\ /_____/\       
# \ \ \ \ \\::: _  \ \\::\| \| \ \\::: _  \ \\:::_ \ \      
#  \:\_\ \ \\::(_)  \ \\:.      \ \\::(_)  \/_\:\ \ \ \     
#   \::::_\/ \:: __  \ \\:.\-/\  \ \\::  _  \ \\:\ \ \ \    
#     \::\ \  \:.\ \  \ \\. \  \  \ \\::(_)  \ \\:\_\ \ \   
#      \__\/   \__\/\__\/ \__\/ \__\/ \_______\/ \_____\/   
#                                                           
#                                                           
#        Version 4.3.0 Revision 15734 Hash 50fd1d2          
#                      MPI+SLK Build                        
#                http://www.yambo-code.org                  
#
# Absorption @ Q(1) [q->0 direction] :0.1000E-4  0.000     0.000   
#
#
# - Energies      are  Analyt. E
# - Wavefunctions are Slater exchange(X)+Perdew & Zunger(C)
#
# - The Green`s function is Retarded -
# - Using the Length Gauge -
# - [r,Vnl] *is* included -
#
#   BSK|Identifier              :9209
#      |Dimension               :108
#      |Bands                   :11 - 15
#      |Exchange           [res]: yes
#      |Correlation        [res]: yes
#      |Kernel`s coupling       : no
#      |Exchange           [cpl]: no
#      |Correlation        [cpl]: no
#      |W interaction is bare   : no
#      |ALDA kernel in R-space  : no
#      |RL vectors    [exchange]:109
#      |RL vectors [correlation]:55
#      |E/h energy range    [ev]:-1.000000 - -1.000000
#      |Coupling range     [o/o]: 100.0000 -  100.0000
#    W |Interaction is diagonal : no
#      |Matrix size             :55
#      |Bands                   :1 - 20
#      |e/h energy range    [ev]:-1.000000 - -1.000000
#      |Poles              [o/o]: 100.0000
#      |RL vectors in the sum   :8845
#      |[r,Vnl] included        : yes
#      |Field direction         :0.1000E-4  0.000000  0.000000
#      |Coulomb Cutoff          :none
#      |xc-Kernel               :none
#   RIM|RL components      [col]:0
#      |Random points      [col]:0
#
#    E/ev[1]      EPS-Im[2]    EPS-Re[3]    EPSo-Im[4]   EPSo-Re[5]
#
    -1.00000     -1.25178     13.27155     -0.03855      4.98419
    -0.97600     -1.09135     12.73353     -0.03720      4.96604
    -0.95200     -0.95929     12.26007     -0.03589      4.94853
    -0.92800     -0.84926     11.84061     -0.03462      4.93163
    -0.90400     -0.75658     11.46675     -0.03338      4.91533
    -0.88000     -0.67775     11.13177     -0.03218      4.89962
    -0.85600     -0.61012     10.83019     -0.03100      4.88448
    -0.83200     -0.55162     10.55753     -0.02986      4.86989
    -0.80800     -0.50065     10.31007     -0.02874      4.85585
    -0.78400     -0.45594     10.08473     -0.02765      4.84234
    -0.76000     -0.41647      9.87891     -0.02658      4.82934
    -0.73600     -0.38143      9.69043     -0.02553      4.81685
    -0.71200     -0.35015      9.51742     -0.02451      4.80485
    -0.68800     -0.32208      9.35829     -0.02351      4.79334
    -0.66400     -0.29678      9.21166     -0.02253      4.78231
    -0.64000     -0.27385      9.07635     -0.02157      4.77174
    -0.61600     -0.25300      8.95133     -0.02062      4.76162
    -0.59200     -0.23396      8.83570     -0.01970      4.75196
    -0.56800     -0.21649      8.72869     -0.01878      4.74274
    -0.54400     -0.20040      8.62959     -0.01789      4.73395
    -0.52000     -0.18553      8.53781     -0.01701      4.72558
    -0.49600     -0.17174      8.45281     -0.01614      4.71764
    -0.47200     -0.15891      8.37412     -0.01528      4.71011
    -0.44800     -0.14691      8.30131     -0.01443      4.70298
    -0.42400     -0.13567      8.23401     -0.01360      4.69626
    -0.40000     -0.12510      8.17189     -0.01278      4.68994
    -0.37600     -0.11512      8.11465     -0.01196      4.68401
    -0.35200     -0.10567      8.06203     -0.01116      4.67846
    -0.32800     -0.09668      8.01379     -0.01036      4.67330
     -0.3040      -0.0881       7.9697      -0.0096       4.6685
     -0.2800      -0.0799       7.9297      -0.0088       4.6641
     -0.2560      -0.0721       7.8934      -0.0080       4.6601
   -.2320       -.6449E-1     7.861       -.7249E-2     4.656   
   -.2080       -.5717E-1     7.832       -.6485E-2     4.653   
   -.1840       -.5007E-1     7.806       -.5725E-2     4.650   
   -.1600       -.4316E-1     7.784       -.4970E-2     4.648   
   -.1360       -.3641E-1     7.765       -.4218E-2     4.645   
   -.1120       -.2980E-1     7.749       -.3470E-2     4.644   
   -.8800E-1    -.2330E-1     7.737       -.2723E-2     4.642   
   -.6400E-1    -.1688E-1     7.727       -.1979E-2     4.641   
   -.4000E-1    -.1052E-1     7.720       -.1236E-2     4.640   
   -.1600E-1    -.4203E-2     7.717       -.4944E-3     4.640   
   0.8000E-2    0.2101E-2     7.716       0.2472E-3     4.640   
   0.3200E-1    0.8413E-2     7.719       0.9890E-3     4.640   
   0.5600E-1    0.1476E-1     7.724       0.1731E-2     4.641   
   0.8000E-1    0.2115E-1     7.733       0.2475E-2     4.642   
   0.1040       0.2762E-1     7.745       0.3221E-2     4.643   
   0.1280       0.3420E-1     7.759       0.3968E-2     4.645   
   0.1520       0.4090E-1     7.777       0.4719E-2     4.647   
   0.1760       0.4775E-1     7.798       0.5473E-2     4.649   
   0.2000       0.5478E-1     7.823       0.6231E-2     4.652   
   0.2240       0.6202E-1     7.851       0.6993E-2     4.655   
   0.2480       0.6951E-1     7.882       0.7761E-2     4.659   
      0.2720       0.0773       7.9172       0.0085       4.6627
      0.2960       0.0854       7.9559       0.0093       4.6670
     0.32000      0.09379      7.99865      0.01010      4.67167
     0.34400      0.10262      8.04547      0.01089      4.67670
     0.36800      0.11191      8.09661      0.01170      4.68212
     0.39200      0.12171      8.15228      0.01251      4.68792
     0.41600      0.13208      8.21274      0.01333      4.69411
     0.44000      0.14309      8.27828      0.01416      4.70070
     0.46400      0.15482      8.34921      0.01500      4.70769
     0.48800      0.16736      8.42590      0.01585      4.71508
     0.51200      0.18082      8.50875      0.01671      4.72289
     0.53600      0.19532      8.59821      0.01759      4.73111
     0.56000      0.21098      8.69481      0.01848      4.73976
     0.58400      0.22797      8.79911      0.01939      4.74884
     0.60800      0.24647      8.91178      0.02031      4.75835
     0.63200      0.26669      9.03358      0.02125      4.76832
     0.65600      0.28889      9.16535      0.02221      4.77873
     0.68000      0.31336      9.30808      0.02318      4.78961
     0.70400      0.34046      9.46291      0.02418      4.80096
     0.72800      0.37062      9.63113      0.02519      4.81280
     0.75200      0.40434      9.81426      0.02623      4.82512
     0.77600      0.44225     10.01407      0.02729      4.83795
     0.80000      0.48511     10.23263      0.02837      4.85129
     0.82400      0.53386     10.47240      0.02948      4.86515
     0.84800      0.58969     10.73629      0.03062      4.87956
     0.87200      0.65408     11.02777      0.03178      4.89451
     0.89600      0.72891     11.35107      0.03298      4.91003
     0.92000      0.81663     11.71128      0.03420      4.92613
     0.94400      0.92042     12.11470      0.03546      4.94283
     0.96800      1.04453     12.56911      0.03676      4.96013
     0.99200      1.19467     13.08428      0.03809      4.97807
     1.01600      1.37870     13.67258      0.03946      4.99665
     1.04000      1.60766     14.34989      0.04088      5.01590
     1.06400      1.89741     15.13688      0.04233      5.03584
     1.08800      2.27141     16.06071      0.04384      5.05649
     1.11200      2.76537     17.15759      0.04539      5.07786
     1.13600      3.43571     18.47600      0.04699      5.10000
     1.16000      4.37517     20.08049      0.04865      5.12291
     1.18400      5.74297     22.05346      0.05036      5.14663
     1.20800      7.82312     24.48524      0.05214      5.17118
     1.23200     11.13417     27.42728      0.05398      5.19660
     1.25600     16.67272     30.72071      0.05589      5.22292
     1.28000     26.30609     33.14595      0.05788      5.25017
     1.30400     41.64190     29.77249      0.05994      5.27839
     1.32800     55.43872     11.81744      0.06208      5.30761
     1.35200     50.27342    -12.43877      0.06431      5.33788
     1.37600     33.69509    -22.68573      0.06663      5.36923
     1.40000     21.01198    -22.29457      0.06906      5.40172
     1.42400     13.58493    -19.11134      0.07159      5.43540
     1.44800      9.28972    -15.87468      0.07423      5.47031
     1.47200      6.68492    -13.14396      0.07699      5.50651
     1.49600      5.01714    -10.92797      0.07988      5.54406
     1.52000      3.89614     -9.13194      0.08291      5.58303
     1.54400      3.11106     -7.66146      0.08609      5.62348
     1.56800      2.54208     -6.44137      0.08943      5.66548
     1.59200      2.11775     -5.41514      0.09294      5.70912
     1.61600      1.79359     -4.54070      0.09663      5.75447
    1.640000     1.540865    -3.786596     0.100518     5.801635
    1.664000     1.340403    -3.129093     0.104622     5.850706
    1.688000     1.179023    -2.550023     0.108957     5.901788
    1.712000     1.047449    -2.035303     0.113541     5.954996
    1.736000     0.939002    -1.573873     0.118397     6.010454
    1.760000     0.848785    -1.156941     0.123546     6.068294
    1.784000     0.773138    -0.777429     0.129015     6.128663
    1.808000     0.709292    -0.429578     0.134833     6.191719
    1.832000     0.655116    -0.108650     0.141030     6.257633
    1.856000     0.608958     0.189291     0.147644     6.326595
    1.880000     0.569516     0.467550     0.154714     6.398809
    1.904000     0.535763     0.728926     0.162285     6.474502
    1.928000     0.506875     0.975816     0.170407     6.553921
    1.952000     0.482192     1.210289     0.179138     6.637340
    1.976000     0.461183     1.434152     0.188542     6.725061
    2.000000     0.443417     1.648996     0.198694     6.817417
    2.024000     0.428547     1.856238     0.209678     6.914779
    2.048000     0.416293     2.057156     0.221589     7.017560
    2.072000     0.406432     2.252912     0.234539     7.126219
    2.096000     0.398791     2.444581     0.248656     7.241272
    2.120000     0.393238     2.633167     0.264087     7.363299
    2.144000     0.389676     2.819623     0.281007     7.492952
    2.168000     0.388045     3.004866     0.299617     7.630970
    2.192000     0.388317     3.189792     0.320156     7.778192
    2.216000     0.390495     3.375292     0.342903     7.935576
    2.240000     0.394613     3.562265     0.368196     8.104218
    2.264000     0.400740     3.751633     0.396433     8.285381
    2.288000     0.408979     3.944357     0.428097     8.480526
    2.312000     0.419477     4.141453     0.463776     8.691352
    2.336000     0.432424     4.344014     0.504185     8.919848
    2.360000     0.448068     4.553230     0.550210     9.168354
    2.384000     0.466723     4.770415     0.602950     9.439644
    2.408000     0.488786     4.997042     0.663789     9.737031
     2.43200      0.51476      5.23478      0.73449     10.06450
     2.45600      0.54527      5.48554      0.81730     10.42687
     2.48000      0.58112      5.75154      0.91518     10.83008
     2.50400      0.62335      6.03541      1.03202     11.28142
     2.52800      0.67329      6.34025      1.17304     11.79003
     2.55200      0.73269      6.66981      1.34540     12.36746
     2.57600      0.80392      7.02865      1.55906     13.02846
     2.60000      0.89014      7.42243      1.82825     13.79215
     2.62400      0.99580      7.85824      2.17382     14.68362
     2.64800      1.12720      8.34507      2.62715     15.73618
     2.67200      1.29361      8.89453      3.23724     16.99454
     2.69600      1.50908      9.52173      4.08344     18.51875
     2.72000      1.79578     10.24654      5.30013     20.38822
     2.74400      2.19036     11.09472      7.12628     22.70046
     2.76800      2.75654     12.09790     10.00877     25.54338
     2.79200      3.61097     13.28649     14.81570     28.85464
     2.81600      4.97468     14.65263     23.18579     31.83020
     2.84000      7.24224     15.99721     37.23354     30.86248
     2.86400     10.80649     16.47672     53.44783     16.93172
     2.88800     14.72599     14.58454     53.46761     -8.68203
     2.91200     16.69927     10.81893     37.26468    -22.63829
     2.93600     15.96593      7.07210     23.21055    -23.61514
     2.96000     13.48082      5.71155     14.83617    -20.63735
     2.98400     11.86286      6.55717     10.02827    -17.31979
     3.00800     11.58768      8.28885      7.14671    -14.46868
     3.03200     12.89445     10.46462      5.32249    -12.14682
     3.05600     16.33496     12.25047      4.10827    -10.26637
     3.08000     22.10133     11.88130      3.26487     -8.72978
     3.10400     28.31881      6.89746      2.65780     -7.45759
     3.12800     29.93227     -2.78720      2.20764     -6.38966
     3.15200     24.27083     -9.97323      1.86539     -5.48126
     3.17600     18.16144    -11.17193      1.59963     -4.69901
     3.20000     14.87095    -10.08117      1.38953     -4.01777
     3.22400     13.62624     -9.57929      1.22085     -3.41837
     3.24800     12.12060     -9.94085      1.08364     -2.88599
     3.27200     10.55845     -9.44683      0.97075     -2.40902
     3.29600     10.30400     -9.06665      0.87696     -1.97827
     3.32000      9.90093    -10.30862      0.79839     -1.58636
     3.34400      7.67510    -11.34085      0.73212     -1.22729
     3.36800      5.33766    -10.81828      0.67588     -0.89615
    3.392000     3.806240    -9.692688     0.627949    -0.588851
    3.416000     2.871444    -8.557293     0.586953    -0.301993
     3.44000      2.27905     -7.55144      0.55181     -0.03269
    3.464000     1.884064    -6.679351     0.521669     0.221519
    3.488000     1.609688    -5.917999     0.495828     0.462754
    3.512000     1.414079    -5.243159     0.473730     0.692856
    3.536000     1.273472    -4.634335     0.454925     0.913443
    3.560000     1.174022    -4.074757     0.439047     1.125951
    3.584000     1.107804    -3.550412     0.425798     1.331665
    3.608000     1.070853    -3.049025     0.414941     1.531752
    3.632000     1.062352    -2.559120     0.406287     1.727280
    3.656000     1.084578    -2.069145     0.399687     1.919242
    3.680000     1.143628    -1.566560     0.395032     2.108573
    3.704000     1.251236    -1.036858     0.392242     2.296163
    3.728000     1.428536    -0.462614     0.391272     2.482876
    3.752000     1.713646     0.176688     0.392102     2.669557
    3.776000     2.176871     0.901010     0.394741     2.857054
    3.800000     2.949326     1.711641     0.399229     3.046222
    3.824000     4.267185     2.531595     0.405632     3.237942
    3.848000     6.533159     3.003608     0.414052     3.433131
    3.872000     9.922632     1.819919     0.424627     3.632763
     3.89600     12.03904     -2.64888      0.43753      3.83788
    3.920000     9.773751    -7.055146     0.453000     4.049620
    3.944000     6.332928    -8.177966     0.471310     4.269230
    3.968000     4.043622    -7.683565     0.492816     4.498103
    3.992000     2.725396    -6.878939     0.517959     4.737807
    4.016000     1.950436    -6.130511     0.547286     4.990129
    4.040000     1.469352    -5.498794     0.581480     5.257127
    4.064000     1.153890    -4.973563     0.621398     5.541193
    4.088000     0.936910    -4.533627     0.668127     5.845138
    4.112000     0.781553    -4.160056     0.723052     6.172301
    4.136000     0.666533    -3.838128     0.787967     6.526692
    4.160000     0.578971    -3.556780     0.865215     6.913173
    4.184000     0.510747    -3.307723     0.957911     7.337715
    4.208000     0.456554    -3.084696     1.070261     7.807736
    4.232000     0.412815    -2.882901     1.208058     8.332572
    4.256000     0.377055    -2.698603     1.379456     8.924125
    4.280000     0.347522    -2.528851     1.596231     9.597780
     4.30400      0.32295     -2.37127      1.87589     10.37367
     4.32800      0.30243     -2.22392      2.24537     11.27843
     4.35200      0.28527     -2.08517      2.74773     12.34740
     4.37600      0.27097     -1.95366      3.45499     13.62672
     4.40000      0.25917     -1.82817      4.49371     15.17218
     4.42400      0.24962     -1.70766      6.09662     17.03190
     4.44800      0.24215     -1.59114      8.69715     19.16183
     4.47200      0.23669     -1.47770     12.99832     21.12519
     4.49600      0.23323     -1.36643     19.56467     21.58187
     4.52000      0.23186     -1.25643     28.07004     18.19084
     4.54400      0.23277     -1.14673     34.27427      7.35683
     4.56800      0.23630     -1.03628     29.60071     -4.69809
     4.59200      0.24294     -0.92385     20.69480     -7.95972
     4.61600      0.25346     -0.80803     15.08604     -5.98318
     4.64000      0.26900     -0.68706     12.99884     -2.76834
     4.66400      0.29133     -0.55871     13.71170      0.11509
     4.68800      0.32318     -0.42011     16.68593      1.34769
     4.71200      0.36900     -0.26750     20.67133     -0.17715
     4.73600      0.43622     -0.09592     23.90127     -5.71440
     4.76000      0.53791      0.10081     21.25023    -13.49088
     4.78400      0.69821      0.32912     14.58189    -16.43093
     4.80800      0.96370      0.58962      9.48530    -15.52426
     4.83200      1.42416      0.85114      6.45146    -13.67845
     4.85600      2.21953      0.95291      4.65499    -11.89817
     4.88000      3.30606      0.39803      3.53681    -10.37462
    4.904000     3.708429    -1.126364     2.802576    -9.096705
    4.928000     2.818440    -2.281911     2.298111    -8.017656
    4.952000     1.811517    -2.461382     1.939095    -7.093081
    4.976000     1.180121    -2.255245     1.677055    -6.287403
    5.000000     0.818942    -1.989824     1.482871    -5.573124
# 
# 09/19/2018 at 11:13 YAMBO @ narro [start]
# 09/19/2018 at 11:13               [end]
#  
# Timing   [Min/Max/Average]: 39s/39s/39s
#
# .-Input file : yambo.in
# | optics                         # [R OPT] Optics
# | bse                            # [R BSE] Bethe Salpeter Equation.
# | bsk                            # [R BSK] Bethe Salpeter Equation kernel
# | bss                            # [R BSS] Bethe Salpeter Equation solver
# | em1s                           # [R Xs] Static Inverse Dielectric Matrix
# | BoseTemp= 0.000000     eV      # Bosonic Temperature
# | FFTGvecs=  8845        RL      # [FFT] Plane-waves
# | Chimod= "Hartree"              # [X] IP/Hartree/ALDA/LRC/PF/BSfxc
# | BSEmod= "retarded"             # [BSE] resonant/retarded/coupling
# | BSKmod= "SEX"                  # [BSE] IP/Hartree/HF/ALDA/SEX/BSfxc
# | BSSmod= "hdi"                  # [BSS] (h)aydock/(d)iagonalization/(i)nversion/(t)ddft`
# | BSENGexx= 109          RL      # [BSK] Exchange components
# | BSENGBlk=  55          RL      # [BSK] Screened interaction block size
# | #WehCpl                        # [BSK] eh interaction included also in coupling
# | % KfnQP_up_E
# |  1.000000 | 1.000000 | 1.000000 |        # [EXTQP BSK BSS] E parameters UP (c/v) eV|adim|adim
# | %
# | % KfnQP_dn_E
# |  1.000000 | 1.000000 | 1.000000 |        # [EXTQP BSK BSS] E parameters DOWN (c/v) eV|adim|adim
# | %
# | % BEnRange
# | -1.000000 | 5.000000 | eV      # [BSS] Energy range
# | %
# | % BDmRange
# |   0.05000 |  0.05000 | eV      # [BSS] Damping range
# | %
# | BEnSteps= 251                  # [BSS] Energy steps
# | % BLongDir
# | 0.1000E-4 | 0.000    | 0.000    |        # [BSS] [cc] Electric Field
# | %
# | % BSEBands
# |  11 | 15 |                     # [BSK] Bands range
# | %
# | BSSInvMode= "pf"               # [BSS] Inversion solver modality `(f)ull/(p)erturbative`
# | BSEPSInvTrs=   0.0100          # [BSS EPS] Inversion treshold. Relative[o/o](>0)/Absolute(<0)
# | BSSInvPFratio= 1.000000        # [BSS] Inversion solver. Ratio between the number of frequencies solved pert/full
# | BSHayTrs=0.1000E-2             # [BSS] Relative [o/o] Haydock threshold. Strict(>0)/Average(<0)
# | % BndsRnXs
# |   1 | 20 |                     # [Xs] Polarization function bands
# | %
# | NGsBlkXs=  55          RL      # [Xs] Response block size
# | % DmRngeXs
# | 0.1000E-2 |0.1000E-2 | eV      # [Xs] Damping range
# | %
# | % LongDrXs
# | 0.1000E-4 | 0.000    | 0.000    |        # [Xs] [cc] Electric Field
# | %
