#                                                                     
#  ____  ____     _       ____    ____  ______      ___               
# |_  _||_  _|   / \     |_   \  /   _||_   _ \   ."   `.             
#   \ \  / /    / _ \      |   \/   |    | |_) | /  .-.  \            
#    \ \/ /    / ___ \     | |\  /| |    |  __". | |   | |            
#    _|  |_  _/ /   \ \_  _| |_\/_| |_  _| |__) |\  `-"  /            
#   |______||____| |____||_____||_____||_______/  `.___."             
#                                                                     
#                                                                     
#                                                                     
# Version 5.1.0 Revision 22208 Hash (prev commit) a391fb0cb           
#                 Branch is phys/dichroism                            
#          MPI+OpenMP+SLK+SLEPC+HDF5_MPI_IO Build                     
#                http://www.yambo-code.org                            
#
# Dichroism @ Q(1):  0.999999975E-5   0.00000000      0.00000000    [q->0 direction]
#
# [GEN] GF Energies                               : Perdew, Burke & Ernzerhof(X)+Perdew, Burke & Ernzerhof(C)
# [GEN] Green`s Function                          : Retarded
#
# [GEN] Gauge                                     : Length
# [GEN] [r,Vnl] included                          : yes
#
# DIP band range                                  :   1  20
# DIP band range limits                           :  20   1
# DIP e/h energy range                            :  -1.00000000     -1.00000000    [eV]
# RL vectors in the sum                           :   3695
# [r,Vnl] included                                : yes
# Bands ordered                                   : no
# Direct v evaluation                             : no
# Approach used                                   : G-space v
# Dipoles computed                                : R V P
# Wavefunctions                                   : Perdew, Burke & Ernzerhof(X)+Perdew, Burke & Ernzerhof(C)
#
#
#    E[1] [eV]          Im(CD)             Re(CD)
#
        0.000000           0.169428E-7        0.117735E-5
        0.010000           0.169414E-7        0.117735E-5
        0.020000           0.169399E-7        0.117735E-5
        0.030000           0.169380E-7        0.117736E-5
        0.040000           0.169360E-7        0.117736E-5
        0.050000           0.169336E-7        0.117736E-5
        0.060000           0.169311E-7        0.117736E-5
        0.070000           0.169282E-7        0.117736E-5
        0.080000           0.169252E-7        0.117736E-5
        0.090000           0.169219E-7        0.117737E-5
        0.100000           0.169183E-7        0.117737E-5
        0.110000           0.169145E-7        0.117737E-5
        0.120000           0.169104E-7        0.117737E-5
        0.130000           0.169060E-7        0.117737E-5
        0.140000           0.169014E-7        0.117737E-5
        0.150000           0.168966E-7        0.117737E-5
        0.160000           0.168915E-7        0.117737E-5
        0.170000           0.168861E-7        0.117737E-5
        0.180000           0.168805E-7        0.117737E-5
        0.190000           0.168746E-7        0.117737E-5
        0.200000           0.168684E-7        0.117737E-5
        0.210000           0.168620E-7        0.117737E-5
        0.220000           0.168553E-7        0.117737E-5
        0.230000           0.168484E-7        0.117737E-5
        0.240000           0.168411E-7        0.117737E-5
        0.250000           0.168336E-7        0.117737E-5
        0.260000           0.168259E-7        0.117737E-5
        0.270000           0.168178E-7        0.117737E-5
        0.280000           0.168095E-7        0.117737E-5
        0.290000           0.168009E-7        0.117737E-5
        0.300000           0.167920E-7        0.117736E-5
        0.310000           0.167829E-7        0.117736E-5
        0.320000           0.167735E-7        0.117736E-5
        0.330000           0.167638E-7        0.117736E-5
        0.340000           0.167538E-7        0.117736E-5
        0.350000           0.167435E-7        0.117736E-5
        0.360000           0.167330E-7        0.117735E-5
        0.370000           0.167221E-7        0.117735E-5
        0.380000           0.167110E-7        0.117735E-5
        0.390000           0.166996E-7        0.117734E-5
        0.400000           0.166879E-7        0.117734E-5
        0.410000           0.166759E-7        0.117734E-5
        0.420000           0.166636E-7        0.117733E-5
        0.430000           0.166510E-7        0.117733E-5
        0.440000           0.166381E-7        0.117733E-5
        0.450000           0.166249E-7        0.117732E-5
        0.460000           0.166114E-7        0.117732E-5
        0.470000           0.165977E-7        0.117732E-5
        0.480000           0.165836E-7        0.117731E-5
        0.490000           0.165692E-7        0.117730E-5
        0.500000           0.165545E-7        0.117730E-5
        0.510000           0.165395E-7        0.117729E-5
        0.520000           0.165241E-7        0.117729E-5
        0.530000           0.165085E-7        0.117728E-5
        0.540000           0.164926E-7        0.117728E-5
        0.550000           0.164763E-7        0.117727E-5
        0.560000           0.164598E-7        0.117726E-5
        0.570000           0.164429E-7        0.117725E-5
        0.580000           0.164257E-7        0.117725E-5
        0.590000           0.164082E-7        0.117724E-5
        0.600000           0.163903E-7        0.117723E-5
        0.610000           0.163721E-7        0.117723E-5
        0.620000           0.163536E-7        0.117722E-5
        0.630000           0.163348E-7        0.117721E-5
        0.640000           0.163156E-7        0.117720E-5
        0.650000           0.162961E-7        0.117719E-5
        0.660000           0.162763E-7        0.117718E-5
        0.670000           0.162561E-7        0.117717E-5
        0.680000           0.162356E-7        0.117716E-5
        0.690000           0.162147E-7        0.117715E-5
        0.700000           0.161935E-7        0.117714E-5
        0.710000           0.161720E-7        0.117712E-5
        0.720000           0.161501E-7        0.117711E-5
        0.730000           0.161279E-7        0.117710E-5
        0.740000           0.161053E-7        0.117709E-5
        0.750000           0.160824E-7        0.117707E-5
        0.760000           0.160590E-7        0.117706E-5
        0.770000           0.160354E-7        0.117705E-5
        0.780000           0.160113E-7        0.117703E-5
        0.790000           0.159870E-7        0.117702E-5
        0.800000           0.159622E-7        0.117700E-5
        0.810000           0.159371E-7        0.117699E-5
        0.820000           0.159117E-7        0.117697E-5
        0.830000           0.158858E-7        0.117696E-5
        0.840000           0.158595E-7        0.117694E-5
        0.850000           0.158329E-7        0.117692E-5
        0.860000           0.158059E-7        0.117691E-5
        0.870000           0.157786E-7        0.117689E-5
        0.880000           0.157508E-7        0.117687E-5
        0.890000           0.157226E-7        0.117685E-5
        0.900000           0.156941E-7        0.117683E-5
        0.910000           0.156652E-7        0.117681E-5
        0.920000           0.156359E-7        0.117679E-5
        0.930000           0.156062E-7        0.117676E-5
        0.940000           0.155761E-7        0.117674E-5
        0.950000           0.155456E-7        0.117672E-5
        0.960000           0.155147E-7        0.117670E-5
        0.970000           0.154833E-7        0.117667E-5
        0.980000           0.154516E-7        0.117665E-5
        0.990000           0.154194E-7        0.117662E-5
        1.000000           0.153869E-7        0.117660E-5
        1.010000           0.153539E-7        0.117657E-5
        1.020000           0.153205E-7        0.117655E-5
        1.030000           0.152867E-7        0.117652E-5
        1.040000           0.152524E-7        0.117649E-5
        1.050000           0.152177E-7        0.117646E-5
        1.060000           0.151826E-7        0.117643E-5
        1.070000           0.151470E-7        0.117640E-5
        1.080000           0.151110E-7        0.117637E-5
        1.090000           0.150746E-7        0.117634E-5
        1.100000           0.150377E-7        0.117631E-5
        1.110000           0.150004E-7        0.117627E-5
        1.120000           0.149626E-7        0.117624E-5
        1.130000           0.149243E-7        0.117620E-5
        1.140000           0.148856E-7        0.117617E-5
        1.150000           0.148464E-7        0.117613E-5
        1.160000           0.148068E-7        0.117609E-5
        1.170000           0.147667E-7        0.117605E-5
        1.180000           0.147261E-7        0.117602E-5
        1.190000           0.146850E-7        0.117598E-5
        1.200000           0.146435E-7        0.117594E-5
        1.210000           0.146015E-7        0.117589E-5
        1.220000           0.145590E-7        0.117585E-5
        1.230000           0.145160E-7        0.117581E-5
        1.240000           0.144725E-7        0.117576E-5
        1.250000           0.144285E-7        0.117572E-5
        1.260000           0.143840E-7        0.117567E-5
        1.270000           0.143390E-7        0.117562E-5
        1.280000           0.142936E-7        0.117557E-5
        1.290000           0.142475E-7        0.117552E-5
        1.300000           0.142010E-7        0.117547E-5
        1.310000           0.141539E-7        0.117542E-5
        1.320000           0.141064E-7        0.117537E-5
        1.330000           0.140582E-7        0.117532E-5
        1.340000           0.140096E-7        0.117526E-5
        1.350000           0.139604E-7        0.117520E-5
        1.360000           0.139106E-7        0.117515E-5
        1.370000           0.138604E-7        0.117509E-5
        1.380000           0.138096E-7        0.117503E-5
        1.390000           0.137582E-7        0.117497E-5
        1.400000           0.137062E-7        0.117491E-5
        1.410000           0.136538E-7        0.117484E-5
        1.420000           0.136007E-7        0.117478E-5
        1.430000           0.135471E-7        0.117471E-5
        1.440000           0.134928E-7        0.117464E-5
        1.450000           0.134380E-7        0.117458E-5
        1.460000           0.133827E-7        0.117451E-5
        1.470000           0.133267E-7        0.117443E-5
        1.480000           0.132701E-7        0.117436E-5
        1.490000           0.132129E-7        0.117429E-5
        1.500000           0.131552E-7        0.117421E-5
        1.510000           0.130967E-7        0.117414E-5
        1.520000           0.130377E-7        0.117406E-5
        1.530000           0.129781E-7        0.117398E-5
        1.540000           0.129179E-7        0.117390E-5
        1.550000           0.128569E-7        0.117381E-5
        1.560000           0.127955E-7        0.117373E-5
        1.570000           0.127333E-7        0.117364E-5
        1.580000           0.126704E-7        0.117355E-5
        1.590000           0.126070E-7        0.117346E-5
        1.600000           0.125428E-7        0.117337E-5
        1.610000           0.124781E-7        0.117328E-5
        1.620000           0.124126E-7        0.117318E-5
        1.630000           0.123464E-7        0.117309E-5
        1.640000           0.122796E-7        0.117299E-5
        1.650000           0.122121E-7        0.117289E-5
        1.660000           0.121439E-7        0.117279E-5
        1.670000           0.120750E-7        0.117268E-5
        1.680000           0.120054E-7        0.117258E-5
        1.690000           0.119350E-7        0.117247E-5
        1.700000           0.118640E-7        0.117236E-5
        1.710000           0.117923E-7        0.117225E-5
        1.720000           0.117197E-7        0.117214E-5
        1.730000           0.116465E-7        0.117202E-5
        1.740000           0.115725E-7        0.117191E-5
        1.750000           0.114978E-7        0.117179E-5
        1.760000           0.114223E-7        0.117166E-5
        1.770000           0.113461E-7        0.117154E-5
        1.780000           0.112690E-7        0.117142E-5
        1.790000           0.111912E-7        0.117129E-5
        1.800000           0.111126E-7        0.117116E-5
        1.810000           0.110333E-7        0.117103E-5
        1.820000           0.109531E-7        0.117089E-5
        1.830000           0.108721E-7        0.117075E-5
        1.840000           0.107904E-7        0.117061E-5
        1.850000           0.107077E-7        0.117047E-5
        1.860000           0.106243E-7        0.117033E-5
        1.870000           0.105400E-7        0.117018E-5
        1.880000           0.104549E-7        0.117003E-5
        1.890000           0.103689E-7        0.116988E-5
        1.900000           0.102821E-7        0.116972E-5
        1.910000           0.101943E-7        0.116957E-5
        1.920000           0.101057E-7        0.116941E-5
        1.930000           0.100163E-7        0.116924E-5
        1.940000           0.992596E-8        0.116908E-5
        1.950000           0.983469E-8        0.116891E-5
        1.960000           0.974251E-8        0.116874E-5
        1.970000           0.964941E-8        0.116857E-5
        1.980000           0.955547E-8        0.116839E-5
        1.990000           0.946044E-8        0.116821E-5
        2.000000           0.936461E-8        0.116803E-5
        2.010000           0.926777E-8        0.116785E-5
        2.020000           0.916993E-8        0.116766E-5
        2.030000           0.907114E-8        0.116747E-5
        2.040000           0.897135E-8        0.116727E-5
        2.050000           0.887060E-8        0.116707E-5
        2.060000           0.876886E-8        0.116687E-5
        2.070000           0.866605E-8        0.116667E-5
        2.080000           0.856230E-8        0.116646E-5
        2.090000           0.845750E-8        0.116625E-5
        2.100000           0.835159E-8        0.116604E-5
        2.110000           0.824472E-8        0.116582E-5
        2.120000           0.813671E-8        0.116560E-5
        2.130000           0.802762E-8        0.116537E-5
        2.140000           0.791756E-8        0.116515E-5
        2.150000           0.780632E-8        0.116491E-5
        2.160000           0.769397E-8        0.116468E-5
        2.170000           0.758059E-8        0.116444E-5
        2.180000           0.746601E-8        0.116420E-5
        2.190000           0.735028E-8        0.116395E-5
        2.200000           0.723347E-8        0.116370E-5
        2.210000           0.711539E-8        0.116345E-5
        2.220000           0.699624E-8        0.116319E-5
        2.230000           0.687581E-8        0.116292E-5
        2.240000           0.675423E-8        0.116266E-5
        2.250000           0.663147E-8        0.116239E-5
        2.260000           0.650744E-8        0.116211E-5
        2.270000           0.638222E-8        0.116184E-5
        2.280000           0.625573E-8        0.116155E-5
        2.290000           0.612799E-8        0.116126E-5
        2.300000           0.599891E-8        0.116097E-5
        2.310000           0.586861E-8        0.116068E-5
        2.320000           0.573696E-8        0.116037E-5
        2.330000           0.560407E-8        0.116007E-5
        2.340000           0.546976E-8        0.115976E-5
        2.350000           0.533419E-8        0.115944E-5
        2.360000           0.519717E-8        0.115912E-5
        2.370000           0.505886E-8        0.115880E-5
        2.380000           0.491918E-8        0.115847E-5
        2.390000           0.477805E-8        0.115813E-5
        2.400000           0.463553E-8        0.115779E-5
        2.410000           0.449161E-8        0.115745E-5
        2.420000           0.434616E-8        0.115710E-5
        2.430000           0.419929E-8        0.115674E-5
        2.440000           0.405091E-8        0.115638E-5
        2.450000           0.390103E-8        0.115601E-5
        2.460000           0.374968E-8        0.115564E-5
        2.470000           0.359679E-8        0.115526E-5
        2.480000           0.344236E-8        0.115488E-5
        2.490000           0.328633E-8        0.115449E-5
        2.500000           0.312881E-8        0.115410E-5
        2.510000           0.296963E-8        0.115370E-5
        2.520000           0.280880E-8        0.115329E-5
        2.530000           0.264643E-8        0.115288E-5
        2.540000           0.248239E-8        0.115246E-5
        2.550000           0.231668E-8        0.115204E-5
        2.560000           0.214921E-8        0.115161E-5
        2.570000           0.198010E-8        0.115117E-5
        2.580000           0.180925E-8        0.115073E-5
        2.590000           0.163659E-8        0.115028E-5
        2.600000           0.146221E-8        0.114982E-5
        2.610000           0.128616E-8        0.114936E-5
        2.620000           0.110814E-8        0.114889E-5
        2.630000           0.92836E-09        0.114841E-5
        2.640000           0.74676E-09        0.114793E-5
        2.650000           0.56323E-09        0.114743E-5
        2.660000           0.37781E-09        0.114694E-5
        2.670000           0.19048E-09        0.114643E-5
        2.680000           0.12881E-11        0.114592E-5
        2.690000          -0.18989E-09        0.114540E-5
        2.700000          -0.38310E-09        0.114487E-5
        2.710000          -0.57829E-09        0.114434E-5
        2.720000          -0.77547E-09        0.114379E-5
        2.730000          -0.97471E-09        0.114324E-5
        2.740000          -0.117613E-8        0.114268E-5
        2.750000          -0.137947E-8        0.114211E-5
        2.760000          -0.158510E-8        0.114154E-5
        2.770000          -0.179271E-8        0.114096E-5
        2.780000          -0.200272E-8        0.114036E-5
        2.790000          -0.221478E-8        0.113976E-5
        2.800000          -0.242909E-8        0.113916E-5
        2.810000          -0.264563E-8        0.113854E-5
        2.820000          -0.286455E-8        0.113791E-5
        2.830000          -0.308567E-8        0.113727E-5
        2.840000          -0.330926E-8        0.113663E-5
        2.850000          -0.353511E-8        0.113598E-5
        2.860000          -0.376338E-8        0.113531E-5
        2.870000          -0.399409E-8        0.113464E-5
        2.880000          -0.422728E-8        0.113396E-5
        2.890000          -0.446291E-8        0.113326E-5
        2.900000          -0.470118E-8        0.113256E-5
        2.910000          -0.494180E-8        0.113185E-5
        2.920000          -0.518506E-8        0.113113E-5
        2.930000          -0.543107E-8        0.113040E-5
        2.940000          -0.567958E-8        0.112965E-5
        2.950000          -0.593088E-8        0.112890E-5
        2.960000          -0.618483E-8        0.112814E-5
        2.970000          -0.644155E-8        0.112736E-5
        2.980000          -0.670107E-8        0.112657E-5
        2.990000          -0.696336E-8        0.112578E-5
        3.000000          -0.722854E-8        0.112497E-5
        3.010000          -0.749665E-8        0.112415E-5
        3.020000          -0.776764E-8        0.112332E-5
        3.030000          -0.804155E-8        0.112247E-5
        3.040000          -0.831854E-8        0.112162E-5
        3.050000          -0.859860E-8        0.112075E-5
        3.060000          -0.888172E-8        0.111987E-5
        3.070000          -0.916796E-8        0.111898E-5
        3.080000          -0.945731E-8        0.111807E-5
        3.090000          -0.974996E-8        0.111715E-5
        3.100000          -0.100458E-7        0.111622E-5
        3.110000          -0.103450E-7        0.111528E-5
        3.120000          -0.106475E-7        0.111432E-5
        3.130000          -0.109534E-7        0.111335E-5
        3.140000          -0.112627E-7        0.111237E-5
        3.150000          -0.115755E-7        0.111137E-5
        3.160000          -0.118918E-7        0.111036E-5
        3.170000          -0.122117E-7        0.110933E-5
        3.180000          -0.125351E-7        0.110829E-5
        3.190000          -0.128623E-7        0.110723E-5
        3.200000          -0.131932E-7        0.110616E-5
        3.210000          -0.135279E-7        0.110508E-5
        3.220000          -0.138664E-7        0.110397E-5
        3.230000          -0.142087E-7        0.110286E-5
        3.240000          -0.145550E-7        0.110172E-5
        3.250000          -0.149053E-7        0.110058E-5
        3.260000          -0.152596E-7        0.109941E-5
        3.270000          -0.156180E-7        0.109823E-5
        3.280000          -0.159805E-7        0.109703E-5
        3.290000          -0.163473E-7        0.109582E-5
        3.300000          -0.167183E-7        0.109458E-5
        3.310000          -0.170937E-7        0.109333E-5
        3.320000          -0.174734E-7        0.109207E-5
        3.330000          -0.178576E-7        0.109078E-5
        3.340000          -0.182463E-7        0.108948E-5
        3.350000          -0.186397E-7        0.108816E-5
        3.360000          -0.190376E-7        0.108681E-5
        3.370000          -0.194403E-7        0.108545E-5
        3.380000          -0.198478E-7        0.108407E-5
        3.390000          -0.202601E-7        0.108268E-5
        3.400000          -0.206773E-7        0.108126E-5
        3.410000          -0.210996E-7        0.107982E-5
        3.420000          -0.215269E-7        0.107836E-5
        3.430000          -0.219593E-7        0.107688E-5
        3.440000          -0.223970E-7        0.107538E-5
        3.450000          -0.228400E-7        0.107386E-5
        3.460000          -0.232883E-7        0.107232E-5
        3.470000          -0.237422E-7        0.107075E-5
        3.480000          -0.242015E-7        0.106916E-5
        3.490000          -0.246665E-7        0.106755E-5
        3.500000          -0.251373E-7        0.106592E-5
        3.510000          -0.256137E-7        0.106426E-5
        3.520000          -0.260962E-7        0.106258E-5
        3.530000          -0.265846E-7        0.106088E-5
        3.540000          -0.270790E-7        0.105915E-5
        3.550000          -0.275796E-7        0.105739E-5
        3.560000          -0.280865E-7        0.105562E-5
        3.570000          -0.285998E-7        0.105381E-5
        3.580000          -0.291194E-7        0.105198E-5
        3.590000          -0.296456E-7        0.105013E-5
        3.600000          -0.301785E-7        0.104825E-5
        3.610000          -0.307181E-7        0.104633E-5
        3.620000          -0.312648E-7        0.104440E-5
        3.630000          -0.318182E-7        0.104243E-5
        3.640000          -0.323789E-7        0.104044E-5
        3.650000          -0.329467E-7        0.103842E-5
        3.660000          -0.335218E-7        0.103637E-5
        3.670000          -0.341044E-7        0.103428E-5
        3.680000          -0.346945E-7        0.103217E-5
        3.690000          -0.352924E-7        0.103003E-5
        3.700000          -0.358980E-7        0.102786E-5
        3.710000          -0.365116E-7        0.102566E-5
        3.720000          -0.371332E-7        0.102342E-5
        3.730000          -0.377630E-7        0.102115E-5
        3.740000          -0.384012E-7        0.101885E-5
        3.750000          -0.390479E-7        0.101652E-5
        3.760000          -0.397032E-7        0.101415E-5
        3.770000          -0.403672E-7        0.101174E-5
        3.780000          -0.410401E-7        0.100930E-5
        3.790000          -0.417222E-7        0.100683E-5
        3.800000          -0.424134E-7        0.100432E-5
        3.810000          -0.431140E-7        0.100177E-5
        3.820000          -0.438241E-7        0.999187E-6
        3.830000          -0.445438E-7        0.996564E-6
        3.840000          -0.452736E-7        0.993903E-6
        3.850000          -0.460133E-7        0.991203E-6
        3.860000          -0.467631E-7        0.988462E-6
        3.870000          -0.475235E-7        0.985681E-6
        3.880000          -0.482944E-7        0.982858E-6
        3.890000          -0.490761E-7        0.979995E-6
        3.900000          -0.498685E-7        0.977089E-6
        3.910000          -0.506723E-7        0.974139E-6
        3.920000          -0.514874E-7        0.971144E-6
        3.930000          -0.523139E-7        0.968106E-6
        3.940000          -0.531523E-7        0.965023E-6
        3.950000          -0.540027E-7        0.961892E-6
        3.960000          -0.548652E-7        0.958714E-6
        3.970000          -0.557401E-7        0.955490E-6
        3.980000          -0.566276E-7        0.952217E-6
        3.990000          -0.575280E-7        0.948896E-6
        4.000000          -0.584414E-7        0.945521E-6
        4.010000          -0.593682E-7        0.942100E-6
        4.020000          -0.603087E-7        0.938623E-6
        4.030000          -0.612629E-7        0.935095E-6
        4.040000          -0.622313E-7        0.931515E-6
        4.050000          -0.632140E-7        0.927877E-6
        4.060000          -0.642114E-7        0.924186E-6
        4.070000          -0.652237E-7        0.920438E-6
        4.080000          -0.662511E-7        0.916632E-6
        4.090000          -0.672942E-7        0.912768E-6
        4.100000          -0.683530E-7        0.908845E-6
        4.110000          -0.694279E-7        0.904861E-6
        4.120000          -0.705192E-7        0.900815E-6
        4.130000          -0.716274E-7        0.896707E-6
        4.140000          -0.727525E-7        0.892537E-6
        4.150000          -0.738950E-7        0.888301E-6
        4.160000          -0.750553E-7        0.883997E-6
        4.170000          -0.762338E-7        0.879627E-6
        4.180000          -0.774306E-7        0.875189E-6
        4.190000          -0.786464E-7        0.870682E-6
        4.200000          -0.798814E-7        0.866104E-6
        4.210000          -0.811360E-7        0.861452E-6
        4.220000          -0.824106E-7        0.856731E-6
        4.230000          -0.837056E-7        0.851931E-6
        4.240000          -0.850215E-7        0.847056E-6
        4.250000          -0.863587E-7        0.842105E-6
        4.260000          -0.877176E-7        0.837074E-6
        4.270000          -0.890987E-7        0.831963E-6
        4.280000          -0.905025E-7        0.826769E-6
        4.290000          -0.919294E-7        0.821494E-6
        4.300000          -0.933799E-7        0.816132E-6
        4.310000          -0.948546E-7        0.810685E-6
        4.320000          -0.963539E-7        0.805148E-6
        4.330000          -0.978784E-7        0.799522E-6
        4.340000          -0.994287E-7        0.793806E-6
        4.350000          -0.101005E-6        0.787995E-6
        4.360000          -0.102609E-6        0.782088E-6
        4.370000          -0.104239E-6        0.776087E-6
        4.380000          -0.105898E-6        0.769986E-6
        4.390000          -0.107586E-6        0.763784E-6
        4.400000          -0.109303E-6        0.757478E-6
        4.410000          -0.111050E-6        0.751069E-6
        4.420000          -0.112828E-6        0.744554E-6
        4.430000          -0.114637E-6        0.737931E-6
        4.440000          -0.116478E-6        0.731195E-6
        4.450000          -0.118352E-6        0.724348E-6
        4.460000          -0.120260E-6        0.717383E-6
        4.470000          -0.122202E-6        0.710301E-6
        4.480000          -0.124179E-6        0.703102E-6
        4.490000          -0.126192E-6        0.695777E-6
        4.500000          -0.128243E-6        0.688329E-6
        4.510000          -0.130331E-6        0.680753E-6
        4.520000          -0.132457E-6        0.673048E-6
        4.530000          -0.134624E-6        0.665208E-6
        4.540000          -0.136830E-6        0.657235E-6
        4.550000          -0.139079E-6        0.649123E-6
        4.560000          -0.141370E-6        0.640869E-6
        4.570000          -0.143705E-6        0.632470E-6
        4.580000          -0.146084E-6        0.623927E-6
        4.590000          -0.148509E-6        0.615232E-6
        4.600000          -0.150982E-6        0.606384E-6
        4.610000          -0.153502E-6        0.597378E-6
        4.620000          -0.156072E-6        0.588212E-6
        4.630000          -0.158693E-6        0.578884E-6
        4.640000          -0.161366E-6        0.569388E-6
        4.650000          -0.164092E-6        0.559722E-6
        4.660000          -0.166873E-6        0.549880E-6
        4.670000          -0.169710E-6        0.539860E-6
        4.680000          -0.172605E-6        0.529661E-6
        4.690000          -0.175559E-6        0.519271E-6
        4.700000          -0.178574E-6        0.508692E-6
        4.710000          -0.181651E-6        0.497919E-6
        4.720000          -0.184792E-6        0.486948E-6
        4.730000          -0.188000E-6        0.475770E-6
        4.740000          -0.191275E-6        0.464386E-6
        4.750000          -0.194620E-6        0.452786E-6
        4.760000          -0.198037E-6        0.440973E-6
        4.770000          -0.201527E-6        0.428934E-6
        4.780000          -0.205093E-6        0.416667E-6
        4.790000          -0.208737E-6        0.404164E-6
        4.800000          -0.212461E-6        0.391425E-6
        4.810000          -0.216268E-6        0.378438E-6
        4.820000          -0.220159E-6        0.365203E-6
        4.830000          -0.224138E-6        0.351710E-6
        4.840000          -0.228207E-6        0.337954E-6
        4.850000          -0.232368E-6        0.323928E-6
        4.860000          -0.236625E-6        0.309625E-6
        4.870000          -0.240981E-6        0.295040E-6
        4.880000          -0.245437E-6        0.280167E-6
        4.890000          -0.249998E-6        0.264995E-6
        4.900000          -0.254667E-6        0.249518E-6
        4.910000          -0.259447E-6        0.233730E-6
        4.920000          -0.264342E-6        0.217620E-6
        4.930000          -0.269355E-6        0.201182E-6
        4.940000          -0.274490E-6        0.184408E-6
        4.950000          -0.279752E-6        0.167289E-6
        4.960000          -0.285143E-6        0.149814E-6
        4.970000          -0.290669E-6        0.131975E-6
        4.980000          -0.296333E-6        0.113761E-6
        4.990000          -0.302142E-6        0.951639E-7
        5.000000          -0.308098E-6        0.761730E-7
        5.010000          -0.314209E-6        0.567776E-7
        5.020000          -0.320478E-6        0.369680E-7
        5.030000          -0.326911E-6        0.167281E-7
        5.040000          -0.333514E-6       -0.394864E-8
        5.050000          -0.340293E-6       -0.250764E-7
        5.060000          -0.347255E-6       -0.466674E-7
        5.070000          -0.354405E-6       -0.687372E-7
        5.080000          -0.361751E-6       -0.912974E-7
        5.090000          -0.369300E-6       -0.114363E-6
        5.100000          -0.377059E-6       -0.137945E-6
        5.110000          -0.385037E-6       -0.162064E-6
        5.120000          -0.393241E-6       -0.186731E-6
        5.130000          -0.401680E-6       -0.211964E-6
        5.140000          -0.410363E-6       -0.237782E-6
        5.150000          -0.419300E-6       -0.264200E-6
        5.160000          -0.428501E-6       -0.291238E-6
        5.170000          -0.437976E-6       -0.318913E-6
        5.180000          -0.447735E-6       -0.347244E-6
        5.190000          -0.457792E-6       -0.376256E-6
        5.200000          -0.468157E-6       -0.405964E-6
        5.210000          -0.478844E-6       -0.436398E-6
        5.220000          -0.489867E-6       -0.467575E-6
        5.230000          -0.501239E-6       -0.499519E-6
        5.240000          -0.512974E-6       -0.532259E-6
        5.250000          -0.525090E-6       -0.565815E-6
        5.260000          -0.537603E-6       -0.600219E-6
        5.270000          -0.550530E-6       -0.635501E-6
        5.280000          -0.563890E-6       -0.671684E-6
        5.290000          -0.577703E-6       -0.708801E-6
        5.300000          -0.591989E-6       -0.746890E-6
        5.310000          -0.606771E-6       -0.785974E-6
        5.320000          -0.622072E-6       -0.826100E-6
        5.330000          -0.637916E-6       -0.867295E-6
        5.340000          -0.654331E-6       -0.909602E-6
        5.350000          -0.671343E-6       -0.953060E-6
        5.360000          -0.688983E-6       -0.997709E-6
        5.370000          -0.707283E-6       -0.104360E-5
        5.380000          -0.726276E-6       -0.109077E-5
        5.390000          -0.745997E-6       -0.113927E-5
        5.400000          -0.766486E-6       -0.118915E-5
        5.410000          -0.787783E-6       -0.124047E-5
        5.420000          -0.809931E-6       -0.129327E-5
        5.430000          -0.832977E-6       -0.134763E-5
        5.440000          -0.856972E-6       -0.140360E-5
        5.450000          -0.881968E-6       -0.146124E-5
        5.460000          -0.908024E-6       -0.152062E-5
        5.470000          -0.935201E-6       -0.158181E-5
        5.480000          -0.963565E-6       -0.164490E-5
        5.490000          -0.993187E-6       -0.170995E-5
        5.500000          -0.102415E-5       -0.177705E-5
        5.510000          -0.105652E-5       -0.184629E-5
        5.520000          -0.109041E-5       -0.191776E-5
        5.530000          -0.112590E-5       -0.199156E-5
        5.540000          -0.116310E-5       -0.206778E-5
        5.550000          -0.120212E-5       -0.214655E-5
        5.560000          -0.124309E-5       -0.222797E-5
        5.570000          -0.128615E-5       -0.231216E-5
        5.580000          -0.133143E-5       -0.239926E-5
        5.590000          -0.137910E-5       -0.248939E-5
        5.600000          -0.142933E-5       -0.258270E-5
        5.610000          -0.148231E-5       -0.267934E-5
        5.620000          -0.153826E-5       -0.277947E-5
        5.630000          -0.159739E-5       -0.288326E-5
        5.640000          -0.165997E-5       -0.299087E-5
        5.650000          -0.172627E-5       -0.310251E-5
        5.660000          -0.179659E-5       -0.321836E-5
        5.670000          -0.187127E-5       -0.333864E-5
        5.680000          -0.195070E-5       -0.346356E-5
        5.690000          -0.203528E-5       -0.359334E-5
        5.700000          -0.212547E-5       -0.372823E-5
        5.710000          -0.222180E-5       -0.386847E-5
        5.720000          -0.232483E-5       -0.401433E-5
        5.730000          -0.243521E-5       -0.416607E-5
        5.740000          -0.255366E-5       -0.432396E-5
        5.750000          -0.268098E-5       -0.448827E-5
        5.760000          -0.281811E-5       -0.465930E-5
        5.770000          -0.296604E-5       -0.483729E-5
        5.780000          -0.312596E-5       -0.502251E-5
        5.790000          -0.329918E-5       -0.521521E-5
        5.800000          -0.348719E-5       -0.541557E-5
        5.810000          -0.369170E-5       -0.562376E-5
        5.820000          -0.391464E-5       -0.583985E-5
        5.830000          -0.415823E-5       -0.606380E-5
        5.840000          -0.442499E-5       -0.629544E-5
        5.850000          -0.471780E-5       -0.653440E-5
        5.860000          -0.503995E-5       -0.678002E-5
        5.870000          -0.539521E-5       -0.703129E-5
        5.880000          -0.578785E-5       -0.728671E-5
        5.890000          -0.622271E-5       -0.754410E-5
        5.900000          -0.670527E-5       -0.780045E-5
        5.910000          -0.724160E-5       -0.805156E-5
        5.920000          -0.783839E-5       -0.829174E-5
        5.930000          -0.850281E-5       -0.851335E-5
        5.940000          -0.924226E-5       -0.870620E-5
        5.950000          -0.100640E-4       -0.885693E-5
        5.960000          -0.109742E-4       -0.894821E-5
        5.970000          -0.119769E-4       -0.895807E-5
        5.980000          -0.130722E-4       -0.885925E-5
        5.990000          -0.142536E-4       -0.861914E-5
        6.000000          -0.155047E-4       -0.820068E-5
        6.010000          -0.167955E-4       -0.756490E-5
        6.020000          -0.180786E-4       -0.667595E-5
        6.030000          -0.192878E-4       -0.550899E-5
        6.040000          -0.203400E-4       -0.406040E-5
        6.050000          -0.211436E-4       -0.235802E-5
        6.060000          -0.216139E-4       -0.467142E-6
        6.070000          -0.216912E-4        0.151240E-5
        6.080000          -0.213576E-4        0.346025E-5
        6.090000          -0.206430E-4        0.525737E-5
        6.100000          -0.196181E-4        0.680808E-5
        6.110000          -0.183778E-4        0.805402E-5
        6.120000          -0.170209E-4        0.897659E-5
        6.130000          -0.156349E-4        0.958990E-5
        6.140000          -0.142869E-4        0.992907E-5
        6.150000          -0.130224E-4        0.100390E-4
        6.160000          -0.118677E-4        0.996577E-5
        6.170000          -0.108346E-4        0.975134E-5
        6.180000          -0.992482E-5        0.943135E-5
        6.190000          -0.913384E-5        0.903448E-5
        6.200000          -0.845381E-5        0.858294E-5
        6.210000          -0.787541E-5        0.809345E-5
        6.220000          -0.738914E-5        0.757822E-5
        6.230000          -0.698593E-5        0.704597E-5
        6.240000          -0.665762E-5        0.650267E-5
        6.250000          -0.639710E-5        0.595226E-5
        6.260000          -0.619830E-5        0.539716E-5
        6.270000          -0.605627E-5        0.483864E-5
        6.280000          -0.596703E-5        0.427716E-5
        6.290000          -0.592757E-5        0.371252E-5
        6.300000          -0.593575E-5        0.314413E-5
        6.310000          -0.599029E-5        0.257103E-5
        6.320000          -0.609069E-5        0.199213E-5
        6.330000          -0.623722E-5        0.140611E-5
        6.340000          -0.643094E-5        0.811610E-6
        6.350000          -0.667367E-5        0.207252E-6
        6.360000          -0.696808E-5       -0.408306E-6
        6.370000          -0.731769E-5       -0.103628E-5
        6.380000          -0.772698E-5       -0.167773E-5
        6.390000          -0.820145E-5       -0.233340E-5
        6.400000          -0.874778E-5       -0.300362E-5
        6.410000          -0.937395E-5       -0.368813E-5
        6.420000          -0.100894E-4       -0.438585E-5
        6.430000          -0.109051E-4       -0.509457E-5
        6.440000          -0.118341E-4       -0.581053E-5
        6.450000          -0.128913E-4       -0.652785E-5
        6.460000          -0.140936E-4       -0.723787E-5
        6.470000          -0.154604E-4       -0.792810E-5
        6.480000          -0.170130E-4       -0.858105E-5
        6.490000          -0.187743E-4       -0.917262E-5
        6.500000          -0.207681E-4       -0.967020E-5
        6.510000          -0.230169E-4       -0.100303E-4
        6.520000          -0.255396E-4       -0.101964E-4
        6.530000          -0.283464E-4       -0.100962E-4
        6.540000          -0.314324E-4       -0.964107E-5
        6.550000          -0.347687E-4       -0.872637E-5
        6.560000          -0.382907E-4       -0.723723E-5
        6.570000          -0.418872E-4       -0.506007E-5
        6.580000          -0.453927E-4       -0.210275E-5
        6.590000          -0.485890E-4        0.167762E-5
        6.600000          -0.512232E-4        0.624442E-5
        6.610000          -0.530449E-4        0.114597E-4
        6.620000          -0.538567E-4        0.170844E-4
        6.630000          -0.535627E-4        0.228087E-4
        6.640000          -0.521937E-4        0.283071E-4
        6.650000          -0.498980E-4        0.332997E-4
        6.660000          -0.469022E-4        0.375954E-4
        6.670000          -0.434596E-4        0.411070E-4
        6.680000          -0.398057E-4        0.438385E-4
        6.690000          -0.361316E-4        0.458574E-4
        6.700000          -0.325738E-4        0.472661E-4
        6.710000          -0.292189E-4        0.481777E-4
        6.720000          -0.261131E-4        0.487004E-4
        6.730000          -0.232734E-4        0.489295E-4
        6.740000          -0.206972E-4        0.489447E-4
        6.750000          -0.183705E-4        0.488099E-4
        6.760000          -0.162730E-4        0.485752E-4
        6.770000          -0.143817E-4        0.482788E-4
        6.780000          -0.126733E-4        0.479500E-4
        6.790000          -0.111255E-4        0.476104E-4
        6.800000          -0.971766E-5        0.472761E-4
        6.810000          -0.843069E-5        0.469588E-4
        6.820000          -0.724777E-5        0.466672E-4
        6.830000          -0.615367E-5        0.464075E-4
        6.840000          -0.513485E-5        0.461843E-4
        6.850000          -0.417925E-5        0.460006E-4
        6.860000          -0.327603E-5        0.458589E-4
        6.870000          -0.241541E-5        0.457607E-4
        6.880000          -0.158849E-5        0.457073E-4
        6.890000          -0.787075E-6        0.456995E-4
        6.900000          -0.348933E-8        0.457382E-4
        6.910000           0.769530E-6        0.458239E-4
        6.920000           0.153899E-5        0.459573E-4
        6.930000           0.231178E-5        0.461389E-4
        6.940000           0.309477E-5        0.463693E-4
        6.950000           0.389501E-5        0.466491E-4
        6.960000           0.471974E-5        0.469789E-4
        6.970000           0.557668E-5        0.473594E-4
        6.980000           0.647405E-5        0.477911E-4
        6.990000           0.742078E-5        0.482745E-4
        7.000000           0.842668E-5        0.488099E-4
        7.010000           0.950272E-5        0.493972E-4
        7.020000           0.106611E-4        0.500360E-4
        7.030000           0.119155E-4        0.507249E-4
        7.039999           0.132817E-4        0.514620E-4
        7.050000           0.147773E-4        0.522435E-4
        7.059999           0.164225E-4        0.530639E-4
        7.070000           0.182402E-4        0.539152E-4
        7.079999           0.202564E-4        0.547854E-4
        7.090000           0.225004E-4        0.556581E-4
        7.099999           0.250044E-4        0.565099E-4
        7.110000           0.278040E-4        0.573092E-4
        7.119999           0.309363E-4        0.580129E-4
        7.130000           0.344390E-4        0.585635E-4
        7.140000           0.383469E-4        0.588853E-4
        7.150000           0.426855E-4        0.588806E-4
        7.160000           0.474645E-4        0.584268E-4
        7.170000           0.526653E-4        0.573752E-4
        7.180000           0.582252E-4        0.555546E-4
        7.190000           0.640202E-4        0.527820E-4
        7.200000           0.698475E-4        0.488860E-4
        7.210000           0.754176E-4        0.437419E-4
        7.220000           0.803637E-4        0.373187E-4
        7.230000           0.842797E-4        0.297244E-4
        7.240000           0.867882E-4        0.212322E-4
        7.250000           0.876217E-4        0.122656E-4
        7.260000           0.866918E-4        0.333581E-5
        7.270000           0.841134E-4       -0.505283E-5
        7.280000           0.801725E-4       -0.124945E-4
        7.290000           0.752547E-4       -0.187383E-4
        7.300000           0.697628E-4       -0.236964E-4
        7.310000           0.640542E-4       -0.274143E-4
        7.320000           0.584067E-4       -0.300239E-4
        7.330000           0.530116E-4       -0.316990E-4
        7.340000           0.479844E-4       -0.326203E-4
        7.350000           0.433815E-4       -0.329556E-4
        7.360000           0.392181E-4       -0.328493E-4
        7.370000           0.354828E-4       -0.324199E-4
        7.380000           0.321489E-4       -0.317615E-4
        7.390000           0.291824E-4       -0.309466E-4
        7.400000           0.265464E-4       -0.300304E-4
        7.410000           0.242047E-4       -0.290541E-4
        7.420000           0.221231E-4       -0.280478E-4
        7.430000           0.202705E-4       -0.270336E-4
        7.440000           0.186189E-4       -0.260271E-4
        7.450000           0.171437E-4       -0.250391E-4
        7.460000           0.158230E-4       -0.240772E-4
        7.470000           0.146381E-4       -0.231462E-4
        7.480000           0.135724E-4       -0.222489E-4
        7.489999           0.126117E-4       -0.213870E-4
        7.500000           0.117435E-4       -0.205610E-4
        7.510000           0.109572E-4       -0.197708E-4
        7.520000           0.102434E-4       -0.190158E-4
        7.530000           0.959383E-5       -0.182949E-4
        7.540000           0.900150E-5       -0.176070E-4
        7.550000           0.846018E-5       -0.169508E-4
        7.560000           0.796446E-5       -0.163248E-4
        7.570000           0.750959E-5       -0.157277E-4
        7.580000           0.709139E-5       -0.151578E-4
        7.590000           0.670620E-5       -0.146140E-4
        7.600000           0.635076E-5       -0.140947E-4
        7.610000           0.602222E-5       -0.135987E-4
        7.620000           0.571803E-5       -0.131247E-4
        7.630000           0.543593E-5       -0.126715E-4
        7.640000           0.517391E-5       -0.122380E-4
        7.650000           0.493019E-5       -0.118231E-4
        7.660000           0.470315E-5       -0.114257E-4
        7.670000           0.449138E-5       -0.110449E-4
        7.680000           0.429356E-5       -0.106799E-4
        7.690000           0.410855E-5       -0.103296E-4
        7.700000           0.393531E-5       -0.999350E-5
        7.710000           0.377289E-5       -0.967064E-5
        7.720000           0.362044E-5       -0.936039E-5
        7.730000           0.347719E-5       -0.906208E-5
        7.740000           0.334244E-5       -0.877509E-5
        7.750000           0.321555E-5       -0.849883E-5
        7.760000           0.309595E-5       -0.823277E-5
        7.770000           0.298311E-5       -0.797637E-5
        7.780000           0.287655E-5       -0.772917E-5
        7.789999           0.277583E-5       -0.749070E-5
        7.800000           0.268054E-5       -0.726053E-5
        7.809999           0.259031E-5       -0.703827E-5
        7.820000           0.250482E-5       -0.682354E-5
        7.829999           0.242373E-5       -0.661597E-5
        7.840000           0.234678E-5       -0.641523E-5
        7.849999           0.227369E-5       -0.622100E-5
        7.860000           0.220422E-5       -0.603300E-5
        7.870000           0.213813E-5       -0.585090E-5
        7.880000           0.207525E-5       -0.567448E-5
        7.890000           0.201535E-5       -0.550347E-5
        7.900000           0.195827E-5       -0.533764E-5
        7.910000           0.190384E-5       -0.517675E-5
        7.920000           0.185191E-5       -0.502058E-5
        7.930000           0.180233E-5       -0.486896E-5
        7.940000           0.175497E-5       -0.472167E-5
        7.950000           0.170970E-5       -0.457853E-5
        7.960000           0.166642E-5       -0.443937E-5
        7.970000           0.162501E-5       -0.430403E-5
        7.980000           0.158537E-5       -0.417236E-5
        7.990000           0.154741E-5       -0.404421E-5
        8.000000           0.151104E-5       -0.391942E-5
        8.010000           0.147618E-5       -0.379788E-5
        8.020000           0.144275E-5       -0.367945E-5
        8.030000           0.141067E-5       -0.356401E-5
        8.040000           0.137989E-5       -0.345145E-5
        8.050000           0.135034E-5       -0.334165E-5
        8.059999           0.132195E-5       -0.323452E-5
        8.070000           0.129468E-5       -0.312994E-5
        8.080000           0.126846E-5       -0.302783E-5
        8.090000           0.124325E-5       -0.292810E-5
        8.099999           0.121900E-5       -0.283066E-5
        8.110000           0.119567E-5       -0.273541E-5
        8.120000           0.117322E-5       -0.264230E-5
        8.130000           0.115160E-5       -0.255123E-5
        8.139999           0.113078E-5       -0.246214E-5
        8.150000           0.111073E-5       -0.237494E-5
        8.160000           0.109140E-5       -0.228959E-5
        8.170000           0.107277E-5       -0.220601E-5
        8.179999           0.105482E-5       -0.212415E-5
        8.190000           0.103750E-5       -0.204394E-5
        8.200000           0.102080E-5       -0.196533E-5
        8.209999           0.100469E-5       -0.188826E-5
        8.219999           0.989138E-6       -0.181268E-5
        8.230000           0.974131E-6       -0.173854E-5
        8.240001           0.959645E-6       -0.166579E-5
        8.250000           0.945659E-6       -0.159440E-5
        8.260000           0.932154E-6       -0.152430E-5
        8.270000           0.919111E-6       -0.145547E-5
        8.280000           0.906511E-6       -0.138786E-5
        8.290000           0.894339E-6       -0.132142E-5
        8.300000           0.882578E-6       -0.125613E-5
        8.310000           0.871213E-6       -0.119194E-5
        8.320000           0.860229E-6       -0.112882E-5
        8.330000           0.849613E-6       -0.106673E-5
        8.340000           0.839352E-6       -0.100565E-5
        8.350000           0.829432E-6       -0.945543E-6
        8.360000           0.819841E-6       -0.886372E-6
        8.370000           0.810569E-6       -0.828114E-6
        8.380000           0.801604E-6       -0.770733E-6
        8.390000           0.792937E-6       -0.714210E-6
        8.400000           0.784556E-6       -0.658518E-6
        8.410000           0.776451E-6       -0.603625E-6
        8.420000           0.768615E-6       -0.549514E-6
        8.430000           0.761038E-6       -0.496154E-6
        8.440000           0.753712E-6       -0.443527E-6
        8.450000           0.746628E-6       -0.391603E-6
        8.460000           0.739780E-6       -0.340372E-6
        8.469999           0.733159E-6       -0.289802E-6
        8.480000           0.726759E-6       -0.239884E-6
        8.490000           0.720574E-6       -0.190584E-6
        8.500000           0.714595E-6       -0.141901E-6
        8.509999           0.708817E-6       -0.938016E-7
        8.520000           0.703234E-6       -0.462697E-7
        8.530000           0.697842E-6        0.70604E-09
        8.540000           0.692633E-6        0.471449E-7
        8.549999           0.687602E-6        0.930589E-7
        8.559999           0.682744E-6        0.138471E-6
        8.570000           0.678055E-6        0.183401E-6
        8.580000           0.673530E-6        0.227851E-6
        8.589999           0.669164E-6        0.271838E-6
        8.600000           0.664953E-6        0.315387E-6
        8.610001           0.660892E-6        0.358492E-6
        8.620000           0.656978E-6        0.401187E-6
        8.630000           0.653206E-6        0.443469E-6
        8.640000           0.649574E-6        0.485358E-6
        8.650001           0.646076E-6        0.526865E-6
        8.660000           0.642710E-6        0.567999E-6
        8.670000           0.639472E-6        0.608778E-6
        8.680000           0.636359E-6        0.649201E-6
        8.690001           0.633367E-6        0.689289E-6
        8.700000           0.630494E-6        0.729049E-6
        8.710000           0.627737E-6        0.768492E-6
        8.720000           0.625092E-6        0.807623E-6
        8.730000           0.622556E-6        0.846463E-6
        8.740000           0.620128E-6        0.885010E-6
        8.750000           0.617804E-6        0.923272E-6
        8.760000           0.615581E-6        0.961263E-6
        8.770000           0.613458E-6        0.998994E-6
        8.780000           0.611430E-6        0.103646E-5
        8.790000           0.609497E-6        0.107369E-5
        8.800000           0.607656E-6        0.111067E-5
        8.809999           0.605903E-6        0.114742E-5
        8.820000           0.604237E-6        0.118394E-5
        8.830000           0.602656E-6        0.122025E-5
        8.840000           0.601158E-6        0.125633E-5
        8.849999           0.599739E-6        0.129222E-5
        8.860000           0.598398E-6        0.132789E-5
        8.870000           0.597133E-6        0.136338E-5
        8.880000           0.595941E-6        0.139867E-5
        8.889999           0.594819E-6        0.143378E-5
        8.900000           0.593767E-6        0.146872E-5
        8.910000           0.592782E-6        0.150346E-5
        8.919999           0.591860E-6        0.153805E-5
        8.929999           0.591001E-6        0.157246E-5
        8.940000           0.590201E-6        0.160672E-5
        8.950000           0.589459E-6        0.164081E-5
        8.959999           0.588772E-6        0.167475E-5
        8.970000           0.588137E-6        0.170854E-5
        8.980000           0.587553E-6        0.174218E-5
        8.990000           0.587016E-6        0.177566E-5
        9.000000           0.586523E-6        0.180900E-5
        9.010000           0.586073E-6        0.184220E-5
        9.020000           0.585663E-6        0.187526E-5
        9.030000           0.585288E-6        0.190818E-5
        9.040000           0.584947E-6        0.194095E-5
        9.050000           0.584636E-6        0.197359E-5
        9.060000           0.584352E-6        0.200608E-5
        9.070000           0.584091E-6        0.203845E-5
        9.080000           0.583850E-6        0.207067E-5
        9.090000           0.583625E-6        0.210274E-5
        9.100000           0.583412E-6        0.213467E-5
        9.110000           0.583206E-6        0.216647E-5
        9.120000           0.583003E-6        0.219811E-5
        9.130000           0.582799E-6        0.222960E-5
        9.140000           0.582588E-6        0.226094E-5
        9.150000           0.582366E-6        0.229212E-5
        9.160000           0.582124E-6        0.232314E-5
        9.170000           0.581860E-6        0.235399E-5
        9.179999           0.581565E-6        0.238466E-5
        9.190000           0.581233E-6        0.241516E-5
        9.200000           0.580857E-6        0.244545E-5
        9.210000           0.580428E-6        0.247557E-5
        9.219999           0.579938E-6        0.250546E-5
        9.230000           0.579379E-6        0.253514E-5
        9.240000           0.578740E-6        0.256460E-5
        9.250000           0.578011E-6        0.259381E-5
        9.259999           0.577181E-6        0.262277E-5
        9.270000           0.576237E-6        0.265146E-5
        9.280000           0.575168E-6        0.267986E-5
        9.290000           0.573959E-6        0.270797E-5
        9.299999           0.572594E-6        0.273576E-5
        9.309999           0.571058E-6        0.276320E-5
        9.320000           0.569334E-6        0.279027E-5
        9.330000           0.567402E-6        0.281698E-5
        9.340000           0.565241E-6        0.284326E-5
        9.350000           0.562830E-6        0.286910E-5
        9.360001           0.560144E-6        0.289448E-5
        9.370000           0.557158E-6        0.291935E-5
        9.380000           0.553843E-6        0.294369E-5
        9.390000           0.550168E-6        0.296746E-5
        9.400001           0.546099E-6        0.299061E-5
        9.410000           0.541602E-6        0.301311E-5
        9.420000           0.536634E-6        0.303490E-5
        9.430000           0.531155E-6        0.305594E-5
        9.440000           0.525115E-6        0.307617E-5
        9.450000           0.518464E-6        0.309554E-5
        9.460000           0.511145E-6        0.311397E-5
        9.470000           0.503096E-6        0.313141E-5
        9.480000           0.494249E-6        0.314778E-5
        9.490000           0.484532E-6        0.316299E-5
        9.500000           0.473860E-6        0.317698E-5
        9.510000           0.462145E-6        0.318964E-5
        9.520000           0.449289E-6        0.320087E-5
        9.530000           0.435182E-6        0.321058E-5
        9.540000           0.419703E-6        0.321863E-5
        9.550000           0.402721E-6        0.322492E-5
        9.559999           0.384087E-6        0.322930E-5
        9.570000           0.363640E-6        0.323164E-5
        9.580000           0.341197E-6        0.323177E-5
        9.590000           0.316559E-6        0.322953E-5
        9.599999           0.289501E-6        0.322474E-5
        9.610000           0.259775E-6        0.321719E-5
        9.620000           0.227100E-6        0.320670E-5
        9.629999           0.191166E-6        0.319302E-5
        9.639999           0.151623E-6        0.317591E-5
        9.650000           0.108080E-6        0.315511E-5
        9.660000           0.600945E-7        0.313034E-5
        9.669999           0.717105E-8        0.310131E-5
        9.679999          -0.512514E-7        0.306768E-5
        9.690000          -0.115809E-6        0.302911E-5
        9.700000          -0.187224E-6        0.298523E-5
        9.710000          -0.266306E-6        0.293566E-5
        9.720000          -0.353988E-6        0.287999E-5
        9.730000          -0.451332E-6        0.281778E-5
        9.740000          -0.559551E-6        0.274861E-5
        9.750000          -0.680034E-6        0.267202E-5
        9.760000          -0.814377E-6        0.258756E-5
        9.770000          -0.964415E-6        0.249476E-5
        9.780000          -0.113226E-5        0.239326E-5
        9.790000          -0.132037E-5        0.228264E-5
        9.800000          -0.153155E-5        0.216265E-5
        9.810000          -0.176909E-5        0.203312E-5
        9.820000          -0.203678E-5        0.189413E-5
        9.830000          -0.233902E-5        0.174594E-5
        9.840000          -0.268092E-5        0.158930E-5
        9.850000          -0.306838E-5        0.142546E-5
        9.860000          -0.350823E-5        0.125643E-5
        9.870000          -0.400830E-5        0.108530E-5
        9.880000          -0.457753E-5        0.916515E-6
        9.889999          -0.522602E-5        0.756513E-6
        9.900000          -0.596493E-5        0.614238E-6
        9.910000          -0.680629E-5        0.502068E-6
        9.920000          -0.776256E-5        0.436746E-6
        9.929999          -0.884566E-5        0.440649E-6
        9.940000          -0.100655E-4        0.542966E-6
        9.950000          -0.114277E-4        0.780941E-6
        9.960000          -0.129297E-4        0.120040E-5
        9.969999          -0.145565E-4        0.185513E-5
        9.980000          -0.162745E-4        0.280400E-5
        9.990000          -0.180262E-4        0.410451E-5
        10.00000          -0.197263E-4        0.580222E-5
        10.01000          -0.212637E-4        0.791643E-5
        10.02000          -0.225116E-4        0.104252E-4
        10.03000          -0.233473E-4        0.132557E-4
        10.04000          -0.236774E-4        0.162863E-4
        10.05000          -0.234606E-4        0.193635E-4
        10.06000          -0.227180E-4        0.223305E-4
        10.07000          -0.215261E-4        0.250552E-4
        10.08000          -0.199960E-4        0.274513E-4
        10.09000          -0.182486E-4        0.294817E-4
        10.10000          -0.163944E-4        0.311517E-4
        10.11000          -0.145216E-4        0.324957E-4
        10.12000          -0.126929E-4        0.335632E-4
        10.13000          -0.109474E-4        0.344081E-4
        10.14000          -0.930556E-5        0.350815E-4
        10.15000          -0.777448E-5        0.356287E-4
        10.16000          -0.635216E-5        0.360877E-4
        10.17000          -0.503117E-5        0.364893E-4
        10.18000          -0.380106E-5        0.368579E-4
        10.19000          -0.264997E-5        0.372126E-4
        10.20000          -0.156564E-5        0.375684E-4
        10.21000          -0.535978E-6        0.379369E-4
        10.22000           0.450666E-6        0.383270E-4
        10.23000           0.140538E-5        0.387459E-4
        10.24000           0.233873E-5        0.391993E-4
        10.25000           0.326084E-5        0.396916E-4
        10.26000           0.418149E-5        0.402267E-4
        10.27000           0.511030E-5        0.408078E-4
        10.28000           0.605688E-5        0.414377E-4
        10.29000           0.703099E-5        0.421189E-4
        10.30000           0.804276E-5        0.428537E-4
        10.31000           0.910286E-5        0.436440E-4
        10.32000           0.102227E-4        0.444915E-4
        10.33000           0.114149E-4        0.453976E-4
        10.34000           0.126929E-4        0.463634E-4
        10.35000           0.140722E-4        0.473892E-4
        10.36000           0.155699E-4        0.484747E-4
        10.37000           0.172053E-4        0.496182E-4
        10.38000           0.190006E-4        0.508166E-4
        10.39000           0.209808E-4        0.520646E-4
        10.40000           0.231745E-4        0.533537E-4
        10.41000           0.256143E-4        0.546715E-4
        10.42000           0.283370E-4        0.559997E-4
        10.43000           0.313844E-4        0.573129E-4
        10.44000           0.348018E-4        0.585750E-4
        10.45000           0.386389E-4        0.597369E-4
        10.46000           0.429473E-4        0.607324E-4
        10.47000           0.477778E-4        0.614725E-4
        10.48000           0.531742E-4        0.618407E-4
        10.49000           0.591651E-4        0.616873E-4
        10.50000           0.657502E-4        0.608253E-4
        10.51000           0.728807E-4        0.590302E-4
        10.52000           0.804350E-4        0.560478E-4
        10.53000           0.881904E-4        0.516151E-4
        10.54000           0.957984E-4        0.455015E-4
        10.55000           0.102777E-3        0.375705E-4
        10.56000           0.108536E-3        0.278577E-4
        10.57000           0.112456E-3        0.166431E-4
        10.58000           0.114008E-3        0.447945E-5
        10.59000           0.112906E-3       -0.785715E-5
        10.60000           0.109207E-3       -0.195053E-4
        10.61000           0.103321E-3       -0.297044E-4
        10.62000           0.959082E-4       -0.379549E-4
        10.63000           0.877103E-4       -0.440859E-4
        10.64000           0.793873E-4       -0.482169E-4
        10.65000           0.714215E-4       -0.506524E-4
        10.66000           0.640974E-4       -0.517662E-4
        10.67000           0.575358E-4       -0.519154E-4
        10.68000           0.517470E-4       -0.513972E-4
        10.69000           0.466800E-4       -0.504377E-4
        10.70000           0.422574E-4       -0.491989E-4
        10.71000           0.383963E-4       -0.477925E-4
        10.72000           0.350189E-4       -0.462940E-4
        10.73000           0.320565E-4       -0.447535E-4
        10.74000           0.294499E-4       -0.432040E-4
        10.75000           0.271494E-4       -0.416669E-4
        10.76000           0.251131E-4       -0.401558E-4
        10.77000           0.233060E-4       -0.386792E-4
        10.78000           0.216984E-4       -0.372417E-4
        10.79000           0.202653E-4       -0.358455E-4
        10.80000           0.189857E-4       -0.344913E-4
        10.81000           0.178415E-4       -0.331783E-4
        10.82000           0.168173E-4       -0.319047E-4
        10.83000           0.158999E-4       -0.306682E-4
        10.84000           0.150782E-4       -0.294658E-4
        10.85000           0.143426E-4       -0.282945E-4
        10.86000           0.136848E-4       -0.271504E-4
        10.87000           0.130978E-4       -0.260296E-4
        10.88000           0.125760E-4       -0.249276E-4
        10.89000           0.121146E-4       -0.238396E-4
        10.90000           0.117099E-4       -0.227602E-4
        10.91000           0.113595E-4       -0.216835E-4
        10.92000           0.110622E-4       -0.206027E-4
        10.93000           0.108183E-4       -0.195104E-4
        10.94000           0.106303E-4       -0.183979E-4
        10.95000           0.105032E-4       -0.172560E-4
        10.96000           0.104456E-4       -0.160745E-4
        10.97000           0.104703E-4       -0.148434E-4
        10.98000           0.105962E-4       -0.135536E-4
        10.99000           0.108483E-4       -0.121993E-4
        11.00000           0.112590E-4       -0.107805E-4
        11.01000           0.118664E-4       -0.930648E-5
        11.02000           0.127121E-4       -0.779996E-5
        11.03000           0.138361E-4       -0.629900E-5
        11.04000           0.152704E-4       -0.485722E-5
        11.05000           0.170341E-4       -0.354063E-5
        11.06000           0.191300E-4       -0.242239E-5
        11.07000           0.215446E-4       -0.157801E-5
        11.08000           0.242506E-4       -0.108302E-5
        11.09000           0.272071E-4       -0.101344E-5
        11.10000           0.303573E-4       -0.144784E-5
        11.11000           0.336213E-4       -0.246654E-5
        11.12000           0.368867E-4       -0.414533E-5
        11.13000           0.400005E-4       -0.654062E-5
        11.14000           0.427691E-4       -0.966647E-5
        11.15000           0.449729E-4       -0.134683E-4
        11.16000           0.463981E-4       -0.178037E-4
        11.17000           0.468818E-4       -0.224398E-4
        11.18000           0.463570E-4       -0.270838E-4
        11.19000           0.448764E-4       -0.314321E-4
        11.20000           0.426043E-4       -0.352299E-4
        11.21000           0.397775E-4       -0.383145E-4
        11.22000           0.366530E-4       -0.406297E-4
        11.23000           0.334605E-4       -0.422120E-4
        11.24000           0.303744E-4       -0.431592E-4
        11.25000           0.275064E-4       -0.435959E-4
        11.26000           0.249130E-4       -0.436471E-4
        11.27000           0.226104E-4       -0.434220E-4
        11.28000           0.205901E-4       -0.430082E-4
        11.29000           0.188302E-4       -0.424715E-4
        11.30000           0.173040E-4       -0.418597E-4
        11.31000           0.159847E-4       -0.412063E-4
        11.32000           0.148476E-4       -0.405347E-4
        11.33000           0.138709E-4       -0.398606E-4
        11.34000           0.130366E-4       -0.391947E-4
        11.35000           0.123295E-4       -0.385443E-4
        11.36000           0.117374E-4       -0.379142E-4
        11.37000           0.112509E-4       -0.373079E-4
        11.38000           0.108628E-4       -0.367279E-4
        11.39000           0.105679E-4       -0.361763E-4
        11.40000           0.103632E-4       -0.356552E-4
        11.41000           0.102473E-4       -0.351672E-4
        11.42000           0.102205E-4       -0.347156E-4
        11.43000           0.102846E-4       -0.343049E-4
        11.44000           0.104428E-4       -0.339412E-4
        11.45000           0.106998E-4       -0.336331E-4
        11.46000           0.110607E-4       -0.333921E-4
        11.47000           0.115313E-4       -0.332334E-4
        11.48000           0.121168E-4       -0.331774E-4
        11.49000           0.128202E-4       -0.332499E-4
        11.50000           0.136408E-4       -0.334839E-4
        11.51000           0.145707E-4       -0.339195E-4
        11.52000           0.155908E-4       -0.346037E-4
        11.53000           0.166658E-4       -0.355876E-4
        11.54000           0.177392E-4       -0.369219E-4
        11.55000           0.187297E-4       -0.386473E-4
        11.56000           0.195313E-4       -0.407824E-4
        11.57000           0.200209E-4       -0.433097E-4
        11.58000           0.200745E-4       -0.461646E-4
        11.59000           0.195903E-4       -0.492344E-4
        11.60000           0.185119E-4       -0.523705E-4
        11.61000           0.168416E-4       -0.554134E-4
        11.62000           0.146378E-4       -0.582217E-4
        11.63000           0.119974E-4       -0.606944E-4
        11.64000           0.903053E-5       -0.627783E-4
        11.65000           0.583801E-5       -0.644625E-4
        11.66000           0.249749E-5       -0.657637E-4
        11.67000          -0.941001E-6       -0.667101E-4
        11.68000          -0.445217E-5       -0.673274E-4
        11.69000          -0.802835E-5       -0.676289E-4
        11.70000          -0.116702E-4       -0.676096E-4
        11.71000          -0.153769E-4       -0.672441E-4
        11.72000          -0.191347E-4       -0.664872E-4
        11.73000          -0.229063E-4       -0.652791E-4
        11.74000          -0.266206E-4       -0.635560E-4
        11.75000          -0.301655E-4       -0.612659E-4
        11.76000          -0.333894E-4       -0.583918E-4
        11.77000          -0.361152E-4       -0.549747E-4
        11.78000          -0.381694E-4       -0.511309E-4
        11.79000          -0.394211E-4       -0.470509E-4
        11.80000          -0.398192E-4       -0.429740E-4
        11.81000          -0.394092E-4       -0.391444E-4
        11.82000          -0.383228E-4       -0.357649E-4
        11.83000          -0.367448E-4       -0.329654E-4
        11.84000          -0.348720E-4       -0.307956E-4
        11.85000          -0.328811E-4       -0.292393E-4
        11.86000          -0.309101E-4       -0.282364E-4
        11.87000          -0.290554E-4       -0.277063E-4
        11.88000          -0.273761E-4       -0.275647E-4
        11.89000          -0.259029E-4       -0.277337E-4
        11.90000          -0.246467E-4       -0.281469E-4
        11.91000          -0.236058E-4       -0.287508E-4
        11.92000          -0.227714E-4       -0.295043E-4
        11.93000          -0.221318E-4       -0.303774E-4
        11.94000          -0.216754E-4       -0.313495E-4
        11.95000          -0.213927E-4       -0.324074E-4
        11.96000          -0.212780E-4       -0.335437E-4
        11.97000          -0.213300E-4       -0.347540E-4
        11.98000          -0.215524E-4       -0.360351E-4
        11.99000          -0.219527E-4       -0.373835E-4
        12.00000          -0.225418E-4       -0.387938E-4
        12.01000          -0.233326E-4       -0.402585E-4
        12.02000          -0.243394E-4       -0.417686E-4
        12.03000          -0.255785E-4       -0.433132E-4
        12.04000          -0.270684E-4       -0.448799E-4
        12.05000          -0.288305E-4       -0.464533E-4
        12.06000          -0.308899E-4       -0.480146E-4
        12.07000          -0.332761E-4       -0.495393E-4
        12.08000          -0.360221E-4       -0.509944E-4
        12.09000          -0.391646E-4       -0.523359E-4
        12.10000          -0.427414E-4       -0.535051E-4
        12.11000          -0.467889E-4       -0.544241E-4
        12.12000          -0.513362E-4       -0.549920E-4
        12.13000          -0.563971E-4       -0.550808E-4
        12.14000          -0.619581E-4       -0.545331E-4
        12.15000          -0.679619E-4       -0.531651E-4
        12.16000          -0.742882E-4       -0.507757E-4
        12.17000          -0.807335E-4       -0.471682E-4
        12.18000          -0.869985E-4       -0.421868E-4
        12.19000          -0.926924E-4       -0.357656E-4
        12.20000          -0.973662E-4       -0.279822E-4
        12.21000          -0.100580E-3       -0.190949E-4
        12.22000          -0.101993E-3       -0.953988E-5
        12.23000          -0.101450E-3        0.124904E-6
        12.24000          -0.990196E-4        0.931936E-5
        12.25000          -0.949815E-4        0.175494E-4
        12.26000          -0.897490E-4        0.244837E-4
        12.27000          -0.837808E-4        0.299756E-4
        12.28000          -0.774989E-4        0.340416E-4
        12.29000          -0.712431E-4        0.368098E-4
        12.30000          -0.652561E-4        0.384675E-4
        12.31000          -0.596911E-4        0.392188E-4
        12.32000          -0.546303E-4        0.392581E-4
        12.33000          -0.501047E-4        0.387556E-4
        12.34000          -0.461123E-4        0.378530E-4
        12.35000          -0.426320E-4        0.366642E-4
        12.36000          -0.396331E-4        0.352789E-4
        12.37000          -0.370818E-4        0.337672E-4
        12.38000          -0.349453E-4        0.321840E-4
        12.39000          -0.331935E-4        0.305732E-4
        12.40000          -0.318005E-4        0.289720E-4
        12.41000          -0.307441E-4        0.274134E-4
        12.42000          -0.300053E-4        0.259296E-4
        12.43000          -0.295667E-4        0.245546E-4
        12.44000          -0.294095E-4        0.233258E-4
        12.45000          -0.295110E-4        0.222853E-4
        12.46000          -0.298392E-4        0.214798E-4
        12.47000          -0.303483E-4        0.209577E-4
        12.48000          -0.309738E-4        0.207636E-4
        12.49000          -0.316301E-4        0.209287E-4
        12.50000          -0.322138E-4        0.214593E-4
        12.51000          -0.326136E-4        0.223251E-4
        12.52000          -0.327280E-4        0.234537E-4
        12.53000          -0.324859E-4        0.247359E-4
        12.54000          -0.318627E-4        0.260425E-4
        12.55000          -0.308842E-4        0.272480E-4
        12.56000          -0.296178E-4        0.282530E-4
        12.57000          -0.281535E-4        0.289961E-4
        12.58000          -0.265851E-4        0.294548E-4
        12.59000          -0.249948E-4        0.296379E-4
        12.60000          -0.234467E-4        0.295741E-4
        12.61000          -0.219846E-4        0.293016E-4
        12.62000          -0.206353E-4        0.288605E-4
        12.63000          -0.194125E-4        0.282878E-4
        12.64000          -0.183199E-4        0.276152E-4
        12.65000          -0.173560E-4        0.268689E-4
        12.66000          -0.165153E-4        0.260692E-4
        12.67000          -0.157913E-4        0.252318E-4
        12.68000          -0.151767E-4        0.243684E-4
        12.69000          -0.146645E-4        0.234871E-4
        12.70000          -0.142487E-4        0.225941E-4
        12.71000          -0.139241E-4        0.216931E-4
        12.72000          -0.136868E-4        0.207866E-4
        12.73000          -0.135338E-4        0.198762E-4
        12.74000          -0.134637E-4        0.189623E-4
        12.75000          -0.134760E-4        0.180452E-4
        12.76000          -0.135716E-4        0.171246E-4
        12.77000          -0.137528E-4        0.162003E-4
        12.78000          -0.140232E-4        0.152721E-4
        12.79000          -0.143878E-4        0.143401E-4
        12.80000          -0.148533E-4        0.134050E-4
        12.81000          -0.154278E-4        0.124683E-4
        12.82000          -0.161215E-4        0.115326E-4
        12.83000          -0.169466E-4        0.106022E-4
        12.84000          -0.179171E-4        0.968368E-5
        12.85000          -0.190494E-4        0.878670E-5
        12.86000          -0.203620E-4        0.792483E-5
        12.87000          -0.218753E-4        0.711704E-5
        12.88000          -0.236108E-4        0.638920E-5
        12.89000          -0.255905E-4        0.577600E-5
        12.90000          -0.278340E-4        0.532322E-5
        12.91000          -0.303560E-4        0.508975E-5
        12.92000          -0.331607E-4        0.514945E-5
        12.93000          -0.362353E-4        0.559150E-5
        12.94000          -0.395399E-4        0.651790E-5
        12.95000          -0.429978E-4        0.803623E-5
        12.96000          -0.464854E-4        0.102457E-4
        12.97000          -0.498282E-4        0.132151E-4
        12.98000          -0.528087E-4        0.169549E-4
        12.99000          -0.551901E-4        0.213916E-4
        13.00000          -0.567583E-4        0.263524E-4
        13.01000          -0.573715E-4        0.315794E-4
        13.02000          -0.569997E-4        0.367686E-4
        13.03000          -0.557360E-4        0.416281E-4
        13.04000          -0.537752E-4        0.459334E-4
        13.05000          -0.513688E-4        0.495600E-4
        13.06000          -0.487751E-4        0.524875E-4
        13.07000          -0.462219E-4        0.547817E-4
        13.08000          -0.438857E-4        0.565691E-4
        13.09000          -0.418857E-4        0.580119E-4
        13.10000          -0.402849E-4        0.592919E-4
        13.11000          -0.390917E-4        0.605999E-4
        13.12000          -0.382578E-4        0.621286E-4
        13.13000          -0.376701E-4        0.640621E-4
        13.14000          -0.371413E-4        0.665558E-4
        13.15000          -0.364066E-4        0.697027E-4
        13.16000          -0.351396E-4        0.734879E-4
        13.17000          -0.329993E-4        0.777453E-4
        13.18000          -0.297095E-4        0.821392E-4
        13.19000          -0.251527E-4        0.861962E-4
        13.20000          -0.194412E-4        0.893941E-4
        13.21000          -0.129292E-4        0.912893E-4
        13.22000          -0.614752E-5        0.916358E-4
        13.23000           0.319733E-6        0.904491E-4
        13.24000           0.597149E-5        0.879911E-4
        13.25000           0.104900E-4        0.846855E-4
        13.26000           0.137747E-4        0.810026E-4
        13.27000           0.159118E-4        0.773567E-4
        13.28000           0.171056E-4        0.740472E-4
        13.29000           0.176057E-4        0.712456E-4
        13.30000           0.176514E-4        0.690156E-4
        13.31000           0.174417E-4        0.673464E-4
        13.32000           0.171260E-4        0.661856E-4
        13.33000           0.168079E-4        0.654635E-4
        13.34000           0.165540E-4        0.651088E-4
        13.35000           0.164040E-4        0.650568E-4
        13.36000           0.163800E-4        0.652527E-4
        13.37000           0.164925E-4        0.656522E-4
        13.38000           0.167456E-4        0.662206E-4
        13.39000           0.171405E-4        0.669312E-4
        13.40000           0.176770E-4        0.677638E-4
        13.41000           0.183554E-4        0.687032E-4
        13.42000           0.191771E-4        0.697376E-4
        13.43000           0.201448E-4        0.708579E-4
        13.44000           0.212631E-4        0.720569E-4
        13.45000           0.225383E-4        0.733276E-4
        13.46000           0.239782E-4        0.746637E-4
        13.47000           0.255921E-4        0.760580E-4
        13.48000           0.273899E-4        0.775027E-4
        13.49000           0.293821E-4        0.789890E-4
        13.50000           0.315786E-4        0.805076E-4
        13.51000           0.339887E-4        0.820493E-4
        13.52000           0.366210E-4        0.836069E-4
        13.53000           0.394850E-4        0.851769E-4
        13.54000           0.425938E-4        0.867604E-4
        13.55000           0.459688E-4        0.883635E-4
        13.56000           0.496448E-4        0.899942E-4
        13.57000           0.536735E-4        0.916561E-4
        13.58000           0.581249E-4        0.933410E-4
        13.59000           0.630847E-4        0.950199E-4
        13.60000           0.686498E-4        0.966365E-4
        13.61000           0.749207E-4        0.981011E-4
        13.62000           0.819960E-4        0.992867E-4
        13.63000           0.899604E-4        0.100023E-3
        13.64000           0.988806E-4        0.100092E-3
        13.65000           0.108778E-3        0.992217E-4
        13.66000           0.119618E-3        0.970881E-4
        13.67000           0.131265E-3        0.933202E-4
        13.68000           0.143461E-3        0.875232E-4
        13.69000           0.155773E-3        0.793293E-4
        13.70000           0.167598E-3        0.684647E-4
        13.71000           0.178161E-3        0.548553E-4
        13.72000           0.186614E-3        0.387056E-4
        13.73000           0.192155E-3        0.205683E-4
        13.74000           0.194207E-3        0.129425E-5
        13.75000           0.192545E-3       -0.180692E-4
        13.76000           0.187347E-3       -0.364870E-4
        13.77000           0.179143E-3       -0.530892E-4
        13.78000           0.168666E-3       -0.673038E-4
        13.79000           0.156723E-3       -0.788578E-4
        13.80000           0.144061E-3       -0.877531E-4
        13.81000           0.131310E-3       -0.941783E-4
        13.82000           0.118943E-3       -0.984467E-4
        13.83000           0.107286E-3       -0.100923E-3
        13.84000           0.965231E-4       -0.101978E-3
        13.85000           0.867366E-4       -0.101952E-3
        13.86000           0.779246E-4       -0.101137E-3
        13.87000           0.700412E-4       -0.997692E-4
        13.88000           0.630081E-4       -0.980330E-4
        13.89000           0.567406E-4       -0.960677E-4
        13.90000           0.511487E-4       -0.939752E-4
        13.91000           0.461497E-4       -0.918303E-4
        13.92000           0.416675E-4       -0.896866E-4
        13.93000           0.376318E-4       -0.875811E-4
        13.94000           0.339828E-4       -0.855401E-4
        13.95000           0.306652E-4       -0.835806E-4
        13.96000           0.276326E-4       -0.817144E-4
        13.97000           0.248418E-4       -0.799474E-4
        13.98000           0.222562E-4       -0.782834E-4
        13.99000           0.198414E-4       -0.767226E-4
        14.00000           0.175678E-4       -0.752640E-4
        14.01000           0.154069E-4       -0.739039E-4
        14.02000           0.133336E-4       -0.726382E-4
        14.03000           0.113233E-4       -0.714601E-4
        14.04000           0.935359E-5       -0.703620E-4
        14.05000           0.740220E-5       -0.693335E-4
        14.06000           0.544890E-5       -0.683625E-4
        14.07000           0.347338E-5       -0.674331E-4
        14.08000           0.145815E-5       -0.665265E-4
        14.09000          -0.613136E-6       -0.656186E-4
        14.10000          -0.275149E-5       -0.646811E-4
        14.11000          -0.496293E-5       -0.636794E-4
        14.12000          -0.724262E-5       -0.625753E-4
        14.13000          -0.957411E-5       -0.613283E-4
        14.14000          -0.119235E-4       -0.599016E-4
        14.15000          -0.142417E-4       -0.582695E-4
        14.16000          -0.164655E-4       -0.564274E-4
        14.17000          -0.185299E-4       -0.543988E-4
        14.18000          -0.203815E-4       -0.522397E-4
        14.19000          -0.219972E-4       -0.500290E-4
        14.20000          -0.233940E-4       -0.478547E-4
        14.21000          -0.246324E-4       -0.457900E-4
        14.22000          -0.258042E-4       -0.438769E-4
        14.23000          -0.270174E-4       -0.421125E-4
        14.24000          -0.283768E-4       -0.404498E-4
        14.25000          -0.299706E-4       -0.387997E-4
        14.26000          -0.318584E-4       -0.370391E-4
        14.27000          -0.340648E-4       -0.350147E-4
        14.28000          -0.365673E-4       -0.325500E-4
        14.29000          -0.392840E-4       -0.294522E-4
        14.30000          -0.420585E-4       -0.255240E-4
        14.31000          -0.446389E-4       -0.205935E-4
        14.32000          -0.466703E-4       -0.145508E-4
        14.33000          -0.477004E-4       -0.741397E-5
        14.34000          -0.472267E-4        0.612425E-6
        14.35000          -0.447858E-4        0.907879E-5
        14.36000          -0.400830E-4        0.173024E-4
        14.37000          -0.331290E-4        0.244397E-4
        14.38000          -0.243139E-4        0.296609E-4
        14.39000          -0.143906E-4        0.323428E-4
        14.40000          -0.432363E-5        0.322409E-4
        14.41000           0.491417E-5        0.295475E-4
        14.42000           0.125644E-4        0.248247E-4
        14.43000           0.182037E-4        0.188436E-4
        14.44000           0.217732E-4        0.123869E-4
        14.45000           0.234930E-4        0.610387E-5
        14.46000           0.237441E-4        0.429137E-6
        14.47000           0.229484E-4       -0.441060E-5
        14.48000           0.214890E-4       -0.835881E-5
        14.49000           0.196718E-4       -0.114644E-4
        14.50000           0.177166E-4       -0.138347E-4
        14.51000           0.157696E-4       -0.155947E-4
        14.52000           0.139177E-4       -0.168673E-4
        14.53000           0.122077E-4       -0.177606E-4
        14.54000           0.106582E-4       -0.183655E-4
        14.55000           0.927171E-5       -0.187543E-4
        14.56000           0.803992E-5       -0.189844E-4
        14.57000           0.695046E-5       -0.190994E-4
        14.58000           0.598805E-5       -0.191327E-4
        14.59000           0.513778E-5       -0.191096E-4
        14.60000           0.438479E-5       -0.190488E-4
        14.61000           0.371587E-5       -0.189643E-4
        14.62000           0.311869E-5       -0.188665E-4
        14.63000           0.258261E-5       -0.187632E-4
        14.64000           0.209820E-5       -0.186599E-4
        14.65000           0.165696E-5       -0.185608E-4
        14.66000           0.125171E-5       -0.184691E-4
        14.67000           0.875843E-6       -0.183868E-4
        14.68000           0.523751E-6       -0.183157E-4
        14.69000           0.190166E-6       -0.182568E-4
        14.70000          -0.129467E-6       -0.182110E-4
        14.71000          -0.439550E-6       -0.181789E-4
        14.72000          -0.744005E-6       -0.181608E-4
        14.73000          -0.104678E-5       -0.181570E-4
        14.74000          -0.135152E-5       -0.181675E-4
        14.75000          -0.166208E-5       -0.181924E-4
        14.76000          -0.198216E-5       -0.182314E-4
        14.77000          -0.231585E-5       -0.182841E-4
        14.78000          -0.266723E-5       -0.183500E-4
        14.79000          -0.304094E-5       -0.184281E-4
        14.80000          -0.344180E-5       -0.185172E-4
        14.81000          -0.387534E-5       -0.186154E-4
        14.82000          -0.434739E-5       -0.187201E-4
        14.83000          -0.486470E-5       -0.188277E-4
        14.84000          -0.543430E-5       -0.189333E-4
        14.85000          -0.606420E-5       -0.190302E-4
        14.86000          -0.676242E-5       -0.191095E-4
        14.87000          -0.753753E-5       -0.191592E-4
        14.88000          -0.839708E-5       -0.191637E-4
        14.89000          -0.934766E-5       -0.191028E-4
        14.90000          -0.103921E-4       -0.189511E-4
        14.91000          -0.115286E-4       -0.186774E-4
        14.92000          -0.127458E-4       -0.182455E-4
        14.93000          -0.140209E-4       -0.176155E-4
        14.94000          -0.153141E-4       -0.167486E-4
        14.95000          -0.165673E-4       -0.156134E-4
        14.96000          -0.177037E-4       -0.141964E-4
        14.97000          -0.186352E-4       -0.125112E-4
        14.98000          -0.192740E-4       -0.106081E-4
        14.99000          -0.195518E-4       -0.857172E-5
        15.00000          -0.194358E-4       -0.651268E-5
        15.01000          -0.189383E-4       -0.454695E-5
        15.02000          -0.181136E-4       -0.277337E-5
        15.03000          -0.170441E-4       -0.125994E-5
        15.04000          -0.158212E-4       -0.363026E-7
        15.05000          -0.145302E-4        0.899887E-6
        15.06000          -0.132394E-4        0.157463E-5
        15.07000          -0.119980E-4        0.202566E-5
        15.08000          -0.108363E-4        0.229468E-5
        15.09000          -0.977043E-5        0.242114E-5
        15.10000          -0.880549E-5        0.243971E-5
        15.11000          -0.794027E-5        0.237909E-5
        15.12000          -0.716889E-5        0.226213E-5
        15.13000          -0.648386E-5        0.210663E-5
        15.14000          -0.587646E-5        0.192600E-5
        15.15000          -0.533837E-5        0.173036E-5
        15.16000          -0.486132E-5        0.152702E-5
        15.17000          -0.443809E-5        0.132139E-5
        15.18000          -0.406188E-5        0.111720E-5
        15.19000          -0.372696E-5        0.917147E-6
        15.20000          -0.342805E-5        0.722949E-6
        15.21000          -0.316077E-5        0.535826E-6
        15.22000          -0.292114E-5        0.356421E-6
        15.23000          -0.270584E-5        0.185146E-6
        15.24000          -0.251189E-5        0.220597E-7
        15.25000          -0.233681E-5       -0.132819E-6
        15.26000          -0.217834E-5       -0.279716E-6
        15.27000          -0.203463E-5       -0.418823E-6
        15.28000          -0.190397E-5       -0.550467E-6
        15.29000          -0.178495E-5       -0.674947E-6
        15.30000          -0.167629E-5       -0.792637E-6
        15.31000          -0.157690E-5       -0.903842E-6
        15.32000          -0.148579E-5       -0.100894E-5
        15.33000          -0.140215E-5       -0.110825E-5
        15.34000          -0.132518E-5       -0.120211E-5
        15.35000          -0.125427E-5       -0.129081E-5
        15.36000          -0.118880E-5       -0.137467E-5
        15.37000          -0.112826E-5       -0.145397E-5
        15.38000          -0.107221E-5       -0.152897E-5
        15.39000          -0.102022E-5       -0.159994E-5
        15.40000          -0.971930E-6       -0.166708E-5
        15.41000          -0.927011E-6       -0.173066E-5
        15.42000          -0.885181E-6       -0.179085E-5
        15.43000          -0.846162E-6       -0.184788E-5
        15.44000          -0.809734E-6       -0.190191E-5
        15.45000          -0.775669E-6       -0.195313E-5
        15.46000          -0.743788E-6       -0.200169E-5
        15.47000          -0.713907E-6       -0.204775E-5
        15.48000          -0.685878E-6       -0.209144E-5
        15.49000          -0.659549E-6       -0.213291E-5
        15.50000          -0.634800E-6       -0.217226E-5
        15.51000          -0.611503E-6       -0.220964E-5
        15.52000          -0.589558E-6       -0.224513E-5
        15.53000          -0.568863E-6       -0.227885E-5
        15.54000          -0.549330E-6       -0.231088E-5
        15.55000          -0.530873E-6       -0.234132E-5
        15.56000          -0.513424E-6       -0.237026E-5
        15.57000          -0.496905E-6       -0.239777E-5
        15.58000          -0.481258E-6       -0.242393E-5
        15.59000          -0.466422E-6       -0.244881E-5
        15.60000          -0.452344E-6       -0.247247E-5
        15.61000          -0.438971E-6       -0.249498E-5
        15.62000          -0.426262E-6       -0.251639E-5
        15.63000          -0.414169E-6       -0.253676E-5
        15.64000          -0.402655E-6       -0.255614E-5
        15.65000          -0.391682E-6       -0.257458E-5
        15.66000          -0.381218E-6       -0.259212E-5
        15.67000          -0.371227E-6       -0.260882E-5
        15.68000          -0.361683E-6       -0.262469E-5
        15.69000          -0.352555E-6       -0.263980E-5
        15.70000          -0.343820E-6       -0.265417E-5
        15.71000          -0.335451E-6       -0.266784E-5
        15.72000          -0.327429E-6       -0.268083E-5
        15.73000          -0.319727E-6       -0.269318E-5
        15.74000          -0.312329E-6       -0.270493E-5
        15.75000          -0.305216E-6       -0.271608E-5
        15.76000          -0.298368E-6       -0.272667E-5
        15.77000          -0.291770E-6       -0.273673E-5
        15.78000          -0.285403E-6       -0.274627E-5
        15.79000          -0.279256E-6       -0.275532E-5
        15.80000          -0.273310E-6       -0.276389E-5
        15.81000          -0.267554E-6       -0.277201E-5
        15.82000          -0.261974E-6       -0.277969E-5
        15.83000          -0.256557E-6       -0.278695E-5
        15.84000          -0.251290E-6       -0.279380E-5
        15.85000          -0.246164E-6       -0.280026E-5
        15.86000          -0.241164E-6       -0.280634E-5
        15.87000          -0.236282E-6       -0.281206E-5
        15.88000          -0.231504E-6       -0.281742E-5
        15.89000          -0.226823E-6       -0.282243E-5
        15.90000          -0.222226E-6       -0.282711E-5
        15.91000          -0.217705E-6       -0.283145E-5
        15.92000          -0.213248E-6       -0.283549E-5
        15.93000          -0.208846E-6       -0.283921E-5
        15.94000          -0.204489E-6       -0.284262E-5
        15.95000          -0.200168E-6       -0.284573E-5
        15.96000          -0.195871E-6       -0.284855E-5
        15.97000          -0.191589E-6       -0.285108E-5
        15.98000          -0.187313E-6       -0.285332E-5
        15.99000          -0.183032E-6       -0.285527E-5
        16.00000          -0.178735E-6       -0.285694E-5
        16.01000          -0.174412E-6       -0.285832E-5
        16.02000          -0.170051E-6       -0.285942E-5
        16.03000          -0.165642E-6       -0.286024E-5
        16.04000          -0.161173E-6       -0.286076E-5
        16.05000          -0.156632E-6       -0.286100E-5
        16.06000          -0.152005E-6       -0.286095E-5
        16.07000          -0.147282E-6       -0.286060E-5
        16.08000          -0.142447E-6       -0.285994E-5
        16.09000          -0.137487E-6       -0.285898E-5
        16.10000          -0.132386E-6       -0.285771E-5
        16.11000          -0.127128E-6       -0.285610E-5
        16.12000          -0.121700E-6       -0.285416E-5
        16.13000          -0.116081E-6       -0.285188E-5
        16.14000          -0.110256E-6       -0.284924E-5
        16.15000          -0.104203E-6       -0.284623E-5
        16.16000          -0.979049E-7       -0.284284E-5
        16.17000          -0.913391E-7       -0.283903E-5
        16.18000          -0.844855E-7       -0.283482E-5
        16.19000          -0.773193E-7       -0.283016E-5
        16.20000          -0.698189E-7       -0.282503E-5
        16.21000          -0.619571E-7       -0.281943E-5
        16.22000          -0.537119E-7       -0.281330E-5
        16.23000          -0.450538E-7       -0.280663E-5
        16.24000          -0.359595E-7       -0.279938E-5
        16.25000          -0.263994E-7       -0.279153E-5
        16.26000          -0.163498E-7       -0.278300E-5
        16.27000          -0.578234E-8       -0.277378E-5
        16.28000           0.532441E-8       -0.276379E-5
        16.29000           0.169956E-7       -0.275297E-5
        16.30000           0.292468E-7       -0.274126E-5
        16.31000           0.420966E-7       -0.272856E-5
        16.32000           0.555496E-7       -0.271476E-5
        16.33000           0.696121E-7       -0.269974E-5
        16.34000           0.842720E-7       -0.268334E-5
        16.35000           0.995165E-7       -0.266536E-5
        16.36000           0.115312E-6       -0.264556E-5
        16.37000           0.131623E-6       -0.262360E-5
        16.38000           0.148396E-6       -0.259910E-5
        16.39000           0.165586E-6       -0.257152E-5
        16.40000           0.183152E-6       -0.254019E-5
        16.41000           0.201099E-6       -0.250421E-5
        16.42000           0.219509E-6       -0.246246E-5
        16.43000           0.238636E-6       -0.241343E-5
        16.44000           0.258999E-6       -0.235526E-5
        16.45000           0.281593E-6       -0.228563E-5
        16.46000           0.308121E-6       -0.220172E-5
        16.47000           0.341347E-6       -0.210036E-5
        16.48000           0.385525E-6       -0.197817E-5
        16.49000           0.446768E-6       -0.183216E-5
        16.50000           0.533388E-6       -0.166035E-5
        16.51000           0.655731E-6       -0.146302E-5
        16.52000           0.825673E-6       -0.124358E-5
        16.53000           0.105520E-5       -0.100968E-5
        16.54000           0.135498E-5       -0.773038E-6
        16.55000           0.173259E-5       -0.548983E-6
        16.56000           0.219202E-5       -0.354847E-6
        16.57000           0.273332E-5       -0.208923E-6
        16.58000           0.335378E-5       -0.129636E-6
        16.59000           0.404771E-5       -0.135917E-6
        16.60000           0.480696E-5       -0.247824E-6
        16.61000           0.561868E-5       -0.487095E-6
        16.62000           0.646396E-5       -0.876905E-6
        16.63000           0.731418E-5       -0.143948E-5
        16.64000           0.813003E-5       -0.219246E-5
        16.65000           0.886067E-5       -0.314207E-5
        16.66000           0.944860E-5       -0.427732E-5
        16.67000           0.983704E-5       -0.556401E-5
        16.68000           0.998198E-5       -0.694627E-5
        16.69000           0.986236E-5       -0.835184E-5
        16.70000           0.948583E-5       -0.970631E-5
        16.71000           0.888659E-5       -0.109449E-4
        16.72000           0.811607E-5       -0.120238E-4
        16.73000           0.723213E-5       -0.129218E-4
        16.74000           0.628834E-5       -0.136385E-4
        16.75000           0.532926E-5       -0.141875E-4
        16.76000           0.438751E-5       -0.145904E-4
        16.77000           0.348587E-5       -0.148721E-4
        16.78000           0.263811E-5       -0.150574E-4
        16.79000           0.185200E-5       -0.151703E-4
        16.80000           0.112957E-5       -0.152331E-4
        16.81000           0.468789E-6       -0.152661E-4
        16.82000          -0.136792E-6       -0.152872E-4
        16.83000          -0.696534E-6       -0.153108E-4
        16.84000          -0.122199E-5       -0.153479E-4
        16.85000          -0.172593E-5       -0.154056E-4
        16.86000          -0.222072E-5       -0.154877E-4
        16.87000          -0.271839E-5       -0.155954E-4
        16.88000          -0.322976E-5       -0.157279E-4
        16.89000          -0.376520E-5       -0.158833E-4
        16.90000          -0.433430E-5       -0.160584E-4
        16.91000          -0.494684E-5       -0.162492E-4
        16.92000          -0.561242E-5       -0.164506E-4
        16.93000          -0.634142E-5       -0.166558E-4
        16.94000          -0.714429E-5       -0.168563E-4
        16.95000          -0.803237E-5       -0.170407E-4
        16.96000          -0.901656E-5       -0.171943E-4
        16.97000          -0.101078E-4       -0.172978E-4
        16.98000          -0.113144E-4       -0.173264E-4
        16.99000          -0.126420E-4       -0.172488E-4
        17.00000          -0.140887E-4       -0.170269E-4
        17.01000          -0.156434E-4       -0.166161E-4
        17.02000          -0.172792E-4       -0.159677E-4
        17.03000          -0.189510E-4       -0.150331E-4
        17.04000          -0.205905E-4       -0.137731E-4
        17.05000          -0.221087E-4       -0.121673E-4
        17.06000          -0.234006E-4       -0.102278E-4
        17.07000          -0.243614E-4       -0.800595E-5
        17.08000          -0.249039E-4       -0.559671E-5
        17.09000          -0.249801E-4       -0.312531E-5
        17.10000          -0.245924E-4       -0.730258E-6
        17.11000          -0.237943E-4        0.146449E-5
        17.12000          -0.226773E-4        0.336683E-5
        17.13000          -0.213497E-4        0.492908E-5
        17.14000          -0.199184E-4        0.614359E-5
        17.15000          -0.184730E-4        0.703500E-5
        17.16000          -0.170814E-4        0.764622E-5
        17.17000          -0.157879E-4        0.802855E-5
        17.18000          -0.146181E-4        0.823290E-5
        17.19000          -0.135821E-4        0.830567E-5
        17.20000          -0.126805E-4        0.828623E-5
        17.21000          -0.119073E-4        0.820647E-5
        17.22000          -0.112532E-4        0.809120E-5
        17.23000          -0.107087E-4        0.795944E-5
        17.24000          -0.102649E-4        0.782606E-5
        17.25000          -0.991506E-5        0.770402E-5
        17.26000          -0.965336E-5        0.760624E-5
        17.27000          -0.947442E-5        0.754726E-5
        17.28000          -0.937091E-5        0.754377E-5
        17.29000          -0.933160E-5        0.761440E-5
        17.30000          -0.933919E-5        0.777820E-5
        17.31000          -0.936884E-5        0.805195E-5
        17.32000          -0.938788E-5        0.844651E-5
        17.33000          -0.935755E-5        0.896217E-5
        17.34000          -0.923757E-5        0.958546E-5
        17.35000          -0.899285E-5        0.102874E-4
        17.36000          -0.860059E-5        0.110274E-4
        17.37000          -0.805535E-5        0.117589E-4
        17.38000          -0.736878E-5        0.124394E-4
        17.39000          -0.656590E-5        0.130366E-4
        17.40000          -0.567709E-5        0.135321E-4
        17.41000          -0.473233E-5        0.139202E-4
        17.42000          -0.375554E-5        0.142048E-4
        17.43000          -0.276397E-5        0.143942E-4
        17.44000          -0.176735E-5        0.144981E-4
        17.45000          -0.770884E-6        0.145241E-4
        17.46000           0.223859E-6        0.144768E-4
        17.47000           0.121534E-5        0.143573E-4
        17.48000           0.220146E-5        0.141641E-4
        17.49000           0.317693E-5        0.138943E-4
        17.50000           0.413434E-5        0.135457E-4
        17.51000           0.506382E-5        0.131190E-4
        17.52000           0.595641E-5        0.126178E-4
        17.53000           0.680528E-5        0.120486E-4
        17.54000           0.760829E-5        0.114175E-4
        17.55000           0.836585E-5        0.107272E-4
        17.56000           0.907845E-5        0.997424E-5
        17.57000           0.974079E-5        0.915027E-5
        17.58000           0.103380E-4        0.824582E-5
        17.59000           0.108451E-4        0.725663E-5
        17.60000           0.112293E-4        0.619174E-5
        17.61000           0.114590E-4        0.507655E-5
        17.62000           0.115128E-4        0.395312E-5
        17.63000           0.113878E-4        0.287201E-5
        17.64000           0.111023E-4        0.188308E-5
        17.65000           0.106921E-4        0.102419E-5
        17.66000           0.102025E-4        0.316626E-6
        17.67000           0.967900E-5       -0.236436E-6
        17.68000           0.916136E-5       -0.645322E-6
        17.69000           0.867956E-5       -0.929202E-6
        17.70000           0.825436E-5       -0.111053E-5
        17.71000           0.789832E-5       -0.121186E-5
        17.72000           0.761876E-5       -0.125379E-5
        17.73000           0.741958E-5       -0.125474E-5
        17.74000           0.730312E-5       -0.123150E-5
        17.75000           0.727067E-5       -0.120026E-5
        17.76000           0.732259E-5       -0.117767E-5
        17.77000           0.745759E-5       -0.118158E-5
        17.78000           0.767166E-5       -0.123143E-5
        17.79000           0.795670E-5       -0.134812E-5
        17.80000           0.829869E-5       -0.155300E-5
        17.81000           0.867645E-5       -0.186597E-5
        17.82000           0.906049E-5       -0.230190E-5
        17.83000           0.941447E-5       -0.286683E-5
        17.84000           0.969835E-5       -0.355318E-5
        17.85000           0.987526E-5       -0.433816E-5
        17.86000           0.991893E-5       -0.518462E-5
        17.87000           0.982030E-5       -0.604825E-5
        17.88000           0.958949E-5       -0.688580E-5
        17.89000           0.925224E-5       -0.766525E-5
        17.90000           0.884258E-5       -0.837021E-5
        17.91000           0.839377E-5       -0.900164E-5
        17.92000           0.793163E-5       -0.957362E-5
        17.93000           0.746970E-5       -0.101085E-4
        17.94000           0.700829E-5       -0.106301E-4
        17.95000           0.653533E-5       -0.111581E-4
        17.96000           0.602940E-5       -0.117029E-4
        17.97000           0.546542E-5       -0.122623E-4
        17.98000           0.482036E-5       -0.128212E-4
        17.99000           0.407987E-5       -0.133539E-4
        18.00000           0.324133E-5       -0.138291E-4
        18.01000           0.231537E-5       -0.142165E-4
        18.02000           0.132260E-5       -0.144912E-4
        18.03000           0.291280E-6       -0.146369E-4
        18.04000          -0.747290E-6       -0.146465E-4
        18.05000          -0.176011E-5       -0.145232E-4
        18.06000          -0.271651E-5       -0.142800E-4
        18.07000          -0.359049E-5       -0.139405E-4
        18.08000          -0.436626E-5       -0.135365E-4
        18.09000          -0.504097E-5       -0.131043E-4
        18.10000          -0.562686E-5       -0.126778E-4
        18.11000          -0.614805E-5       -0.122823E-4
        18.12000          -0.663626E-5       -0.119304E-4
        18.13000          -0.712419E-5       -0.116213E-4
        18.14000          -0.764130E-5       -0.113413E-4
        18.15000          -0.820977E-5       -0.110674E-4
        18.16000          -0.884315E-5       -0.107690E-4
        18.17000          -0.954401E-5       -0.104112E-4
        18.18000          -0.103032E-4       -0.995630E-5
        18.19000          -0.110973E-4       -0.936828E-5
        18.20000          -0.118882E-4       -0.861666E-5
        18.21000          -0.126233E-4       -0.768406E-5
        18.22000          -0.132405E-4       -0.657242E-5
        18.23000          -0.136764E-4       -0.530988E-5
        18.24000          -0.138794E-4       -0.394987E-5
        18.25000          -0.138215E-4       -0.256588E-5
        18.26000          -0.135058E-4       -0.123652E-5
        18.27000          -0.129653E-4       -0.320281E-7
        18.28000          -0.122536E-4        0.999100E-6
        18.29000          -0.114325E-4        0.183311E-5
        18.30000          -0.105604E-4        0.246931E-5
        18.31000          -0.968489E-5        0.292369E-5
        18.32000          -0.884096E-5        0.322101E-5
        18.33000          -0.805044E-5        0.338929E-5
        18.34000          -0.732553E-5        0.345542E-5
        18.35000          -0.667057E-5        0.344325E-5
        18.36000          -0.608541E-5        0.337265E-5
        18.37000          -0.556656E-5        0.325956E-5
        18.38000          -0.510934E-5        0.311644E-5
        18.39000          -0.470813E-5        0.295272E-5
        18.40000          -0.435753E-5        0.277557E-5
        18.41000          -0.405220E-5        0.259015E-5
        18.42000          -0.378747E-5        0.240033E-5
        18.43000          -0.355901E-5        0.220876E-5
        18.44000          -0.336323E-5        0.201742E-5
        18.45000          -0.319695E-5        0.182753E-5
        18.46000          -0.305762E-5        0.164004E-5
        18.47000          -0.294305E-5        0.145544E-5
        18.48000          -0.285160E-5        0.127415E-5
        18.49000          -0.278198E-5        0.109636E-5
        18.50000          -0.273332E-5        0.922287E-6
        18.51000          -0.270509E-5        0.752085E-6
        18.52000          -0.269713E-5        0.586073E-6
        18.53000          -0.270960E-5        0.424608E-6
        18.54000          -0.274301E-5        0.268372E-6
        18.55000          -0.279815E-5        0.118257E-6
        18.56000          -0.287609E-5       -0.243273E-7
        18.57000          -0.297816E-5       -0.157501E-6
        18.58000          -0.310578E-5       -0.278579E-6
        18.59000          -0.326042E-5       -0.384035E-6
        18.60000          -0.344322E-5       -0.469142E-6
        18.61000          -0.365483E-5       -0.527904E-6
        18.62000          -0.389456E-5       -0.552798E-6
        18.63000          -0.415993E-5       -0.534872E-6
        18.64000          -0.444536E-5       -0.464082E-6
        18.65000          -0.474146E-5       -0.330160E-6
        18.66000          -0.503381E-5       -0.124346E-6
        18.67000          -0.530304E-5        0.158164E-6
        18.68000          -0.552620E-5        0.515574E-6
        18.69000          -0.567954E-5        0.936809E-6
        18.70000          -0.574325E-5        0.140141E-5
        18.71000          -0.570605E-5        0.188113E-5
        18.72000          -0.556833E-5        0.234531E-5
        18.73000          -0.534206E-5        0.276604E-5
        18.74000          -0.504755E-5        0.312344E-5
        18.75000          -0.470884E-5        0.340719E-5
        18.76000          -0.434887E-5        0.361632E-5
        18.77000          -0.398687E-5        0.375641E-5
        18.78000          -0.363667E-5        0.383697E-5
        18.79000          -0.330737E-5        0.386888E-5
        18.80000          -0.300370E-5        0.386275E-5
        18.81000          -0.272761E-5        0.382799E-5
        18.82000          -0.247884E-5        0.377246E-5
        18.83000          -0.225608E-5        0.370250E-5
        18.84000          -0.205722E-5        0.362298E-5
        18.85000          -0.188002E-5        0.353765E-5
        18.86000          -0.172210E-5        0.344925E-5
        18.87000          -0.158127E-5        0.335983E-5
        18.88000          -0.145545E-5        0.327084E-5
        18.89000          -0.134282E-5        0.318330E-5
        18.90000          -0.124169E-5        0.309791E-5
        18.91000          -0.115065E-5        0.301515E-5
        18.92000          -0.106840E-5        0.293527E-5
        18.93000          -0.993863E-6        0.285845E-5
        18.94000          -0.926034E-6        0.278472E-5
        18.95000          -0.864095E-6        0.271409E-5
        18.96000          -0.807289E-6        0.264645E-5
        18.97000          -0.754991E-6        0.258172E-5
        18.98000          -0.706630E-6        0.251971E-5
        18.99000          -0.661747E-6        0.246027E-5
        19.00000          -0.619933E-6        0.240316E-5
        19.01000          -0.580892E-6        0.234819E-5
        19.02000          -0.544386E-6        0.229510E-5
        19.03000          -0.510286E-6        0.224370E-5
        19.04000          -0.478545E-6        0.219383E-5
        19.05000          -0.449162E-6        0.214539E-5
        19.06000          -0.422181E-6        0.209840E-5
        19.07000          -0.397604E-6        0.205293E-5
        19.08000          -0.375383E-6        0.200918E-5
        19.09000          -0.355367E-6        0.196730E-5
        19.10000          -0.337336E-6        0.192747E-5
        19.11000          -0.321008E-6        0.188974E-5
        19.12000          -0.306096E-6        0.185417E-5
        19.13000          -0.292326E-6        0.182067E-5
        19.14000          -0.279474E-6        0.178915E-5
        19.15000          -0.267351E-6        0.175949E-5
        19.16000          -0.255821E-6        0.173155E-5
        19.17000          -0.244775E-6        0.170521E-5
        19.18000          -0.234140E-6        0.168036E-5
        19.19000          -0.223855E-6        0.165688E-5
        19.20000          -0.213882E-6        0.163468E-5
        19.21000          -0.204184E-6        0.161370E-5
        19.22000          -0.194737E-6        0.159386E-5
        19.23000          -0.185515E-6        0.157511E-5
        19.24000          -0.176501E-6        0.155740E-5
        19.25000          -0.167674E-6        0.154068E-5
        19.26000          -0.159019E-6        0.152493E-5
        19.27000          -0.150516E-6        0.151011E-5
        19.28000          -0.142152E-6        0.149619E-5
        19.29000          -0.133906E-6        0.148314E-5
        19.30000          -0.125767E-6        0.147096E-5
        19.31000          -0.117715E-6        0.145962E-5
        19.32000          -0.109736E-6        0.144911E-5
        19.33000          -0.101813E-6        0.143941E-5
        19.34000          -0.939295E-7        0.143052E-5
        19.35000          -0.860681E-7        0.142242E-5
        19.36000          -0.782140E-7        0.141511E-5
        19.37000          -0.703474E-7        0.140858E-5
        19.38000          -0.624533E-7        0.140284E-5
        19.39000          -0.545109E-7        0.139787E-5
        19.40000          -0.465029E-7        0.139369E-5
        19.41000          -0.384112E-7        0.139029E-5
        19.42000          -0.302129E-7        0.138767E-5
        19.43000          -0.218897E-7        0.138585E-5
        19.44000          -0.134169E-7        0.138483E-5
        19.45000          -0.477381E-8        0.138462E-5
        19.46000           0.406689E-8        0.138522E-5
        19.47000           0.131285E-7        0.138667E-5
        19.48000           0.224421E-7        0.138896E-5
        19.49000           0.320341E-7        0.139211E-5
        19.50000           0.419399E-7        0.139615E-5
        19.51000           0.521908E-7        0.140109E-5
        19.52000           0.628273E-7        0.140696E-5
        19.53000           0.738867E-7        0.141379E-5
        19.54000           0.854163E-7        0.142160E-5
        19.55000           0.974605E-7        0.143043E-5
        19.56000           0.110076E-6        0.144030E-5
        19.57000           0.123316E-6        0.145126E-5
        19.58000           0.137249E-6        0.146335E-5
        19.59000           0.151940E-6        0.147661E-5
        19.60000           0.167471E-6        0.149108E-5
        19.61000           0.183923E-6        0.150682E-5
        19.62000           0.201398E-6        0.152389E-5
        19.63000           0.219995E-6        0.154233E-5
        19.64000           0.239841E-6        0.156221E-5
        19.65000           0.261063E-6        0.158359E-5
        19.66000           0.283816E-6        0.160656E-5
        19.67000           0.308263E-6        0.163116E-5
        19.68000           0.334603E-6        0.165749E-5
        19.69000           0.363042E-6        0.168562E-5
        19.70000           0.393835E-6        0.171563E-5
        19.71000           0.427249E-6        0.174759E-5
        19.72000           0.463615E-6        0.178159E-5
        19.73000           0.503280E-6        0.181770E-5
        19.74000           0.546675E-6        0.185599E-5
        19.75000           0.594269E-6        0.189650E-5
        19.76000           0.646599E-6        0.193926E-5
        19.77000           0.704313E-6        0.198428E-5
        19.78000           0.768114E-6        0.203151E-5
        19.79000           0.838860E-6        0.208087E-5
        19.80000           0.917486E-6        0.213215E-5
        19.81000           0.100512E-5        0.218507E-5
        19.82000           0.110300E-5        0.223918E-5
        19.83000           0.121259E-5        0.229382E-5
        19.84000           0.133547E-5        0.234803E-5
        19.85000           0.147350E-5        0.240052E-5
        19.86000           0.162859E-5        0.244947E-5
        19.87000           0.180288E-5        0.249243E-5
        19.88000           0.199839E-5        0.252611E-5
        19.89000           0.221708E-5        0.254621E-5
        19.90000           0.246030E-5        0.254717E-5
        19.91000           0.272857E-5        0.252200E-5
        19.92000           0.302064E-5        0.246228E-5
        19.93000           0.333292E-5        0.235828E-5
        19.94000           0.365812E-5        0.219971E-5
        19.95000           0.398467E-5        0.197689E-5
        19.96000           0.429590E-5        0.168299E-5
        19.97000           0.457099E-5        0.131639E-5
        19.98000           0.478682E-5        0.883640E-6
        19.99000           0.492211E-5        0.400399E-6
        20.00000           0.496189E-5       -0.108899E-6
# 
# 06/20/2023 at 00:07 yambo @ unimi-XPS-8930 [start]
# 06/20/2023 at 00:07                        [end]
#
# .-Input file  yambo.in
# | rim_cut                          # [R] Coulomb potential
# | optics                           # [R] Linear Response optical properties
# | dipoles                          # [R] Oscillator strenghts (or dipoles)
# | bse                              # [R][BSE] Bethe Salpeter Equation.
# | ElecTemp= 0.025861         eV    # Electronic Temperature
# | BoseTemp= 0.025861         eV    # Bosonic Temperature
# | DIP_Threads= 1                   # [OPENMP/X] Number of threads for dipoles
# | BS_nCPU_LinAlg_INV= 1            # [PARALLEL] CPUs for Linear Algebra (if -1 it is automatically set)
# | BS_nCPU_LinAlg_DIAGO= 1          # [PARALLEL] CPUs for Linear Algebra (if -1 it is automatically set)
# | X_Threads= 1                     # [OPENMP/X] Number of threads for response functions
# | K_Threads= 1                     # [OPENMP/BSK] Number of threads for response functions
# | RandQpts=0                       # [RIM] Number of random q-points in the BZ
# | RandGvec= 1                RL    # [RIM] Coulomb interaction RS components
# | CUTGeo= "ws xyz"                 # [CUT] Coulomb Cutoff geometry: box/cylinder/sphere/ws/slab X/Y/Z/XY..
# | % CUTBox
# |  0.000000 | 0.000000 | 0.000000 |        # [CUT] [au] Box sides
# | %
# | CUTRadius= 0.000000              # [CUT] [au] Sphere/Cylinder radius
# | CUTCylLen= 0.000000              # [CUT] [au] Cylinder length
# | CUTwsGvec= 0.700000              # [CUT] WS cutoff: number of G to be modified
# | BSKmod= "IP"                     # [BSE] IP/Hartree/HF/ALDA/SEX/BSfxc
# | BSEmod= "retarded"               # [BSE] resonant/retarded/coupling
# | Lkind= "Lbar"                    # [BSE,X] bar(default)/full
# | DipBandsALL                    # [DIP] Compute all bands range, not only valence and conduction
# | DipComputed= "R V P"             # [DIP] [default R P V; extra P2 Spin Orb]
# | DbGdQsize= 1.000000              # [X,DbGd][o/o] Percentual of the total DbGd transitions to be used
# | BSENGexx= 28671            RL    # [BSK] Exchange components
# | % BSEQptR
# |  1 | 1 |                             # [BSK] Transferred momenta range
# | %
# | % BSEBands
# |   1 | 20 |                           # [BSK] Bands range
# | %
# | % BEnRange
# |   0.00000 | 20.00000 |         eV    # [BSS] Energy range
# | %
# | % BDmRange
# |  0.100000 | 0.100000 |         eV    # [BSS] Damping range
# | %
# | BEnSteps= 2001                   # [BSS] Energy steps
# | % BLongDir
# |  1.000000 | 0.000000 | 0.000000 |        # [BSS] [cc] Electric Field versor
# | %
# | BSEprop= "abs dichr jdos"        # [BSS] Can be any among abs/jdos/kerr/magn/dich/photolum/esrt
