#                                                           
# ooooo   oooo ..     ooo        ooo ooooooooo.    .oooo.   
#  `88.   .8" .88.    `88.       .88 `88"   `Y8b  dP"  `Yb  
#   `88. .8" .8"88.    888b     d"88  88     888 88      88 
#    `88.8" .8" `88.   8 Y88. .P  88  88oooo888" 88      88 
#     `88" .88ooo888.  8  `888"   88  88    `88b 88      88 
#      88 .8"     `88. 8    Y     88  88    .88P `8b    d8" 
#     o88o88o      888o8          88 o88bood8P"   `Ybod8P"  
#                                                           
#                                                           
#         Version 4.1.0 Revision 13844 Hash ba998c6         
#                         MPI Build                         
#                 http://www.yambo-code.org                 
#
# Absorption @ Q(1) [q->0 direction] :0.1000E-4  0.000     0.000   
#
#
# - Energies      are Slater exchange(X)+Perdew & Zunger(C)
# - Wavefunctions are Slater exchange(X)+Perdew & Zunger(C)
#
# - The Green`s function is Retarded -
# - Using the Length Gauge -
# - [r,Vnl] *is* included -
#
#   BSK|Identifier              :3264
#      |Dimension               :144
#      |Bands                   :1 - 40
#      |Exchange           [res]: yes
#      |Correlation        [res]: no
#      |Kernel`s coupling       : no
#      |Exchange           [cpl]: no
#      |Correlation        [cpl]: no
#      |W interaction is bare   : no
#      |ALDA kernel in R-space  : yes
#      |RL vectors    [exchange]:50301
#      |E/h energy range    [ev]:-1.000000 - -1.000000
#      |Coupling range     [o/o]: 100.0000 -  100.0000
#  
#   Haydock|Accuracy (requested) [o/o]:0.1000E-2
#          |Accuracy (reached)   [o/o]:0.5329E-3
#          |Iteration                 :33
#
#  E/ev[1]    EPS-Im[2]  EPS-Re[3]  EPSo-Im[4] EPSo-Re[5] EPS`-Im[6] EPS`-Re[7]
#
  6.000     0.3076E-3   1.016     0.8801E-3   1.026     0.3076E-3   1.016   
  6.015     0.3106E-3   1.016     0.8919E-3   1.026     0.3106E-3   1.016   
  6.030     0.3137E-3   1.016     0.9040E-3   1.026     0.3137E-3   1.016   
  6.045     0.3169E-3   1.016     0.9164E-3   1.026     0.3169E-3   1.016   
  6.060     0.3200E-3   1.016     0.9290E-3   1.026     0.3200E-3   1.016   
  6.075     0.3233E-3   1.016     0.9418E-3   1.026     0.3233E-3   1.016   
  6.090     0.3266E-3   1.016     0.9550E-3   1.027     0.3266E-3   1.016   
  6.105     0.3299E-3   1.016     0.9684E-3   1.027     0.3299E-3   1.016   
  6.120     0.3333E-3   1.016     0.9821E-3   1.027     0.3333E-3   1.016   
  6.135     0.3368E-3   1.017     0.9960E-3   1.027     0.3368E-3   1.017   
  6.150     0.3403E-3   1.017     0.1010E-2   1.027     0.3403E-3   1.017   
  6.165     0.3439E-3   1.017     0.1025E-2   1.027     0.3439E-3   1.017   
  6.180     0.3475E-3   1.017     0.1040E-2   1.027     0.3475E-3   1.017   
  6.195     0.3513E-3   1.017     0.1055E-2   1.028     0.3513E-3   1.017   
  6.211     0.3550E-3   1.017     0.1071E-2   1.028     0.3550E-3   1.017   
  6.226     0.3589E-3   1.017     0.1087E-2   1.028     0.3589E-3   1.017   
  6.241     0.3628E-3   1.017     0.1103E-2   1.028     0.3628E-3   1.017   
  6.256     0.3668E-3   1.017     0.1119E-2   1.028     0.3668E-3   1.017   
  6.271     0.3709E-3   1.017     0.1136E-2   1.028     0.3709E-3   1.017   
  6.286     0.3750E-3   1.017     0.1154E-2   1.029     0.3750E-3   1.017   
  6.301     0.3792E-3   1.017     0.1172E-2   1.029     0.3792E-3   1.017   
  6.316     0.3835E-3   1.017     0.1190E-2   1.029     0.3835E-3   1.017   
  6.331     0.3879E-3   1.017     0.1209E-2   1.029     0.3879E-3   1.017   
  6.346     0.3924E-3   1.017     0.1228E-2   1.029     0.3924E-3   1.017   
  6.361     0.3970E-3   1.017     0.1247E-2   1.029     0.3970E-3   1.017   
  6.376     0.4016E-3   1.017     0.1267E-2   1.030     0.4016E-3   1.017   
  6.391     0.4064E-3   1.017     0.1288E-2   1.030     0.4064E-3   1.017   
  6.406     0.4112E-3   1.018     0.1309E-2   1.030     0.4112E-3   1.018   
  6.421     0.4162E-3   1.018     0.1330E-2   1.030     0.4162E-3   1.018   
  6.436     0.4212E-3   1.018     0.1353E-2   1.030     0.4212E-3   1.018   
  6.451     0.4264E-3   1.018     0.1375E-2   1.031     0.4264E-3   1.018   
  6.466     0.4317E-3   1.018     0.1398E-2   1.031     0.4317E-3   1.018   
  6.481     0.4371E-3   1.018     0.1422E-2   1.031     0.4371E-3   1.018   
  6.496     0.4426E-3   1.018     0.1447E-2   1.031     0.4426E-3   1.018   
  6.511     0.4482E-3   1.018     0.1472E-2   1.031     0.4482E-3   1.018   
  6.526     0.4540E-3   1.018     0.1498E-2   1.032     0.4540E-3   1.018   
  6.541     0.4599E-3   1.018     0.1524E-2   1.032     0.4599E-3   1.018   
  6.556     0.4659E-3   1.018     0.1551E-2   1.032     0.4659E-3   1.018   
  6.571     0.4721E-3   1.018     0.1579E-2   1.032     0.4721E-3   1.018   
  6.586     0.4784E-3   1.018     0.1608E-2   1.033     0.4784E-3   1.018   
  6.602     0.4849E-3   1.018     0.1638E-2   1.033     0.4849E-3   1.018   
  6.617     0.4915E-3   1.018     0.1668E-2   1.033     0.4915E-3   1.018   
  6.632     0.4983E-3   1.019     0.1699E-2   1.033     0.4983E-3   1.019   
  6.647     0.5053E-3   1.019     0.1731E-2   1.034     0.5053E-3   1.019   
  6.662     0.5124E-3   1.019     0.1765E-2   1.034     0.5124E-3   1.019   
  6.677     0.5197E-3   1.019     0.1799E-2   1.034     0.5197E-3   1.019   
  6.692     0.5273E-3   1.019     0.1834E-2   1.034     0.5273E-3   1.019   
  6.707     0.5350E-3   1.019     0.1870E-2   1.035     0.5350E-3   1.019   
  6.722     0.5429E-3   1.019     0.1907E-2   1.035     0.5429E-3   1.019   
  6.737     0.5511E-3   1.019     0.1946E-2   1.035     0.5511E-3   1.019   
  6.752     0.5594E-3   1.019     0.1985E-2   1.036     0.5594E-3   1.019   
  6.767     0.5681E-3   1.019     0.2026E-2   1.036     0.5681E-3   1.019   
  6.782     0.5769E-3   1.019     0.2068E-2   1.036     0.5769E-3   1.019   
  6.797     0.5860E-3   1.019     0.2112E-2   1.036     0.5860E-3   1.019   
  6.812     0.5954E-3   1.019     0.2157E-2   1.037     0.5954E-3   1.019   
  6.827     0.6051E-3   1.020     0.2204E-2   1.037     0.6051E-3   1.020   
  6.842     0.6150E-3   1.020     0.2252E-2   1.037     0.6150E-3   1.020   
  6.857     0.6253E-3   1.020     0.2302E-2   1.038     0.6253E-3   1.020   
  6.872     0.6359E-3   1.020     0.2353E-2   1.038     0.6359E-3   1.020   
  6.887     0.6468E-3   1.020     0.2406E-2   1.038     0.6468E-3   1.020   
  6.902     0.6581E-3   1.020     0.2462E-2   1.039     0.6581E-3   1.020   
  6.917     0.6698E-3   1.020     0.2519E-2   1.039     0.6698E-3   1.020   
  6.932     0.6818E-3   1.020     0.2578E-2   1.040     0.6818E-3   1.020   
  6.947     0.6943E-3   1.020     0.2639E-2   1.040     0.6943E-3   1.020   
  6.962     0.7072E-3   1.020     0.2703E-2   1.040     0.7072E-3   1.020   
  6.977     0.7205E-3   1.021     0.2770E-2   1.041     0.7205E-3   1.021   
  6.992     0.7344E-3   1.021     0.2838E-2   1.041     0.7344E-3   1.021   
  7.008     0.7487E-3   1.021     0.2910E-2   1.042     0.7487E-3   1.021   
  7.023     0.7636E-3   1.021     0.2984E-2   1.042     0.7636E-3   1.021   
  7.038     0.7791E-3   1.021     0.3062E-2   1.043     0.7791E-3   1.021   
  7.053     0.7951E-3   1.021     0.3142E-2   1.043     0.7951E-3   1.021   
  7.068     0.8118E-3   1.021     0.3226E-2   1.043     0.8118E-3   1.021   
  7.083     0.8292E-3   1.021     0.3314E-2   1.044     0.8292E-3   1.021   
  7.098     0.8473E-3   1.021     0.3405E-2   1.044     0.8473E-3   1.021   
  7.113     0.8661E-3   1.022     0.3501E-2   1.045     0.8661E-3   1.022   
  7.128     0.8858E-3   1.022     0.3601E-2   1.045     0.8858E-3   1.022   
  7.143     0.9063E-3   1.022     0.3705E-2   1.046     0.9063E-3   1.022   
  7.158     0.9277E-3   1.022     0.3814E-2   1.047     0.9277E-3   1.022   
  7.173     0.9501E-3   1.022     0.3929E-2   1.047     0.9501E-3   1.022   
  7.188     0.9736E-3   1.022     0.4048E-2   1.048     0.9736E-3   1.022   
  7.203     0.9982E-3   1.022     0.4174E-2   1.048     0.9982E-3   1.022   
  7.218     0.1024E-2   1.023     0.4306E-2   1.049     0.1024E-2   1.023   
  7.233     0.1051E-2   1.023     0.4445E-2   1.050     0.1051E-2   1.023   
  7.248     0.1080E-2   1.023     0.4592E-2   1.050     0.1080E-2   1.023   
  7.263     0.1109E-2   1.023     0.4746E-2   1.051     0.1109E-2   1.023   
  7.278     0.1141E-2   1.023     0.4908E-2   1.052     0.1141E-2   1.023   
  7.293     0.1174E-2   1.023     0.5080E-2   1.052     0.1174E-2   1.023   
  7.308     0.1209E-2   1.024     0.5262E-2   1.053     0.1209E-2   1.024   
  7.323     0.1247E-2   1.024     0.5454E-2   1.054     0.1247E-2   1.024   
  7.338     0.1286E-2   1.024     0.5658E-2   1.055     0.1286E-2   1.024   
  7.353     0.1328E-2   1.024     0.5874E-2   1.056     0.1328E-2   1.024   
  7.368     0.1372E-2   1.024     0.6105E-2   1.056     0.1372E-2   1.024   
  7.383     0.1420E-2   1.025     0.6350E-2   1.057     0.1420E-2   1.025   
  7.398     0.1470E-2   1.025     0.6611E-2   1.058     0.1470E-2   1.025   
  7.414     0.1524E-2   1.025     0.6891E-2   1.059     0.1524E-2   1.025   
  7.429     0.1581E-2   1.025     0.7190E-2   1.060     0.1581E-2   1.025   
  7.444     0.1643E-2   1.025     0.7512E-2   1.061     0.1643E-2   1.025   
  7.459     0.1709E-2   1.026     0.7857E-2   1.062     0.1709E-2   1.026   
  7.474     0.1780E-2   1.026     0.8229E-2   1.064     0.1780E-2   1.026   
  7.489     0.1857E-2   1.026     0.8632E-2   1.065     0.1857E-2   1.026   
  7.504     0.1940E-2   1.026     0.9067E-2   1.066     0.1940E-2   1.026   
  7.519     0.2030E-2   1.027     0.9541E-2   1.067     0.2030E-2   1.027   
  7.534     0.2127E-2   1.027     0.1006E-1   1.069     0.2127E-2   1.027   
  7.549     0.2233E-2   1.027     0.1062E-1   1.070     0.2233E-2   1.027   
  7.564     0.2349E-2   1.028     0.1124E-1   1.072     0.2349E-2   1.028   
  7.579     0.2476E-2   1.028     0.1192E-1   1.073     0.2476E-2   1.028   
  7.594     0.2616E-2   1.028     0.1267E-1   1.075     0.2616E-2   1.028   
  7.609     0.2770E-2   1.029     0.1350E-1   1.077     0.2770E-2   1.029   
  7.624     0.2940E-2   1.029     0.1443E-1   1.078     0.2940E-2   1.029   
  7.639     0.3129E-2   1.029     0.1547E-1   1.080     0.3129E-2   1.029   
  7.654     0.3339E-2   1.030     0.1663E-1   1.082     0.3339E-2   1.030   
  7.669     0.3574E-2   1.030     0.1796E-1   1.085     0.3574E-2   1.030   
  7.684     0.3838E-2   1.031     0.1946E-1   1.087     0.3838E-2   1.031   
  7.699     0.4136E-2   1.031     0.2118E-1   1.089     0.4136E-2   1.031   
  7.714     0.4474E-2   1.032     0.2315E-1   1.092     0.4474E-2   1.032   
  7.729     0.4859E-2   1.032     0.2544E-1   1.094     0.4859E-2   1.032   
  7.744     0.5300E-2   1.033     0.2811E-1   1.097     0.5300E-2   1.033   
  7.759     0.5807E-2   1.034     0.3123E-1   1.100     0.5807E-2   1.034   
  7.774     0.6395E-2   1.034     0.3489E-1   1.103     0.6395E-2   1.034   
  7.789     0.7080E-2   1.035     0.3919E-1   1.105     0.7080E-2   1.035   
    7.8045     0.0079     1.0358     0.0442     1.1075     0.0079     1.0358
    7.8195     0.0088     1.0366     0.0501     1.1094     0.0088     1.0366
    7.8346     0.0099     1.0374     0.0568     1.1104     0.0099     1.0374
   7.84962    0.01127    1.03815    0.06421    1.11021    0.01127    1.03815
   7.86466    0.01285    1.03889    0.07191    1.10824    0.01285    1.03889
   7.87970    0.01474    1.03954    0.07923    1.10421    0.01474    1.03954
   7.89474    0.01698    1.04001    0.08517    1.09817    0.01698    1.04001
   7.90977    0.01961    1.04018    0.08877    1.09076    0.01961    1.04018
   7.92481    0.02262    1.03988    0.08949    1.08318    0.02262    1.03988
   7.93985    0.02596    1.03888    0.08755    1.07675    0.02596    1.03888
   7.95489    0.02941    1.03694    0.08382    1.07242    0.02941    1.03694
   7.96992    0.03262    1.03390    0.07935    1.07053    0.03262    1.03390
   7.98496    0.03509    1.02975    0.07508    1.07089    0.03509    1.02975
   8.00000    0.03630    1.02482    0.07158    1.07311    0.03630    1.02482
   8.01504    0.03596    1.01971    0.06919    1.07671    0.03596    1.01971
   8.03008    0.03416    1.01509    0.06802    1.08135    0.03416    1.01509
   8.04511    0.03133    1.01144    0.06812    1.08672    0.03133    1.01144
   8.06015    0.02800    1.00895    0.06953    1.09264    0.02800    1.00895
   8.07519    0.02461    1.00750    0.07226    1.09898    0.02461    1.00750
   8.09023    0.02146    1.00689    0.07641    1.10562    0.02146    1.00689
   8.10526    0.01867    1.00687    0.08210    1.11246    0.01867    1.00687
   8.12030    0.01628    1.00725    0.08951    1.11938    0.01628    1.00725
   8.13534    0.01427    1.00787    0.09890    1.12621    0.01427    1.00787
   8.15038    0.01258    1.00863    0.11058    1.13264    0.01258    1.00863
   8.16541    0.01118    1.00947    0.12492    1.13825    0.01118    1.00947
   8.18045    0.01002    1.01033    0.14227    1.14235    0.01002    1.01033
    8.1955     0.0091     1.0112     0.1629     1.1439     0.0091     1.0112
    8.2105     0.0082     1.0121     0.1869     1.1416     0.0082     1.0121
  8.226     0.7578E-2   1.013     0.2135      1.133     0.7578E-2   1.013   
  8.241     0.7022E-2   1.014     0.2412      1.118     0.7022E-2   1.014   
  8.256     0.6561E-2   1.014     0.2671      1.093     0.6561E-2   1.014   
  8.271     0.6182E-2   1.015     0.2869      1.059     0.6182E-2   1.015   
  8.286     0.5873E-2   1.016     0.2965      1.018     0.5873E-2   1.016   
  8.301     0.5628E-2   1.017     0.2935     0.9763     0.5628E-2   1.017   
  8.316     0.5441E-2   1.017     0.2787     0.9382     0.5441E-2   1.017   
  8.331     0.5306E-2   1.018     0.2554     0.9081     0.5306E-2   1.018   
  8.346     0.5224E-2   1.019     0.2281     0.8872     0.5224E-2   1.019   
  8.361     0.5192E-2   1.019     0.2005     0.8750     0.5192E-2   1.019   
  8.376     0.5213E-2   1.020     0.1747     0.8694     0.5213E-2   1.020   
  8.391     0.5289E-2   1.020     0.1521     0.8687     0.5289E-2   1.020   
  8.406     0.5423E-2   1.021     0.1328     0.8712     0.5423E-2   1.021   
  8.421     0.5616E-2   1.022     0.1167     0.8754     0.5616E-2   1.022   
  8.436     0.5870E-2   1.022     0.1034     0.8807     0.5870E-2   1.022   
  8.451     0.6176E-2   1.022     0.9245E-1  0.8863     0.6176E-2   1.022   
  8.466     0.6515E-2   1.023     0.8346E-1  0.8919     0.6515E-2   1.023   
  8.481     0.6852E-2   1.023     0.7596E-1  0.8972     0.6852E-2   1.023   
  8.496     0.7134E-2   1.023     0.6955E-1  0.9021     0.7134E-2   1.023   
  8.511     0.7306E-2   1.023     0.6389E-1  0.9066     0.7306E-2   1.023   
  8.526     0.7331E-2   1.023     0.5878E-1  0.9109     0.7331E-2   1.023   
  8.541     0.7215E-2   1.023     0.5414E-1  0.9152     0.7215E-2   1.023   
  8.556     0.6999E-2   1.023     0.4997E-1  0.9194     0.6999E-2   1.023   
  8.571     0.6743E-2   1.023     0.4631E-1  0.9237     0.6743E-2   1.023   
  8.586     0.6498E-2   1.023     0.4320E-1  0.9280     0.6498E-2   1.023   
  8.602     0.6303E-2   1.024     0.4062E-1  0.9322     0.6303E-2   1.024   
  8.617     0.6176E-2   1.024     0.3857E-1  0.9363     0.6176E-2   1.024   
  8.632     0.6128E-2   1.025     0.3702E-1  0.9403     0.6128E-2   1.025   
  8.647     0.6161E-2   1.025     0.3596E-1  0.9440     0.6161E-2   1.025   
  8.662     0.6274E-2   1.026     0.3537E-1  0.9475     0.6274E-2   1.026   
  8.677     0.6462E-2   1.026     0.3523E-1  0.9507     0.6462E-2   1.026   
  8.692     0.6715E-2   1.027     0.3548E-1  0.9534     0.6716E-2   1.027   
  8.707     0.7019E-2   1.027     0.3603E-1  0.9557     0.7020E-2   1.027   
  8.722     0.7355E-2   1.028     0.3673E-1  0.9572     0.7354E-2   1.028   
  8.737     0.7704E-2   1.028     0.3735E-1  0.9582     0.7701E-2   1.028   
  8.752     0.8057E-2   1.028     0.3763E-1  0.9586     0.8051E-2   1.028   
  8.767     0.8409E-2   1.029     0.3737E-1  0.9586     0.8402E-2   1.029   
  8.782     0.8756E-2   1.029     0.3654E-1  0.9587     0.8754E-2   1.029   
    8.7970     0.0091     1.0291     0.0353     0.9589     0.0091     1.0291
    8.8120     0.0094     1.0293     0.0338     0.9596     0.0094     1.0293
    8.8271     0.0096     1.0294     0.0322     0.9606     0.0096     1.0294
    8.8421     0.0098     1.0296     0.0307     0.9619     0.0098     1.0295
    8.8571     0.0099     1.0298     0.0294     0.9634     0.0098     1.0298
    8.8722     0.0100     1.0301     0.0282     0.9652     0.0099     1.0301
   8.88722    0.01012    1.03057    0.02714    0.96709    0.01006    1.03060
   8.90226    0.01033    1.03110    0.02631    0.96920    0.01030    1.03117
   8.91729    0.01066    1.03169    0.02575    0.97145    0.01068    1.03177
   8.93233    0.01114    1.03231    0.02550    0.97381    0.01122    1.03238
   8.94737    0.01179    1.03292    0.02558    0.97622    0.01191    1.03293
   8.96241    0.01261    1.03345    0.02601    0.97863    0.01273    1.03337
   8.97744    0.01358    1.03384    0.02683    0.98099    0.01363    1.03368
   8.99248    0.01464    1.03403    0.02803    0.98322    0.01457    1.03384
   9.00752    0.01572    1.03402    0.02964    0.98524    0.01551    1.03389
   9.02256    0.01673    1.03381    0.03162    0.98697    0.01645    1.03386
   9.03759    0.01764    1.03349    0.03393    0.98830    0.01743    1.03374
   9.05263    0.01846    1.03312    0.03650    0.98916    0.01846    1.03349
   9.06767    0.01925    1.03272    0.03924    0.98949    0.01953    1.03303
   9.08271    0.02007    1.03225    0.04209    0.98925    0.02052    1.03230
   9.09774    0.02090    1.03161    0.04494    0.98834    0.02131    1.03134
   9.11278    0.02165    1.03076    0.04764    0.98668    0.02178    1.03026
   9.12782    0.02218    1.02971    0.04992    0.98422    0.02195    1.02923
   9.14286    0.02242    1.02859    0.05144    0.98105    0.02192    1.02836
   9.15790    0.02236    1.02753    0.05190    0.97749    0.02183    1.02768
   9.17293    0.02211    1.02666    0.05120    0.97401    0.02180    1.02710
   9.18797    0.02181    1.02595    0.04949    0.97106    0.02184    1.02648
   9.20301    0.02153    1.02533    0.04713    0.96895    0.02186    1.02571
   9.21805    0.02123    1.02470    0.04456    0.96775    0.02171    1.02479
   9.23308    0.02083    1.02403    0.04212    0.96733    0.02124    1.02383
   9.24812    0.02023    1.02336    0.04002    0.96743    0.02043    1.02300
   9.26316    0.01940    1.02284    0.03829    0.96779    0.01936    1.02247
   9.27820    0.01841    1.02259    0.03682    0.96823    0.01820    1.02233
   9.29323    0.01738    1.02265    0.03546    0.96869    0.01710    1.02255
   9.30827    0.01645    1.02302    0.03409    0.96923    0.01618    1.02307
   9.32331    0.01570    1.02362    0.03268    0.97000    0.01550    1.02378
   9.33835    0.01519    1.02437    0.03133    0.97109    0.01509    1.02459
   9.35338    0.01493    1.02518    0.03017    0.97253    0.01495    1.02541
   9.36842    0.01493    1.02596    0.02935    0.97428    0.01504    1.02616
   9.38346    0.01513    1.02663    0.02895    0.97625    0.01532    1.02675
   9.39850    0.01548    1.02713    0.02903    0.97834    0.01571    1.02714
   9.41353    0.01588    1.02739    0.02965    0.98044    0.01609    1.02729
   9.42857    0.01621    1.02745    0.03083    0.98243    0.01633    1.02725
   9.44361    0.01635    1.02736    0.03260    0.98419    0.01636    1.02713
   9.45865    0.01627    1.02728    0.03496    0.98552    0.01616    1.02708
   9.47368    0.01599    1.02733    0.03784    0.98622    0.01581    1.02722
   9.48872    0.01564    1.02761    0.04110    0.98603    0.01543    1.02760
   9.50376    0.01532    1.02812    0.04442    0.98473    0.01514    1.02820
   9.51880    0.01513    1.02884    0.04736    0.98225    0.01501    1.02899
   9.53384    0.01516    1.02969    0.04939    0.97877    0.01512    1.02987
   9.54887    0.01544    1.03060    0.05014    0.97474    0.01549    1.03078
   9.56391    0.01600    1.03148    0.04952    0.97077    0.01612    1.03163
   9.57895    0.01682    1.03225    0.04779    0.96740    0.01701    1.03233
   9.59398    0.01789    1.03280    0.04539    0.96487    0.01811    1.03279
   9.60902    0.01914    1.03303    0.04271    0.96318    0.01934    1.03289
   9.62406    0.02043    1.03284    0.03999    0.96223    0.02055    1.03260
   9.63910    0.02159    1.03222    0.03737    0.96187    0.02156    1.03193
   9.65414    0.02241    1.03125    0.03494    0.96202    0.02221    1.03101
   9.66917    0.02276    1.03013    0.03276    0.96258    0.02243    1.03005
   9.68421    0.02262    1.02910    0.03088    0.96346    0.02231    1.02924
   9.69925    0.02216    1.02838    0.02934    0.96454    0.02199    1.02868
   9.71429    0.02158    1.02801    0.02809    0.96574    0.02163    1.02835
   9.72932    0.02106    1.02796    0.02707    0.96700    0.02130    1.02819
   9.74436    0.02070    1.02811    0.02624    0.96834    0.02102    1.02814
   9.75940    0.02054    1.02834    0.02559    0.96980    0.02079    1.02817
   9.77444    0.02054    1.02854    0.02518    0.97139    0.02062    1.02828
   9.78947    0.02065    1.02867    0.02506    0.97310    0.02056    1.02844
   9.80451    0.02083    1.02870    0.02529    0.97490    0.02065    1.02859
   9.81955    0.02106    1.02860    0.02594    0.97672    0.02089    1.02863
   9.83459    0.02129    1.02834    0.02704    0.97846    0.02119    1.02844
   9.84962    0.02143    1.02786    0.02859    0.98005    0.02141    1.02798
   9.86466    0.02134    1.02720    0.03060    0.98137    0.02138    1.02729
   9.87970    0.02091    1.02649    0.03305    0.98232    0.02097    1.02652
   9.89474    0.02012    1.02591    0.03591    0.98280    0.02018    1.02590
   9.90977    0.01908    1.02560    0.03915    0.98267    0.01911    1.02557
   9.92481    0.01792    1.02564    0.04270    0.98175    0.01793    1.02561
   9.93985    0.01681    1.02602    0.04641    0.97981    0.01680    1.02600
   9.95489    0.01583    1.02665    0.04992    0.97662    0.01582    1.02664
   9.96992    0.01505    1.02745    0.05269    0.97215    0.01504    1.02745
   9.98496    0.01446    1.02832    0.05416    0.96668    0.01445    1.02832
  10.00000    0.01404    1.02920    0.05393    0.96082    0.01403    1.02920
  10.01504    0.01373    1.03001    0.05204    0.95531    0.01373    1.03001
  10.03008    0.01348    1.03075    0.04888    0.95071    0.01348    1.03075
  10.04511    0.01321    1.03142    0.04497    0.94724    0.01321    1.03142
  10.06015    0.01287    1.03208    0.04078    0.94488    0.01287    1.03208
  10.07519    0.01246    1.03279    0.03659    0.94346    0.01246    1.03279
  10.09023    0.01200    1.03360    0.03259    0.94283    0.01200    1.03360
  10.10526    0.01155    1.03452    0.02887    0.94283    0.01155    1.03452
  10.12030    0.01113    1.03556    0.02551    0.94331    0.01114    1.03556
  10.13534    0.01079    1.03669    0.02253    0.94415    0.01079    1.03669
  10.15038    0.01051    1.03789    0.01994    0.94523    0.01051    1.03789
  10.16541    0.01032    1.03915    0.01771    0.94646    0.01032    1.03914
  10.18045    0.01019    1.04044    0.01580    0.94776    0.01019    1.04044
  10.20     0.1012E-1   1.042     0.1417E-1  0.9491     0.1012E-1   1.042   
  10.21     0.1011E-1   1.043     0.1278E-1  0.9504     0.1011E-1   1.043   
  10.23     0.1016E-1   1.044     0.1160E-1  0.9516     0.1016E-1   1.044   
  10.24060    0.01025    1.04591    0.01057    0.95286    0.01025    1.04591
  10.26     0.1039E-1   1.047     0.9689E-2  0.9540     0.1039E-1   1.047   
  10.27     0.1057E-1   1.049     0.8920E-2  0.9551     0.1057E-1   1.049   
  10.29     0.1080E-1   1.050     0.8248E-2  0.9562     0.1080E-1   1.050   
  10.30     0.1106E-1   1.052     0.7657E-2  0.9572     0.1106E-1   1.052   
  10.32     0.1136E-1   1.053     0.7135E-2  0.9581     0.1136E-1   1.053   
  10.33     0.1170E-1   1.055     0.6671E-2  0.9590     0.1170E-1   1.055   
  10.35     0.1209E-1   1.057     0.6257E-2  0.9599     0.1209E-1   1.057   
  10.36     0.1252E-1   1.059     0.5886E-2  0.9607     0.1252E-1   1.059   
  10.38     0.1299E-1   1.060     0.5551E-2  0.9615     0.1299E-1   1.060   
  10.39     0.1352E-1   1.062     0.5249E-2  0.9622     0.1352E-1   1.062   
  10.41     0.1410E-1   1.064     0.4975E-2  0.9629     0.1410E-1   1.064   
  10.42     0.1473E-1   1.066     0.4725E-2  0.9636     0.1473E-1   1.066   
  10.44     0.1543E-1   1.068     0.4496E-2  0.9642     0.1543E-1   1.068   
  10.45     0.1620E-1   1.071     0.4287E-2  0.9649     0.1620E-1   1.071   
  10.47     0.1704E-1   1.073     0.4094E-2  0.9655     0.1704E-1   1.073   
  10.48     0.1797E-1   1.075     0.3917E-2  0.9660     0.1797E-1   1.075   
  10.50     0.1899E-1   1.078     0.3752E-2  0.9666     0.1899E-1   1.078   
  10.51     0.2011E-1   1.080     0.3600E-2  0.9671     0.2011E-1   1.080   
  10.53     0.2136E-1   1.083     0.3459E-2  0.9676     0.2136E-1   1.083   
  10.54     0.2273E-1   1.086     0.3327E-2  0.9681     0.2273E-1   1.086   
  10.56     0.2425E-1   1.089     0.3204E-2  0.9686     0.2425E-1   1.089   
  10.57     0.2595E-1   1.093     0.3089E-2  0.9690     0.2595E-1   1.093   
  10.59     0.2784E-1   1.096     0.2981E-2  0.9695     0.2784E-1   1.096   
  10.60     0.2996E-1   1.100     0.2880E-2  0.9699     0.2996E-1   1.100   
  10.62     0.3233E-1   1.104     0.2785E-2  0.9703     0.3233E-1   1.104   
  10.63     0.3500E-1   1.108     0.2695E-2  0.9707     0.3500E-1   1.108   
  10.65     0.3803E-1   1.113     0.2611E-2  0.9711     0.3803E-1   1.113   
  10.66     0.4147E-1   1.118     0.2531E-2  0.9715     0.4147E-1   1.118   
  10.68     0.4539E-1   1.123     0.2456E-2  0.9718     0.4539E-1   1.123   
  10.69     0.4988E-1   1.128     0.2384E-2  0.9722     0.4988E-1   1.128   
  10.71     0.5505E-1   1.134     0.2316E-2  0.9725     0.5505E-1   1.134   
  10.72     0.6105E-1   1.141     0.2252E-2  0.9729     0.6105E-1   1.141   
  10.74     0.6802E-1   1.147     0.2191E-2  0.9732     0.6802E-1   1.147   
  10.75     0.7619E-1   1.154     0.2132E-2  0.9735     0.7619E-1   1.154   
  10.77     0.8579E-1   1.162     0.2077E-2  0.9738     0.8579E-1   1.162   
  10.78     0.9715E-1   1.169     0.2024E-2  0.9741     0.9715E-1   1.169   
  10.80     0.1107      1.177     0.1973E-2  0.9744     0.1107      1.177   
  10.81     0.1268      1.184     0.1925E-2  0.9747     0.1268      1.184   
  10.83     0.1460      1.191     0.1879E-2  0.9750     0.1460      1.191   
  10.84     0.1689      1.197     0.1834E-2  0.9753     0.1689      1.197   
  10.86     0.1960      1.199     0.1792E-2  0.9755     0.1960      1.199   
  10.87     0.2276      1.198     0.1751E-2  0.9758     0.2276      1.198   
  10.89     0.2636      1.190     0.1712E-2  0.9760     0.2636      1.190   
  10.90     0.3024      1.174     0.1675E-2  0.9763     0.3024      1.174   
  10.92     0.3413      1.145     0.1639E-2  0.9765     0.3413      1.145   
  10.93     0.3753      1.104     0.1604E-2  0.9768     0.3753      1.104   
  10.95     0.3984      1.050     0.1571E-2  0.9770     0.3984      1.050   
  10.96     0.4053     0.9906     0.1539E-2  0.9773     0.4053     0.9906   
  10.98     0.3944     0.9317     0.1508E-2  0.9775     0.3944     0.9317   
  10.99     0.3683     0.8808     0.1478E-2  0.9777     0.3683     0.8808   
  11.01     0.3327     0.8422     0.1449E-2  0.9779     0.3327     0.8422   
  11.02     0.2934     0.8166     0.1422E-2  0.9781     0.2934     0.8166   
  11.04     0.2551     0.8021     0.1395E-2  0.9783     0.2551     0.8021   
  11.05     0.2200     0.7961     0.1369E-2  0.9785     0.2200     0.7961   
  11.07     0.1894     0.7959     0.1344E-2  0.9788     0.1894     0.7959   
  11.08     0.1633     0.7994     0.1320E-2  0.9789     0.1633     0.7994   
  11.10     0.1412     0.8051     0.1296E-2  0.9791     0.1412     0.8051   
  11.11     0.1227     0.8121     0.1274E-2  0.9793     0.1227     0.8121   
  11.13     0.1072     0.8196     0.1252E-2  0.9795     0.1072     0.8196   
  11.14     0.9422E-1  0.8273     0.1230E-2  0.9797     0.9422E-1  0.8273   
  11.16     0.8326E-1  0.8348     0.1210E-2  0.9799     0.8326E-1  0.8348   
  11.17     0.7398E-1  0.8421     0.1190E-2  0.9801     0.7398E-1  0.8421   
  11.19     0.6608E-1  0.8490     0.1170E-2  0.9802     0.6608E-1  0.8490   
  11.20     0.5932E-1  0.8555     0.1152E-2  0.9804     0.5932E-1  0.8555   
  11.22     0.5350E-1  0.8617     0.1133E-2  0.9806     0.5350E-1  0.8617   
  11.23     0.4846E-1  0.8674     0.1116E-2  0.9808     0.4846E-1  0.8674   
  11.25     0.4408E-1  0.8728     0.1099E-2  0.9809     0.4408E-1  0.8728   
  11.26     0.4025E-1  0.8779     0.1082E-2  0.9811     0.4025E-1  0.8779   
  11.28     0.3689E-1  0.8826     0.1066E-2  0.9812     0.3689E-1  0.8826   
  11.29     0.3392E-1  0.8870     0.1050E-2  0.9814     0.3392E-1  0.8870   
  11.31     0.3129E-1  0.8911     0.1035E-2  0.9816     0.3129E-1  0.8911   
  11.32     0.2894E-1  0.8950     0.1020E-2  0.9817     0.2894E-1  0.8950   
  11.34     0.2685E-1  0.8986     0.1005E-2  0.9819     0.2685E-1  0.8986   
  11.35     0.2497E-1  0.9020     0.9913E-3  0.9820     0.2497E-1  0.9020   
  11.37     0.2328E-1  0.9052     0.9776E-3  0.9822     0.2328E-1  0.9052   
  11.38     0.2176E-1  0.9082     0.9643E-3  0.9823     0.2176E-1  0.9082   
  11.40     0.2038E-1  0.9111     0.9513E-3  0.9825     0.2038E-1  0.9111   
  11.41     0.1912E-1  0.9137     0.9387E-3  0.9826     0.1912E-1  0.9137   
  11.43     0.1798E-1  0.9163     0.9264E-3  0.9827     0.1798E-1  0.9163   
  11.44     0.1694E-1  0.9187     0.9145E-3  0.9829     0.1694E-1  0.9187   
  11.46     0.1598E-1  0.9210     0.9028E-3  0.9830     0.1598E-1  0.9210   
  11.47     0.1510E-1  0.9231     0.8915E-3  0.9831     0.1510E-1  0.9231   
  11.49     0.1430E-1  0.9252     0.8805E-3  0.9833     0.1430E-1  0.9252   
  11.50     0.1355E-1  0.9271     0.8697E-3  0.9834     0.1355E-1  0.9271   
  11.52     0.1287E-1  0.9290     0.8593E-3  0.9835     0.1287E-1  0.9290   
  11.53     0.1223E-1  0.9308     0.8491E-3  0.9837     0.1223E-1  0.9308   
  11.55     0.1164E-1  0.9325     0.8392E-3  0.9838     0.1164E-1  0.9325   
  11.56     0.1109E-1  0.9341     0.8295E-3  0.9839     0.1109E-1  0.9341   
  11.58     0.1058E-1  0.9356     0.8201E-3  0.9840     0.1058E-1  0.9356   
  11.59     0.1011E-1  0.9371     0.8109E-3  0.9842     0.1011E-1  0.9371   
  11.61     0.9664E-2  0.9385     0.8020E-3  0.9843     0.9664E-2  0.9385   
  11.62     0.9250E-2  0.9399     0.7933E-3  0.9844     0.9250E-2  0.9399   
  11.64     0.8861E-2  0.9412     0.7848E-3  0.9845     0.8861E-2  0.9412   
  11.65     0.8497E-2  0.9424     0.7765E-3  0.9846     0.8497E-2  0.9424   
  11.67     0.8156E-2  0.9436     0.7685E-3  0.9847     0.8156E-2  0.9436   
  11.68     0.7834E-2  0.9448     0.7607E-3  0.9849     0.7834E-2  0.9448   
  11.70     0.7532E-2  0.9459     0.7531E-3  0.9850     0.7532E-2  0.9459   
  11.71     0.7247E-2  0.9470     0.7457E-3  0.9851     0.7247E-2  0.9470   
  11.73     0.6978E-2  0.9480     0.7385E-3  0.9852     0.6978E-2  0.9480   
  11.74     0.6725E-2  0.9490     0.7315E-3  0.9853     0.6725E-2  0.9490   
  11.76     0.6485E-2  0.9500     0.7247E-3  0.9854     0.6485E-2  0.9500   
  11.77     0.6258E-2  0.9509     0.7181E-3  0.9855     0.6258E-2  0.9509   
  11.79     0.6043E-2  0.9518     0.7116E-3  0.9856     0.6043E-2  0.9518   
  11.80     0.5839E-2  0.9527     0.7054E-3  0.9857     0.5839E-2  0.9527   
  11.82     0.5646E-2  0.9535     0.6993E-3  0.9858     0.5646E-2  0.9535   
  11.83     0.5462E-2  0.9543     0.6935E-3  0.9859     0.5462E-2  0.9543   
  11.85     0.5288E-2  0.9551     0.6878E-3  0.9861     0.5288E-2  0.9551   
  11.86     0.5122E-2  0.9559     0.6823E-3  0.9862     0.5122E-2  0.9559   
  11.88     0.4964E-2  0.9566     0.6769E-3  0.9863     0.4964E-2  0.9566   
  11.89     0.4813E-2  0.9574     0.6718E-3  0.9864     0.4813E-2  0.9574   
  11.91     0.4670E-2  0.9580     0.6668E-3  0.9865     0.4670E-2  0.9580   
  11.92     0.4533E-2  0.9587     0.6620E-3  0.9866     0.4533E-2  0.9587   
  11.94     0.4402E-2  0.9594     0.6573E-3  0.9867     0.4402E-2  0.9594   
  11.95     0.4277E-2  0.9600     0.6529E-3  0.9868     0.4277E-2  0.9600   
  11.97     0.4157E-2  0.9606     0.6486E-3  0.9869     0.4157E-2  0.9606   
  11.98     0.4043E-2  0.9613     0.6444E-3  0.9869     0.4043E-2  0.9613   
  12.00     0.3934E-2  0.9618     0.6405E-3  0.9870     0.3934E-2  0.9618   
# 
# 08/26/2016 at 12:04 YAMBO @ narro [start]
# 08/26/2016 at 12:04               [end]
#  
# Timing   [Min/Max/Average]: 25s/25s/25s
#
# .-Input file : yambo.in
# | optics                       # [R OPT] Optics
# | bse                          # [R BSE] Bethe Salpeter Equation.
# | bsk                          # [R BSK] Bethe Salpeter Equation kernel
# | bss                          # [R BSS] Bethe Salpeter Equation solver
# | tddft                        # [R   K] Use TDDFT kernel
# | BoseTemp= 0.000000     eV    # Bosonic Temperature
# | FFTGvecs=  50301       RL    # [FFT] Plane-waves
# | BS_nCPU_invert= 1            # [PARALLEL] CPUs for matrix inversion
# | BS_nCPU_diago= 1             # [PARALLEL] CPUs for matrix diagonalization
# | BSEmod= "retarded"           # [BSE] resonant/retarded/coupling
# | BSKmod= "ALDA"               # [BSE] IP/Hartree/HF/ALDA/SEX/BSfxc
# | BSSmod= "h"                  # [BSS] (h)aydock/(d)iagonalization/(i)nversion/(t)ddft`
# | BSENGexx=  50301       RL    # [BSK] Exchange components
# | % BEnRange
# |   6.00000 | 12.00000 | eV    # [BSS] Energy range
# | %
# | % BDmRange
# |   0.10000 |  0.10000 | eV    # [BSS] Damping range
# | %
# | BEnSteps=  400               # [BSS] Energy steps
# | % BLongDir
# | 0.1000E-4 | 0.000    | 0.000    |        # [BSS] [cc] Electric Field
# | %
# | % BSEBands
# |    1 |  40 |                 # [BSK] Bands range
# | %
# | BSHayTrs=0.1000E-2           # [BSS] Relative [o/o] Haydock treshold. Strict(>0)/Average(<0)
