#                                                           
#   __   __     _        __  __       ____      U  ___  u   
#   \ \ / / U  /"\  U u |" \/ "| u U | __") u    \/"_ \/    
#    \ V /   \/ _ \/   \| |\/| |/   \|  _ \/     | | | |    
#   U_|"|_u  / ___ \    | |  | |     | |_) | .-,_| |_| |    
#     |_|   /_/   \_\   |_|  |_|     |____/   \_)-\___/     
# .-,//|(_   \\    >>  <<,-,,-.     _|| \\_        \\       
#  \_) (__) (__)  (__)  (./  \.)   (__) (__)      (__)      
#                                                           
#                                                           
#        Version 4.1.0 Revision 13844 Hash ba998c6          
#                        MPI Build                          
#                http://www.yambo-code.org                  
#
# EELS @ Q(1)  [q->0 direction]:0.1000E-4  0.000     0.000   
#
#
# - Energies      are Slater exchange(X)+Perdew & Zunger(C)+Scissor
# - Wavefunctions are Slater exchange(X)+Perdew & Zunger(C)
#
# - The Green`s function is Retarded -
# - Using the Length Gauge -
# - [r,Vnl] *is* included -
#
#   BSK|Identifier              :8683
#      |Dimension               :136
#      |Bands                   :1 - 38
#      |Exchange           [res]: yes
#      |Correlation        [res]: yes
#      |Kernel`s coupling       : yes
#      |Exchange           [cpl]: yes
#      |Correlation        [cpl]: no
#      |W interaction is bare   : no
#      |ALDA kernel in R-space  : no
#      |RL vectors    [exchange]:20005
#      |RL vectors [correlation]:437
#      |E/h energy range    [ev]:-1.000000 - -1.000000
#      |Coupling range     [o/o]: 100.0000 -  100.0000
#    W |Interaction is diagonal : no
#      |Matrix size             :437
#      |Bands                   :1 - 40
#      |e/h energy range    [ev]:-1.000000 - -1.000000
#      |Poles              [o/o]: 100.0000
#      |RL vectors in the sum   :50301
#      |[r,Vnl] included        : yes
#      |Field direction         :0.1000E-4  0.000000  0.000000
#      |Coulomb Cutoff          :none
#      |xc-Kernel               :none
#   RIM|RL components      [col]:0
#      |Random points      [col]:0
#  
#   Haydock|Accuracy (requested) [o/o]:0.5000E-3
#          |Accuracy (reached)   [o/o]:0.2002E-3
#          |Iteration                 :122
#
#  E/ev[1]    EEL-Im[2]  EEL-Re[3]  EELo-Im[4] EELo-Re[5] EEL`-Im[6] EEL`-Re[7]
#
  6.000     0.3076E-3  -.9861     0.7732E-4  -.9901     0.3076E-3  -.9861   
  6.020     0.3116E-3  -.9860     0.7783E-4  -.9901     0.3116E-3  -.9860   
  6.040     0.3157E-3  -.9860     0.7834E-4  -.9901     0.3157E-3  -.9860   
  6.060     0.3199E-3  -.9859     0.7885E-4  -.9901     0.3199E-3  -.9859   
  6.080     0.3241E-3  -.9858     0.7937E-4  -.9901     0.3241E-3  -.9858   
  6.100     0.3285E-3  -.9858     0.7989E-4  -.9901     0.3285E-3  -.9858   
  6.120     0.3329E-3  -.9857     0.8042E-4  -.9901     0.3329E-3  -.9857   
  6.140     0.3374E-3  -.9856     0.8095E-4  -.9900     0.3374E-3  -.9856   
  6.160     0.3420E-3  -.9856     0.8148E-4  -.9900     0.3420E-3  -.9856   
  6.180     0.3467E-3  -.9855     0.8202E-4  -.9900     0.3467E-3  -.9855   
  6.200     0.3515E-3  -.9854     0.8256E-4  -.9900     0.3515E-3  -.9854   
  6.220     0.3564E-3  -.9854     0.8311E-4  -.9900     0.3564E-3  -.9854   
  6.240     0.3614E-3  -.9853     0.8366E-4  -.9900     0.3614E-3  -.9853   
  6.261     0.3665E-3  -.9852     0.8421E-4  -.9899     0.3665E-3  -.9852   
  6.281     0.3717E-3  -.9851     0.8477E-4  -.9899     0.3717E-3  -.9851   
  6.301     0.3770E-3  -.9851     0.8533E-4  -.9899     0.3770E-3  -.9851   
  6.321     0.3824E-3  -.9850     0.8590E-4  -.9899     0.3824E-3  -.9850   
  6.341     0.3879E-3  -.9849     0.8647E-4  -.9899     0.3879E-3  -.9849   
  6.361     0.3936E-3  -.9848     0.8705E-4  -.9899     0.3936E-3  -.9848   
  6.381     0.3994E-3  -.9848     0.8763E-4  -.9898     0.3994E-3  -.9848   
  6.401     0.4053E-3  -.9847     0.8822E-4  -.9898     0.4053E-3  -.9847   
  6.421     0.4113E-3  -.9846     0.8881E-4  -.9898     0.4113E-3  -.9846   
  6.441     0.4175E-3  -.9845     0.8940E-4  -.9898     0.4175E-3  -.9845   
  6.461     0.4238E-3  -.9844     0.9000E-4  -.9898     0.4238E-3  -.9844   
  6.481     0.4303E-3  -.9843     0.9060E-4  -.9897     0.4303E-3  -.9843   
  6.501     0.4369E-3  -.9843     0.9121E-4  -.9897     0.4369E-3  -.9843   
  6.521     0.4436E-3  -.9842     0.9183E-4  -.9897     0.4436E-3  -.9842   
  6.541     0.4506E-3  -.9841     0.9244E-4  -.9897     0.4506E-3  -.9841   
  6.561     0.4576E-3  -.9840     0.9307E-4  -.9897     0.4576E-3  -.9840   
  6.581     0.4649E-3  -.9839     0.9370E-4  -.9897     0.4649E-3  -.9839   
  6.601     0.4723E-3  -.9838     0.9433E-4  -.9896     0.4723E-3  -.9838   
  6.621     0.4799E-3  -.9837     0.9497E-4  -.9896     0.4799E-3  -.9837   
  6.641     0.4877E-3  -.9836     0.9561E-4  -.9896     0.4877E-3  -.9836   
  6.661     0.4957E-3  -.9835     0.9626E-4  -.9896     0.4957E-3  -.9835   
  6.681     0.5039E-3  -.9834     0.9692E-4  -.9896     0.5039E-3  -.9834   
  6.701     0.5123E-3  -.9833     0.9758E-4  -.9895     0.5123E-3  -.9833   
  6.721     0.5209E-3  -.9832     0.9824E-4  -.9895     0.5209E-3  -.9832   
  6.741     0.5297E-3  -.9831     0.9891E-4  -.9895     0.5297E-3  -.9831   
  6.762     0.5388E-3  -.9830     0.9959E-4  -.9895     0.5388E-3  -.9830   
  6.782     0.5481E-3  -.9829     0.1003E-3  -.9895     0.5481E-3  -.9829   
  6.802     0.5576E-3  -.9828     0.1010E-3  -.9894     0.5576E-3  -.9828   
  6.822     0.5674E-3  -.9827     0.1017E-3  -.9894     0.5674E-3  -.9827   
  6.842     0.5775E-3  -.9826     0.1024E-3  -.9894     0.5775E-3  -.9826   
  6.862     0.5878E-3  -.9824     0.1031E-3  -.9894     0.5878E-3  -.9824   
  6.882     0.5985E-3  -.9823     0.1038E-3  -.9894     0.5985E-3  -.9823   
  6.902     0.6094E-3  -.9822     0.1045E-3  -.9893     0.6094E-3  -.9822   
  6.922     0.6206E-3  -.9821     0.1052E-3  -.9893     0.6206E-3  -.9821   
  6.942     0.6322E-3  -.9819     0.1059E-3  -.9893     0.6322E-3  -.9819   
  6.962     0.6441E-3  -.9818     0.1067E-3  -.9893     0.6441E-3  -.9818   
  6.982     0.6563E-3  -.9817     0.1074E-3  -.9892     0.6563E-3  -.9817   
  7.002     0.6689E-3  -.9816     0.1082E-3  -.9892     0.6689E-3  -.9816   
  7.022     0.6819E-3  -.9814     0.1089E-3  -.9892     0.6819E-3  -.9814   
  7.042     0.6953E-3  -.9813     0.1097E-3  -.9892     0.6953E-3  -.9813   
  7.062     0.7091E-3  -.9811     0.1105E-3  -.9892     0.7091E-3  -.9811   
  7.082     0.7234E-3  -.9810     0.1112E-3  -.9891     0.7234E-3  -.9810   
  7.102     0.7381E-3  -.9809     0.1120E-3  -.9891     0.7381E-3  -.9809   
  7.122     0.7532E-3  -.9807     0.1128E-3  -.9891     0.7532E-3  -.9807   
  7.142     0.7689E-3  -.9806     0.1136E-3  -.9891     0.7689E-3  -.9806   
  7.162     0.7851E-3  -.9804     0.1144E-3  -.9890     0.7851E-3  -.9804   
  7.182     0.8019E-3  -.9802     0.1152E-3  -.9890     0.8019E-3  -.9802   
  7.202     0.8192E-3  -.9801     0.1160E-3  -.9890     0.8192E-3  -.9801   
  7.222     0.8371E-3  -.9799     0.1169E-3  -.9890     0.8371E-3  -.9799   
  7.242     0.8557E-3  -.9798     0.1177E-3  -.9890     0.8557E-3  -.9798   
  7.263     0.8750E-3  -.9796     0.1185E-3  -.9889     0.8750E-3  -.9796   
  7.283     0.8950E-3  -.9794     0.1194E-3  -.9889     0.8950E-3  -.9794   
  7.303     0.9158E-3  -.9792     0.1202E-3  -.9889     0.9158E-3  -.9792   
  7.323     0.9375E-3  -.9790     0.1211E-3  -.9889     0.9375E-3  -.9790   
  7.343     0.9601E-3  -.9788     0.1220E-3  -.9888     0.9601E-3  -.9788   
  7.363     0.9836E-3  -.9787     0.1229E-3  -.9888     0.9836E-3  -.9787   
  7.383     0.1008E-2  -.9785     0.1238E-3  -.9888     0.1008E-2  -.9785   
  7.403     0.1034E-2  -.9783     0.1247E-3  -.9888     0.1034E-2  -.9783   
  7.423     0.1061E-2  -.9781     0.1256E-3  -.9887     0.1061E-2  -.9781   
  7.443     0.1089E-2  -.9778     0.1265E-3  -.9887     0.1089E-2  -.9778   
  7.463     0.1118E-2  -.9776     0.1274E-3  -.9887     0.1118E-2  -.9776   
  7.483     0.1148E-2  -.9774     0.1283E-3  -.9887     0.1148E-2  -.9774   
  7.503     0.1178E-2  -.9772     0.1293E-3  -.9886     0.1178E-2  -.9772   
  7.523     0.1210E-2  -.9769     0.1302E-3  -.9886     0.1210E-2  -.9769   
  7.543     0.1243E-2  -.9767     0.1312E-3  -.9886     0.1243E-2  -.9767   
  7.563     0.1279E-2  -.9765     0.1322E-3  -.9886     0.1279E-2  -.9765   
  7.583     0.1316E-2  -.9762     0.1331E-3  -.9885     0.1316E-2  -.9762   
  7.603     0.1357E-2  -.9759     0.1341E-3  -.9885     0.1357E-2  -.9759   
  7.623     0.1400E-2  -.9757     0.1351E-3  -.9885     0.1400E-2  -.9757   
  7.643     0.1446E-2  -.9754     0.1361E-3  -.9884     0.1446E-2  -.9754   
  7.663     0.1494E-2  -.9751     0.1371E-3  -.9884     0.1494E-2  -.9751   
  7.683     0.1543E-2  -.9748     0.1382E-3  -.9884     0.1543E-2  -.9748   
  7.703     0.1590E-2  -.9746     0.1392E-3  -.9884     0.1590E-2  -.9746   
  7.723     0.1636E-2  -.9743     0.1403E-3  -.9883     0.1636E-2  -.9743   
  7.743     0.1681E-2  -.9739     0.1413E-3  -.9883     0.1681E-2  -.9739   
  7.764     0.1727E-2  -.9736     0.1424E-3  -.9883     0.1727E-2  -.9736   
  7.784     0.1776E-2  -.9733     0.1435E-3  -.9883     0.1776E-2  -.9733   
  7.804     0.1829E-2  -.9729     0.1446E-3  -.9882     0.1829E-2  -.9729   
  7.824     0.1886E-2  -.9726     0.1457E-3  -.9882     0.1886E-2  -.9726   
  7.844     0.1948E-2  -.9722     0.1468E-3  -.9882     0.1948E-2  -.9722   
  7.864     0.2014E-2  -.9718     0.1479E-3  -.9881     0.2014E-2  -.9718   
  7.884     0.2085E-2  -.9714     0.1490E-3  -.9881     0.2085E-2  -.9714   
  7.904     0.2161E-2  -.9710     0.1502E-3  -.9881     0.2161E-2  -.9710   
  7.924     0.2243E-2  -.9706     0.1513E-3  -.9880     0.2243E-2  -.9706   
  7.944     0.2330E-2  -.9701     0.1525E-3  -.9880     0.2330E-2  -.9701   
  7.964     0.2423E-2  -.9696     0.1537E-3  -.9880     0.2423E-2  -.9696   
  7.984     0.2522E-2  -.9692     0.1549E-3  -.9880     0.2522E-2  -.9692   
  8.004     0.2629E-2  -.9687     0.1561E-3  -.9879     0.2629E-2  -.9687   
  8.024     0.2744E-2  -.9681     0.1573E-3  -.9879     0.2744E-2  -.9681   
  8.044     0.2867E-2  -.9676     0.1586E-3  -.9879     0.2867E-2  -.9676   
  8.064     0.3000E-2  -.9670     0.1598E-3  -.9878     0.3000E-2  -.9670   
  8.084     0.3143E-2  -.9664     0.1611E-3  -.9878     0.3143E-2  -.9664   
  8.104     0.3298E-2  -.9658     0.1623E-3  -.9878     0.3298E-2  -.9658   
  8.124     0.3467E-2  -.9651     0.1636E-3  -.9877     0.3467E-2  -.9651   
  8.144     0.3651E-2  -.9645     0.1649E-3  -.9877     0.3651E-2  -.9645   
  8.164     0.3851E-2  -.9637     0.1663E-3  -.9877     0.3851E-2  -.9637   
  8.184     0.4072E-2  -.9630     0.1676E-3  -.9876     0.4072E-2  -.9630   
  8.204     0.4314E-2  -.9622     0.1689E-3  -.9876     0.4314E-2  -.9622   
  8.224     0.4582E-2  -.9613     0.1703E-3  -.9876     0.4582E-2  -.9613   
  8.244     0.4880E-2  -.9605     0.1717E-3  -.9875     0.4880E-2  -.9605   
  8.265     0.5214E-2  -.9595     0.1731E-3  -.9875     0.5214E-2  -.9595   
  8.285     0.5588E-2  -.9585     0.1745E-3  -.9875     0.5588E-2  -.9585   
  8.305     0.6013E-2  -.9575     0.1759E-3  -.9874     0.6013E-2  -.9575   
  8.325     0.6497E-2  -.9563     0.1773E-3  -.9874     0.6497E-2  -.9563   
  8.345     0.7053E-2  -.9551     0.1788E-3  -.9874     0.7053E-2  -.9551   
  8.365     0.7699E-2  -.9538     0.1803E-3  -.9873     0.7699E-2  -.9538   
  8.385     0.8456E-2  -.9525     0.1818E-3  -.9873     0.8456E-2  -.9525   
  8.405     0.9352E-2  -.9510     0.1833E-3  -.9872     0.9352E-2  -.9510   
  8.425     0.1042E-1  -.9495     0.1848E-3  -.9872     0.1042E-1  -.9495   
  8.445     0.1171E-1  -.9479     0.1863E-3  -.9872     0.1172E-1  -.9479   
  8.465     0.1328E-1  -.9463     0.1879E-3  -.9871     0.1329E-1  -.9463   
  8.485     0.1519E-1  -.9448     0.1895E-3  -.9871     0.1519E-1  -.9448   
  8.505     0.1749E-1  -.9434     0.1911E-3  -.9871     0.1749E-1  -.9434   
  8.525     0.2018E-1  -.9423     0.1927E-3  -.9870     0.2018E-1  -.9423   
  8.545     0.2311E-1  -.9419     0.1943E-3  -.9870     0.2311E-1  -.9419   
  8.565     0.2597E-1  -.9422     0.1960E-3  -.9869     0.2597E-1  -.9422   
  8.585     0.2828E-1  -.9432     0.1976E-3  -.9869     0.2828E-1  -.9432   
  8.605     0.2971E-1  -.9444     0.1993E-3  -.9869     0.2970E-1  -.9444   
  8.625     0.3032E-1  -.9453     0.2011E-3  -.9868     0.3031E-1  -.9453   
  8.645     0.3041E-1  -.9456     0.2028E-3  -.9868     0.3041E-1  -.9456   
  8.665     0.3027E-1  -.9452     0.2045E-3  -.9867     0.3028E-1  -.9452   
  8.685     0.3006E-1  -.9441     0.2063E-3  -.9867     0.3008E-1  -.9441   
  8.705     0.3001E-1  -.9422     0.2081E-3  -.9867     0.3002E-1  -.9422   
  8.725     0.3038E-1  -.9395     0.2099E-3  -.9866     0.3038E-1  -.9396   
  8.745     0.3140E-1  -.9361     0.2118E-3  -.9866     0.3140E-1  -.9362   
  8.766     0.3325E-1  -.9322     0.2137E-3  -.9865     0.3324E-1  -.9322   
  8.786     0.3607E-1  -.9277     0.2155E-3  -.9865     0.3607E-1  -.9277   
  8.806     0.4002E-1  -.9229     0.2175E-3  -.9864     0.4002E-1  -.9229   
  8.826     0.4532E-1  -.9178     0.2194E-3  -.9864     0.4532E-1  -.9178   
  8.846     0.5227E-1  -.9125     0.2214E-3  -.9864     0.5227E-1  -.9125   
  8.866     0.6130E-1  -.9073     0.2234E-3  -.9863     0.6130E-1  -.9073   
  8.886     0.7292E-1  -.9027     0.2254E-3  -.9863     0.7292E-1  -.9027   
  8.906     0.8772E-1  -.8994     0.2274E-3  -.9862     0.8773E-1  -.8994   
  8.926     0.1062     -.8989     0.2295E-3  -.9862     0.1062     -.8989   
  8.946     0.1281     -.9033     0.2316E-3  -.9861     0.1281     -.9033   
  8.966     0.1521     -.9155     0.2337E-3  -.9861     0.1521     -.9155   
  8.986     0.1742     -.9377     0.2358E-3  -.9860     0.1742     -.9377   
  9.006     0.1887     -.9695     0.2380E-3  -.9860     0.1886     -.9695   
  9.026     0.1902     -1.006     0.2402E-3  -.9859     0.1902     -1.006   
  9.046     0.1782     -1.040     0.2424E-3  -.9859     0.1782     -1.040   
  9.066     0.1569     -1.064     0.2447E-3  -.9858     0.1569     -1.064   
  9.086     0.1326     -1.079     0.2470E-3  -.9858     0.1326     -1.079   
  9.106     0.1097     -1.085     0.2493E-3  -.9857     0.1097     -1.085   
  9.126     0.9009E-1  -1.085     0.2517E-3  -.9857     0.9009E-1  -1.085   
  9.146     0.7418E-1  -1.082     0.2541E-3  -.9856     0.7418E-1  -1.082   
  9.166     0.6153E-1  -1.078     0.2565E-3  -.9856     0.6153E-1  -1.078   
  9.186     0.5152E-1  -1.073     0.2590E-3  -.9855     0.5152E-1  -1.073   
  9.206     0.4360E-1  -1.068     0.2614E-3  -.9855     0.4360E-1  -1.068   
  9.226     0.3728E-1  -1.063     0.2640E-3  -.9854     0.3728E-1  -1.063   
  9.246     0.3219E-1  -1.059     0.2665E-3  -.9854     0.3219E-1  -1.059   
  9.267     0.2805E-1  -1.055     0.2691E-3  -.9853     0.2805E-1  -1.055   
  9.287     0.2466E-1  -1.051     0.2718E-3  -.9853     0.2466E-1  -1.051   
  9.307     0.2186E-1  -1.047     0.2744E-3  -.9852     0.2186E-1  -1.047   
  9.327     0.1951E-1  -1.044     0.2771E-3  -.9852     0.1951E-1  -1.044   
  9.347     0.1754E-1  -1.041     0.2799E-3  -.9851     0.1754E-1  -1.041   
  9.367     0.1587E-1  -1.038     0.2827E-3  -.9851     0.1587E-1  -1.038   
  9.387     0.1444E-1  -1.035     0.2855E-3  -.9850     0.1444E-1  -1.035   
  9.407     0.1322E-1  -1.033     0.2883E-3  -.9849     0.1322E-1  -1.033   
  9.427     0.1216E-1  -1.030     0.2913E-3  -.9849     0.1216E-1  -1.030   
  9.447     0.1124E-1  -1.028     0.2942E-3  -.9848     0.1124E-1  -1.028   
  9.467     0.1043E-1  -1.026     0.2972E-3  -.9848     0.1043E-1  -1.026   
  9.487     0.9731E-2  -1.025     0.3002E-3  -.9847     0.9731E-2  -1.025   
  9.507     0.9113E-2  -1.023     0.3033E-3  -.9846     0.9113E-2  -1.023   
  9.527     0.8570E-2  -1.021     0.3065E-3  -.9846     0.8570E-2  -1.021   
  9.547     0.8090E-2  -1.020     0.3096E-3  -.9845     0.8090E-2  -1.020   
  9.567     0.7665E-2  -1.018     0.3129E-3  -.9845     0.7665E-2  -1.018   
  9.587     0.7289E-2  -1.017     0.3161E-3  -.9844     0.7289E-2  -1.017   
  9.607     0.6956E-2  -1.015     0.3195E-3  -.9843     0.6956E-2  -1.015   
  9.627     0.6661E-2  -1.014     0.3228E-3  -.9843     0.6661E-2  -1.014   
  9.647     0.6401E-2  -1.013     0.3263E-3  -.9842     0.6401E-2  -1.013   
  9.667     0.6171E-2  -1.012     0.3298E-3  -.9841     0.6171E-2  -1.012   
  9.687     0.5969E-2  -1.010     0.3333E-3  -.9841     0.5969E-2  -1.010   
  9.707     0.5793E-2  -1.009     0.3369E-3  -.9840     0.5793E-2  -1.009   
  9.727     0.5641E-2  -1.008     0.3405E-3  -.9839     0.5641E-2  -1.008   
  9.747     0.5510E-2  -1.007     0.3442E-3  -.9839     0.5510E-2  -1.007   
  9.768     0.5400E-2  -1.006     0.3480E-3  -.9838     0.5400E-2  -1.006   
  9.788     0.5310E-2  -1.005     0.3518E-3  -.9837     0.5310E-2  -1.005   
  9.808     0.5238E-2  -1.004     0.3557E-3  -.9837     0.5238E-2  -1.004   
  9.828     0.5184E-2  -1.003     0.3597E-3  -.9836     0.5184E-2  -1.003   
  9.848     0.5148E-2  -1.002     0.3637E-3  -.9835     0.5148E-2  -1.002   
  9.868     0.5130E-2  -1.001     0.3678E-3  -.9834     0.5130E-2  -1.001   
  9.888     0.5129E-2  -.9999     0.3720E-3  -.9834     0.5129E-2  -.9999   
  9.908     0.5146E-2  -.9989     0.3762E-3  -.9833     0.5146E-2  -.9989   
  9.928     0.5182E-2  -.9979     0.3805E-3  -.9832     0.5182E-2  -.9979   
  9.948     0.5237E-2  -.9969     0.3849E-3  -.9831     0.5237E-2  -.9969   
  9.968     0.5312E-2  -.9959     0.3893E-3  -.9831     0.5312E-2  -.9959   
  9.988     0.5410E-2  -.9948     0.3938E-3  -.9830     0.5410E-2  -.9948   
  10.01     0.5532E-2  -.9938     0.3984E-3  -.9829     0.5532E-2  -.9938   
  10.03     0.5680E-2  -.9927     0.4031E-3  -.9828     0.5680E-2  -.9927   
  10.05     0.5859E-2  -.9916     0.4078E-3  -.9827     0.5859E-2  -.9916   
  10.07     0.6072E-2  -.9905     0.4127E-3  -.9827     0.6072E-2  -.9905   
  10.09     0.6326E-2  -.9893     0.4176E-3  -.9826     0.6326E-2  -.9893   
  10.11     0.6626E-2  -.9881     0.4226E-3  -.9825     0.6626E-2  -.9881   
  10.13     0.6982E-2  -.9869     0.4277E-3  -.9824     0.6982E-2  -.9869   
  10.15     0.7406E-2  -.9856     0.4329E-3  -.9823     0.7405E-2  -.9856   
  10.17     0.7909E-2  -.9843     0.4382E-3  -.9822     0.7909E-2  -.9843   
  10.19     0.8508E-2  -.9830     0.4436E-3  -.9821     0.8509E-2  -.9830   
  10.21     0.9220E-2  -.9816     0.4491E-3  -.9821     0.9220E-2  -.9816   
  10.23     0.1006E-1  -.9803     0.4547E-3  -.9820     0.1006E-1  -.9803   
  10.25     0.1101E-1  -.9790     0.4604E-3  -.9819     0.1101E-1  -.9790   
  10.27     0.1203E-1  -.9778     0.4662E-3  -.9818     0.1203E-1  -.9778   
  10.29     0.1301E-1  -.9768     0.4721E-3  -.9817     0.1302E-1  -.9768   
  10.31     0.1385E-1  -.9758     0.4781E-3  -.9816     0.1386E-1  -.9758   
  10.33     0.1451E-1  -.9747     0.4843E-3  -.9815     0.1451E-1  -.9747   
  10.35     0.1506E-1  -.9733     0.4905E-3  -.9814     0.1505E-1  -.9733   
  10.37     0.1566E-1  -.9715     0.4969E-3  -.9813     0.1565E-1  -.9715   
  10.39     0.1645E-1  -.9694     0.5034E-3  -.9812     0.1643E-1  -.9694   
  10.41     0.1752E-1  -.9669     0.5100E-3  -.9811     0.1751E-1  -.9669   
  10.43     0.1895E-1  -.9642     0.5168E-3  -.9810     0.1895E-1  -.9642   
  10.45     0.2080E-1  -.9612     0.5237E-3  -.9809     0.2080E-1  -.9612   
  10.47     0.2314E-1  -.9580     0.5307E-3  -.9808     0.2315E-1  -.9580   
  10.49     0.2608E-1  -.9545     0.5379E-3  -.9807     0.2609E-1  -.9545   
  10.51     0.2978E-1  -.9507     0.5453E-3  -.9806     0.2979E-1  -.9507   
  10.53     0.3443E-1  -.9467     0.5527E-3  -.9805     0.3443E-1  -.9467   
  10.55     0.4029E-1  -.9426     0.5604E-3  -.9804     0.4029E-1  -.9426   
  10.57     0.4772E-1  -.9385     0.5682E-3  -.9802     0.4772E-1  -.9385   
  10.59     0.5715E-1  -.9348     0.5761E-3  -.9801     0.5714E-1  -.9348   
  10.61     0.6905E-1  -.9321     0.5842E-3  -.9800     0.6904E-1  -.9321   
  10.63     0.8379E-1  -.9316     0.5925E-3  -.9799     0.8378E-1  -.9316   
  10.65     0.1013     -.9350     0.6010E-3  -.9798     0.1013     -.9349   
  10.67     0.1203     -.9444     0.6097E-3  -.9797     0.1204     -.9444   
  10.69     0.1378     -.9616     0.6185E-3  -.9795     0.1379     -.9616   
  10.71     0.1491     -.9861     0.6276E-3  -.9794     0.1492     -.9862   
  10.73     0.1506     -1.014     0.6368E-3  -.9793     0.1506     -1.014   
  10.75     0.1423     -1.039     0.6463E-3  -.9792     0.1423     -1.039   
  10.77     0.1281     -1.057     0.6559E-3  -.9790     0.1279     -1.057   
  10.79     0.1117     -1.069     0.6658E-3  -.9789     0.1116     -1.069   
  10.81     0.9564E-1  -1.076     0.6759E-3  -.9788     0.9562E-1  -1.076   
  10.83     0.8101E-1  -1.078     0.6863E-3  -.9786     0.8114E-1  -1.078   
  10.85     0.6846E-1  -1.078     0.6968E-3  -.9785     0.6863E-1  -1.078   
  10.87     0.5820E-1  -1.076     0.7077E-3  -.9783     0.5831E-1  -1.076   
  10.89     0.5012E-1  -1.073     0.7188E-3  -.9782     0.5012E-1  -1.073   
  10.91     0.4386E-1  -1.070     0.7301E-3  -.9781     0.4376E-1  -1.070   
  10.93     0.3893E-1  -1.067     0.7418E-3  -.9779     0.3879E-1  -1.067   
  10.95     0.3479E-1  -1.064     0.7537E-3  -.9778     0.3471E-1  -1.064   
  10.97     0.3105E-1  -1.062     0.7659E-3  -.9776     0.3106E-1  -1.062   
  10.99     0.2753E-1  -1.060     0.7784E-3  -.9775     0.2763E-1  -1.060   
  11.01     0.2431E-1  -1.058     0.7912E-3  -.9773     0.2443E-1  -1.058   
  11.03     0.2149E-1  -1.056     0.8044E-3  -.9771     0.2157E-1  -1.056   
  11.05     0.1910E-1  -1.053     0.8179E-3  -.9770     0.1911E-1  -1.054   
  11.07     0.1708E-1  -1.051     0.8317E-3  -.9768     0.1704E-1  -1.051   
  11.09     0.1534E-1  -1.049     0.8459E-3  -.9766     0.1528E-1  -1.049   
  11.11     0.1380E-1  -1.047     0.8604E-3  -.9765     0.1376E-1  -1.047   
  11.13     0.1244E-1  -1.046     0.8754E-3  -.9763     0.1241E-1  -1.046   
  11.15     0.1123E-1  -1.044     0.8907E-3  -.9761     0.1122E-1  -1.044   
  11.17     0.1018E-1  -1.042     0.9065E-3  -.9759     0.1018E-1  -1.042   
  11.19     0.9268E-2  -1.041     0.9227E-3  -.9758     0.9271E-2  -1.041   
  11.21     0.8484E-2  -1.039     0.9393E-3  -.9756     0.8487E-2  -1.039   
  11.23     0.7806E-2  -1.038     0.9564E-3  -.9754     0.7809E-2  -1.038   
  11.25     0.7217E-2  -1.036     0.9740E-3  -.9752     0.7219E-2  -1.036   
  11.27     0.6702E-2  -1.035     0.9921E-3  -.9750     0.6705E-2  -1.035   
  11.29     0.6251E-2  -1.034     0.1011E-2  -.9748     0.6253E-2  -1.034   
  11.31     0.5852E-2  -1.033     0.1030E-2  -.9746     0.5855E-2  -1.033   
  11.33     0.5500E-2  -1.032     0.1049E-2  -.9744     0.5502E-2  -1.032   
  11.35     0.5186E-2  -1.031     0.1070E-2  -.9742     0.5188E-2  -1.031   
  11.37     0.4906E-2  -1.030     0.1091E-2  -.9740     0.4909E-2  -1.030   
  11.39     0.4657E-2  -1.029     0.1112E-2  -.9737     0.4660E-2  -1.029   
  11.41     0.4435E-2  -1.028     0.1134E-2  -.9735     0.4437E-2  -1.028   
  11.43     0.4237E-2  -1.027     0.1157E-2  -.9733     0.4239E-2  -1.027   
  11.45     0.4061E-2  -1.026     0.1181E-2  -.9731     0.4063E-2  -1.026   
  11.47     0.3906E-2  -1.025     0.1205E-2  -.9728     0.3908E-2  -1.025   
  11.49     0.3770E-2  -1.025     0.1230E-2  -.9726     0.3772E-2  -1.025   
  11.51     0.3653E-2  -1.024     0.1256E-2  -.9723     0.3654E-2  -1.024   
  11.53     0.3554E-2  -1.023     0.1283E-2  -.9721     0.3556E-2  -1.023   
  11.55     0.3475E-2  -1.023     0.1310E-2  -.9718     0.3476E-2  -1.023   
  11.57     0.3415E-2  -1.022     0.1339E-2  -.9716     0.3416E-2  -1.022   
  11.59     0.3377E-2  -1.021     0.1369E-2  -.9713     0.3378E-2  -1.021   
  11.61     0.3363E-2  -1.021     0.1399E-2  -.9710     0.3364E-2  -1.021   
  11.63     0.3377E-2  -1.020     0.1431E-2  -.9707     0.3378E-2  -1.020   
  11.65     0.3424E-2  -1.020     0.1464E-2  -.9704     0.3425E-2  -1.020   
  11.67     0.3512E-2  -1.019     0.1498E-2  -.9701     0.3510E-2  -1.019   
  11.69     0.3650E-2  -1.018     0.1533E-2  -.9698     0.3641E-2  -1.018   
  11.71     0.3847E-2  -1.018     0.1569E-2  -.9695     0.3827E-2  -1.018   
  11.73     0.4108E-2  -1.017     0.1607E-2  -.9692     0.4075E-2  -1.017   
  11.75     0.4431E-2  -1.017     0.1646E-2  -.9689     0.4391E-2  -1.017   
  11.77     0.4786E-2  -1.017     0.1687E-2  -.9686     0.4757E-2  -1.017   
  11.79     0.5112E-2  -1.017     0.1729E-2  -.9682     0.5123E-2  -1.017   
  11.81     0.5332E-2  -1.017     0.1773E-2  -.9679     0.5401E-2  -1.017   
  11.83     0.5407E-2  -1.017     0.1819E-2  -.9675     0.5509E-2  -1.017   
  11.85     0.5361E-2  -1.017     0.1867E-2  -.9671     0.5433E-2  -1.017   
  11.87     0.5247E-2  -1.017     0.1917E-2  -.9668     0.5239E-2  -1.017   
  11.89     0.5080E-2  -1.017     0.1968E-2  -.9664     0.5002E-2  -1.017   
  11.91     0.4841E-2  -1.017     0.2022E-2  -.9660     0.4749E-2  -1.017   
  11.93     0.4522E-2  -1.017     0.2079E-2  -.9656     0.4470E-2  -1.017   
  11.95     0.4156E-2  -1.017     0.2138E-2  -.9652     0.4156E-2  -1.017   
  11.97     0.3798E-2  -1.016     0.2199E-2  -.9647     0.3831E-2  -1.016   
  11.99     0.3486E-2  -1.016     0.2263E-2  -.9643     0.3528E-2  -1.016   
  12.01     0.3235E-2  -1.016     0.2331E-2  -.9638     0.3272E-2  -1.016   
  12.03     0.3047E-2  -1.015     0.2401E-2  -.9634     0.3074E-2  -1.015   
  12.05     0.2917E-2  -1.015     0.2475E-2  -.9629     0.2932E-2  -1.015   
  12.07     0.2840E-2  -1.014     0.2553E-2  -.9624     0.2842E-2  -1.014   
  12.09     0.2813E-2  -1.014     0.2634E-2  -.9619     0.2802E-2  -1.014   
  12.11     0.2832E-2  -1.014     0.2720E-2  -.9613     0.2809E-2  -1.014   
  12.13     0.2897E-2  -1.013     0.2810E-2  -.9608     0.2862E-2  -1.013   
  12.15     0.2999E-2  -1.013     0.2905E-2  -.9602     0.2957E-2  -1.013   
  12.17     0.3122E-2  -1.012     0.3005E-2  -.9597     0.3082E-2  -1.012   
  12.19     0.3232E-2  -1.012     0.3110E-2  -.9591     0.3211E-2  -1.012   
  12.21     0.3293E-2  -1.012     0.3222E-2  -.9584     0.3304E-2  -1.012   
  12.23     0.3287E-2  -1.012     0.3341E-2  -.9578     0.3330E-2  -1.012   
  12.25     0.3232E-2  -1.012     0.3466E-2  -.9571     0.3293E-2  -1.012   
  12.27     0.3172E-2  -1.011     0.3599E-2  -.9564     0.3227E-2  -1.011   
  12.29     0.3142E-2  -1.011     0.3740E-2  -.9557     0.3175E-2  -1.011   
  12.31     0.3165E-2  -1.011     0.3891E-2  -.9550     0.3170E-2  -1.011   
  12.33     0.3254E-2  -1.010     0.4052E-2  -.9542     0.3226E-2  -1.010   
  12.35     0.3412E-2  -1.010     0.4223E-2  -.9534     0.3354E-2  -1.010   
  12.37     0.3636E-2  -1.010     0.4407E-2  -.9525     0.3557E-2  -1.010   
  12.39     0.3910E-2  -1.009     0.4604E-2  -.9516     0.3832E-2  -1.009   
  12.41     0.4196E-2  -1.009     0.4815E-2  -.9507     0.4160E-2  -1.009   
  12.43     0.4447E-2  -1.009     0.5043E-2  -.9498     0.4495E-2  -1.009   
  12.45     0.4637E-2  -1.009     0.5289E-2  -.9488     0.4774E-2  -1.009   
  12.47     0.4788E-2  -1.009     0.5555E-2  -.9477     0.4954E-2  -1.009   
  12.49     0.4954E-2  -1.009     0.5844E-2  -.9466     0.5050E-2  -1.009   
  12.51     0.5169E-2  -1.008     0.6158E-2  -.9455     0.5131E-2  -1.009   
  12.53     0.5417E-2  -1.008     0.6501E-2  -.9442     0.5255E-2  -1.008   
  12.55     0.5629E-2  -1.008     0.6877E-2  -.9430     0.5430E-2  -1.008   
  12.57     0.5729E-2  -1.008     0.7291E-2  -.9416     0.5607E-2  -1.008   
  12.59     0.5697E-2  -1.008     0.7748E-2  -.9402     0.5715E-2  -1.008   
  12.61     0.5599E-2  -1.008     0.8255E-2  -.9387     0.5722E-2  -1.008   
  12.63     0.5527E-2  -1.008     0.8819E-2  -.9371     0.5672E-2  -1.008   
  12.65     0.5549E-2  -1.008     0.9452E-2  -.9354     0.5643E-2  -1.008   
  12.67     0.5678E-2  -1.008     0.1017E-1  -.9336     0.5693E-2  -1.008   
  12.69     0.5876E-2  -1.007     0.1097E-1  -.9317     0.5822E-2  -1.007   
  12.71     0.6059E-2  -1.007     0.1190E-1  -.9296     0.5978E-2  -1.007   
  12.73     0.6144E-2  -1.007     0.1296E-1  -.9274     0.6081E-2  -1.007   
  12.75     0.6108E-2  -1.007     0.1420E-1  -.9251     0.6086E-2  -1.007   
  12.77     0.6009E-2  -1.007     0.1565E-1  -.9225     0.6022E-2  -1.007   
  12.79     0.5939E-2  -1.006     0.1736E-1  -.9198     0.5968E-2  -1.006   
  12.81     0.5973E-2  -1.006     0.1940E-1  -.9170     0.6003E-2  -1.006   
  12.83     0.6154E-2  -1.005     0.2188E-1  -.9139     0.6178E-2  -1.005   
  12.85     0.6511E-2  -1.004     0.2489E-1  -.9107     0.6527E-2  -1.004   
  12.87     0.7071E-2  -1.003     0.2861E-1  -.9074     0.7077E-2  -1.003   
  12.89     0.7867E-2  -1.003     0.3322E-1  -.9043     0.7864E-2  -1.003   
  12.91     0.8947E-2  -1.002     0.3890E-1  -.9014     0.8934E-2  -1.002   
  12.93     0.1037E-1  -1.001     0.4581E-1  -.8994     0.1035E-1  -1.001   
  12.95     0.1218E-1  -1.001     0.5386E-1  -.8990     0.1216E-1  -1.001   
  12.97395    0.01442   -1.00044    0.06244   -0.90106    0.01439   -1.00042
  12.99399    0.01699   -1.00097    0.07015   -0.90613    0.01698   -1.00094
  13.01403    0.01962   -1.00242    0.07504   -0.91373    0.01965   -1.00238
  13.03407    0.02186   -1.00486    0.07577   -0.92183    0.02191   -1.00485
  13.05411    0.02318   -1.00804    0.07281   -0.92792    0.02322   -1.00808
  13.07415    0.02337   -1.01144    0.06800   -0.93056    0.02335   -1.01150
  13.09419    0.02251   -1.01454    0.06324   -0.92978    0.02245   -1.01455
  13.11423    0.02089   -1.01698    0.05971   -0.92639    0.02086   -1.01694
  13.13427    0.01895   -1.01859    0.05786   -0.92119    0.01896   -1.01855
  13.15431    0.01709   -1.01946    0.05783   -0.91479    0.01712   -1.01945
  13.17435    0.01556   -1.01988    0.05962   -0.90756    0.01558   -1.01990
  13.19439    0.01440   -1.02015    0.06331   -0.89970    0.01439   -1.02018
  13.21443    0.01343   -1.02051    0.06906   -0.89136    0.01342   -1.02052
  13.23     0.1244E-1  -1.021     0.7717E-1  -.8827     0.1243E-1  -1.021   
  13.25     0.1129E-1  -1.021     0.8813E-1  -.8739     0.1129E-1  -1.021   
  13.27     0.1001E-1  -1.022     0.1026     -.8654     0.1001E-1  -1.022   
  13.29     0.8693E-2  -1.022     0.1214     -.8581     0.8694E-2  -1.022   
  13.31     0.7465E-2  -1.021     0.1454     -.8536     0.7465E-2  -1.021   
  13.33     0.6390E-2  -1.021     0.1751     -.8542     0.6390E-2  -1.021   
  13.35     0.5487E-2  -1.021     0.2099     -.8638     0.5487E-2  -1.021   
  13.37     0.4745E-2  -1.020     0.2462     -.8869     0.4745E-2  -1.020   
  13.39     0.4140E-2  -1.019     0.2767     -.9261     0.4140E-2  -1.019   
  13.41     0.3646E-2  -1.019     0.2916     -.9781     0.3646E-2  -1.019   
  13.43     0.3239E-2  -1.018     0.2848     -1.032     0.3239E-2  -1.018   
  13.45     0.2902E-2  -1.018     0.2595     -1.077     0.2902E-2  -1.018   
  13.47     0.2619E-2  -1.017     0.2247     -1.106     0.2619E-2  -1.017   
  13.49     0.2380E-2  -1.017     0.1894     -1.121     0.2380E-2  -1.017   
  13.52     0.2176E-2  -1.017     0.1583     -1.124     0.2176E-2  -1.017   
  13.54     0.2001E-2  -1.016     0.1330     -1.122     0.2001E-2  -1.016   
  13.56     0.1849E-2  -1.016     0.1133     -1.117     0.1849E-2  -1.016   
  13.58     0.1716E-2  -1.016     0.9795E-1  -1.110     0.1716E-2  -1.016   
  13.60     0.1599E-2  -1.015     0.8582E-1  -1.104     0.1599E-2  -1.015   
  13.62     0.1496E-2  -1.015     0.7574E-1  -1.098     0.1496E-2  -1.015   
  13.64     0.1404E-2  -1.015     0.6703E-1  -1.092     0.1404E-2  -1.015   
  13.66     0.1322E-2  -1.014     0.5949E-1  -1.087     0.1322E-2  -1.014   
  13.68     0.1249E-2  -1.014     0.5317E-1  -1.080     0.1249E-2  -1.014   
  13.70     0.1182E-2  -1.014     0.4810E-1  -1.074     0.1182E-2  -1.014   
  13.72     0.1122E-2  -1.014     0.4423E-1  -1.068     0.1122E-2  -1.014   
  13.74     0.1067E-2  -1.014     0.4149E-1  -1.062     0.1067E-2  -1.014   
  13.76     0.1017E-2  -1.013     0.3979E-1  -1.057     0.1017E-2  -1.013   
  13.78     0.9714E-3  -1.013     0.3905E-1  -1.052     0.9714E-3  -1.013   
  13.80     0.9294E-3  -1.013     0.3916E-1  -1.048     0.9294E-3  -1.013   
  13.82     0.8907E-3  -1.013     0.3987E-1  -1.045     0.8907E-3  -1.013   
  13.84     0.8550E-3  -1.013     0.4070E-1  -1.044     0.8550E-3  -1.013   
  13.86     0.8220E-3  -1.012     0.4099E-1  -1.043     0.8220E-3  -1.012   
  13.88     0.7915E-3  -1.012     0.4026E-1  -1.043     0.7915E-3  -1.012   
  13.90     0.7632E-3  -1.012     0.3853E-1  -1.043     0.7632E-3  -1.012   
  13.92     0.7369E-3  -1.012     0.3628E-1  -1.042     0.7369E-3  -1.012   
  13.94     0.7125E-3  -1.012     0.3397E-1  -1.041     0.7124E-3  -1.012   
  13.96     0.6898E-3  -1.012     0.3184E-1  -1.039     0.6897E-3  -1.012   
  13.98     0.6686E-3  -1.012     0.2997E-1  -1.036     0.6686E-3  -1.012   
  14.00     0.6488E-3  -1.011     0.2845E-1  -1.034     0.6488E-3  -1.011   
  14.02     0.6299E-3  -1.011     0.2739E-1  -1.031     0.6299E-3  -1.011   
  14.04     0.6118E-3  -1.011     0.2689E-1  -1.027     0.6118E-3  -1.011   
  14.06     0.5941E-3  -1.011     0.2702E-1  -1.024     0.5941E-3  -1.011   
  14.08     0.5770E-3  -1.011     0.2784E-1  -1.020     0.5770E-3  -1.011   
  14.10     0.5606E-3  -1.011     0.2938E-1  -1.017     0.5606E-3  -1.011   
  14.12     0.5450E-3  -1.011     0.3165E-1  -1.015     0.5450E-3  -1.011   
  14.14     0.5302E-3  -1.011     0.3457E-1  -1.012     0.5302E-3  -1.011   
  14.16     0.5163E-3  -1.011     0.3800E-1  -1.011     0.5163E-3  -1.011   
  14.18     0.5031E-3  -1.010     0.4179E-1  -1.011     0.5031E-3  -1.010   
  14.20     0.4907E-3  -1.010     0.4575E-1  -1.011     0.4907E-3  -1.010   
  14.22     0.4788E-3  -1.010     0.4961E-1  -1.013     0.4788E-3  -1.010   
  14.24     0.4676E-3  -1.010     0.5273E-1  -1.017     0.4676E-3  -1.010   
  14.26     0.4569E-3  -1.010     0.5427E-1  -1.021     0.4569E-3  -1.010   
  14.28     0.4467E-3  -1.010     0.5369E-1  -1.026     0.4467E-3  -1.010   
  14.30     0.4369E-3  -1.010     0.5125E-1  -1.030     0.4369E-3  -1.010   
  14.32     0.4276E-3  -1.010     0.4784E-1  -1.033     0.4276E-3  -1.010   
  14.34     0.4186E-3  -1.010     0.4446E-1  -1.034     0.4186E-3  -1.010   
  14.36     0.4100E-3  -1.010     0.4167E-1  -1.034     0.4100E-3  -1.010   
  14.38     0.4018E-3  -1.010     0.3945E-1  -1.033     0.4018E-3  -1.010   
  14.40     0.3939E-3  -1.009     0.3746E-1  -1.033     0.3939E-3  -1.009   
  14.42     0.3863E-3  -1.009     0.3542E-1  -1.032     0.3863E-3  -1.009   
  14.44     0.3790E-3  -1.009     0.3337E-1  -1.031     0.3790E-3  -1.009   
  14.46     0.3719E-3  -1.009     0.3164E-1  -1.029     0.3719E-3  -1.009   
  14.48     0.3651E-3  -1.009     0.3055E-1  -1.026     0.3651E-3  -1.009   
  14.50     0.3586E-3  -1.009     0.3031E-1  -1.023     0.3586E-3  -1.009   
  14.52     0.3523E-3  -1.009     0.3104E-1  -1.020     0.3523E-3  -1.009   
  14.54     0.3462E-3  -1.009     0.3283E-1  -1.018     0.3462E-3  -1.009   
  14.56     0.3403E-3  -1.009     0.3571E-1  -1.015     0.3403E-3  -1.009   
  14.58     0.3346E-3  -1.009     0.3963E-1  -1.014     0.3346E-3  -1.009   
  14.60     0.3291E-3  -1.009     0.4423E-1  -1.015     0.3291E-3  -1.009   
  14.62     0.3238E-3  -1.009     0.4872E-1  -1.017     0.3238E-3  -1.009   
  14.64     0.3187E-3  -1.009     0.5189E-1  -1.022     0.3187E-3  -1.009   
  14.66     0.3137E-3  -1.009     0.5273E-1  -1.028     0.3137E-3  -1.009   
  14.68     0.3089E-3  -1.008     0.5119E-1  -1.033     0.3089E-3  -1.008   
  14.70     0.3042E-3  -1.008     0.4808E-1  -1.037     0.3042E-3  -1.008   
  14.72     0.2997E-3  -1.008     0.4435E-1  -1.039     0.2997E-3  -1.008   
  14.74     0.2953E-3  -1.008     0.4058E-1  -1.040     0.2953E-3  -1.008   
  14.76     0.2911E-3  -1.008     0.3706E-1  -1.040     0.2911E-3  -1.008   
  14.78     0.2869E-3  -1.008     0.3400E-1  -1.040     0.2869E-3  -1.008   
  14.80     0.2830E-3  -1.008     0.3153E-1  -1.038     0.2830E-3  -1.008   
  14.82     0.2791E-3  -1.008     0.2962E-1  -1.037     0.2791E-3  -1.008   
  14.84     0.2753E-3  -1.008     0.2814E-1  -1.035     0.2753E-3  -1.008   
  14.86     0.2717E-3  -1.008     0.2699E-1  -1.033     0.2717E-3  -1.008   
  14.88     0.2682E-3  -1.008     0.2626E-1  -1.031     0.2682E-3  -1.008   
  14.90     0.2648E-3  -1.008     0.2610E-1  -1.029     0.2648E-3  -1.008   
  14.92     0.2615E-3  -1.008     0.2665E-1  -1.026     0.2615E-3  -1.008   
  14.94     0.2582E-3  -1.008     0.2800E-1  -1.024     0.2582E-3  -1.008   
  14.96     0.2551E-3  -1.008     0.3019E-1  -1.022     0.2551E-3  -1.008   
  14.98     0.2521E-3  -1.008     0.3320E-1  -1.020     0.2521E-3  -1.008   
  15.00     0.2492E-3  -1.008     0.3699E-1  -1.019     0.2492E-3  -1.008   
  15.02     0.2464E-3  -1.008     0.4149E-1  -1.020     0.2464E-3  -1.008   
  15.04     0.2437E-3  -1.008     0.4654E-1  -1.021     0.2437E-3  -1.008   
  15.06     0.2410E-3  -1.007     0.5148E-1  -1.026     0.2410E-3  -1.007   
  15.08     0.2385E-3  -1.007     0.5505E-1  -1.032     0.2385E-3  -1.007   
  15.10     0.2361E-3  -1.007     0.5580E-1  -1.040     0.2361E-3  -1.007   
  15.12     0.2337E-3  -1.007     0.5319E-1  -1.049     0.2337E-3  -1.007   
  15.14     0.2315E-3  -1.007     0.4800E-1  -1.055     0.2315E-3  -1.007   
  15.16     0.2294E-3  -1.007     0.4166E-1  -1.059     0.2294E-3  -1.007   
  15.18     0.2274E-3  -1.007     0.3531E-1  -1.060     0.2274E-3  -1.007   
  15.20     0.2254E-3  -1.007     0.2964E-1  -1.060     0.2254E-3  -1.007   
  15.22     0.2237E-3  -1.007     0.2487E-1  -1.059     0.2237E-3  -1.007   
  15.24     0.2220E-3  -1.007     0.2099E-1  -1.058     0.2220E-3  -1.007   
  15.26     0.2205E-3  -1.007     0.1788E-1  -1.056     0.2205E-3  -1.007   
  15.28     0.2192E-3  -1.007     0.1539E-1  -1.054     0.2192E-3  -1.007   
  15.30     0.2180E-3  -1.007     0.1338E-1  -1.052     0.2180E-3  -1.007   
  15.32     0.2170E-3  -1.007     0.1176E-1  -1.050     0.2170E-3  -1.007   
  15.34     0.2163E-3  -1.007     0.1043E-1  -1.049     0.2163E-3  -1.007   
  15.36     0.2158E-3  -1.007     0.9324E-2  -1.047     0.2158E-3  -1.007   
  15.38     0.2157E-3  -1.007     0.8403E-2  -1.046     0.2157E-3  -1.007   
  15.40     0.2158E-3  -1.007     0.7625E-2  -1.044     0.2158E-3  -1.007   
  15.42     0.2161E-3  -1.007     0.6963E-2  -1.043     0.2161E-3  -1.007   
  15.44     0.2162E-3  -1.007     0.6394E-2  -1.042     0.2162E-3  -1.007   
  15.46     0.2158E-3  -1.007     0.5901E-2  -1.041     0.2158E-3  -1.007   
  15.48     0.2148E-3  -1.007     0.5471E-2  -1.040     0.2148E-3  -1.007   
  15.50     0.2133E-3  -1.007     0.5093E-2  -1.039     0.2133E-3  -1.007   
  15.52     0.2117E-3  -1.006     0.4759E-2  -1.038     0.2117E-3  -1.006   
  15.54     0.2103E-3  -1.006     0.4462E-2  -1.037     0.2103E-3  -1.006   
  15.56     0.2093E-3  -1.006     0.4196E-2  -1.036     0.2093E-3  -1.006   
  15.58     0.2087E-3  -1.006     0.3958E-2  -1.035     0.2087E-3  -1.006   
  15.60     0.2086E-3  -1.006     0.3742E-2  -1.035     0.2086E-3  -1.006   
  15.62     0.2089E-3  -1.006     0.3547E-2  -1.034     0.2089E-3  -1.006   
  15.64     0.2097E-3  -1.006     0.3370E-2  -1.033     0.2097E-3  -1.006   
  15.66     0.2110E-3  -1.006     0.3207E-2  -1.033     0.2110E-3  -1.006   
  15.68     0.2128E-3  -1.006     0.3059E-2  -1.032     0.2128E-3  -1.006   
  15.70     0.2151E-3  -1.006     0.2922E-2  -1.031     0.2151E-3  -1.006   
  15.72     0.2181E-3  -1.006     0.2796E-2  -1.031     0.2181E-3  -1.006   
  15.74     0.2218E-3  -1.006     0.2680E-2  -1.030     0.2218E-3  -1.006   
  15.76     0.2263E-3  -1.006     0.2571E-2  -1.030     0.2263E-3  -1.006   
  15.78     0.2319E-3  -1.006     0.2471E-2  -1.029     0.2319E-3  -1.006   
  15.80     0.2386E-3  -1.006     0.2377E-2  -1.029     0.2386E-3  -1.006   
  15.82     0.2468E-3  -1.006     0.2290E-2  -1.028     0.2468E-3  -1.006   
  15.84     0.2568E-3  -1.006     0.2208E-2  -1.028     0.2568E-3  -1.006   
  15.86     0.2689E-3  -1.006     0.2132E-2  -1.027     0.2689E-3  -1.006   
  15.88     0.2838E-3  -1.006     0.2060E-2  -1.027     0.2838E-3  -1.006   
  15.90     0.3021E-3  -1.006     0.1992E-2  -1.027     0.3021E-3  -1.006   
  15.92     0.3248E-3  -1.006     0.1928E-2  -1.026     0.3248E-3  -1.006   
  15.94     0.3531E-3  -1.006     0.1868E-2  -1.026     0.3531E-3  -1.006   
  15.96     0.3887E-3  -1.005     0.1811E-2  -1.025     0.3887E-3  -1.005   
  15.98     0.4336E-3  -1.005     0.1758E-2  -1.025     0.4336E-3  -1.005   
  16.00     0.4906E-3  -1.005     0.1707E-2  -1.025     0.4906E-3  -1.005   
# 
# 08/26/2016 at 12:05 YAMBO @ narro [start]
# 08/26/2016 at 12:05               [end]
#  
# Timing   [Min/Max/Average]: 22s/22s/22s
#
# .-Input file : yambo.in
# | optics                       # [R OPT] Optics
# | bse                          # [R BSE] Bethe Salpeter Equation.
# | bsk                          # [R BSK] Bethe Salpeter Equation kernel
# | bss                          # [R BSS] Bethe Salpeter Equation solver
# | em1s                         # [R Xs] Static Inverse Dielectric Matrix
# | BoseTemp= 0.000000     eV    # Bosonic Temperature
# | FFTGvecs=  50301       RL    # [FFT] Plane-waves
# | X_all_q_nCPU_invert= 1       # [PARALLEL] CPUs for matrix inversion
# | BS_nCPU_invert= 1            # [PARALLEL] CPUs for matrix inversion
# | BS_nCPU_diago= 1             # [PARALLEL] CPUs for matrix diagonalization
# | Chimod= "hartree"            # [X] IP/Hartree/ALDA/LRC/BSfxc
# | BSEmod= "coupling"           # [BSE] resonant/retarded/coupling
# | BSKmod= "SEX"                # [BSE] IP/Hartree/HF/ALDA/SEX/BSfxc
# | BSSmod= "h"                  # [BSS] (h)aydock/(d)iagonalization/(i)nversion/(t)ddft`
# | BSENGexx= 20005        RL    # [BSK] Exchange components
# | BSENGBlk=  437         RL    # [BSK] Screened interaction block size
# | #WehCpl                      # [BSK] eh interaction included also in coupling
# | % KfnQP_E
# |  5.100000 | 1.000000 | 1.000000 |        # [EXTQP BSK BSS] E parameters  (c/v) eV|adim|adim
# | %
# | % BEnRange
# |   6.00000 | 16.00000 | eV    # [BSS] Energy range
# | %
# | % BDmRange
# |   0.10000 |  0.10000 | eV    # [BSS] Damping range
# | %
# | BEnSteps=  500               # [BSS] Energy steps
# | % BLongDir
# | 0.1000E-4 | 0.000    | 0.000    |        # [BSS] [cc] Electric Field
# | %
# | % BSEBands
# |    1 |  38 |                 # [BSK] Bands range
# | %
# | BSHayTrs=0.5000E-3           # [BSS] Relative [o/o] Haydock treshold. Strict(>0)/Average(<0)
# | % BndsRnXs
# |    1 |  40 |                 # [Xs] Polarization function bands
# | %
# | NGsBlkXs=  437         RL    # [Xs] Response block size
# | % DmRngeXs
# |   0.10000 |  0.10000 | eV    # [Xs] Damping range
# | %
# | % LongDrXs
# | 0.1000E-4 | 0.000    | 0.000    |        # [Xs] [cc] Electric Field
# | %
