#                                                           
#  ____  ____     _       ____    ____  ______      ___     
# |_  _||_  _|   / \     |_   \  /   _||_   _ \   ."   `.   
#   \ \  / /    / _ \      |   \/   |    | |_) | /  .-.  \  
#    \ \/ /    / ___ \     | |\  /| |    |  __". | |   | |  
#    _|  |_  _/ /   \ \_  _| |_\/_| |_  _| |__) |\  `-"  /  
#   |______||____| |____||_____||_____||_______/  `.___."   
#                                                           
#                                                           
#                                                           
#        Version 4.3.0 Revision 15734 Hash 50fd1d2          
#                      MPI+SLK Build                        
#                http://www.yambo-code.org                  
#
# Absorption @ Q(1) [q->0 direction] : 1.0000000  0.0000000  0.0000000
#
#
# - Energies      are Teter 93(XC)
# - Wavefunctions are Teter 93(XC)
#
# - The Green`s function is T-ordered -
# - Using the Length Gauge -
# - [r,Vnl] *is* included -
#
#    E/ev[1]       EPS-Im[2]     EPS-Re[3]     EPSo-Im[4]    EPSo-Re[5]
#
    2.0000000     0.6525492     2.4741418     0.6525492     2.4741437
    2.0050000     0.6188163     2.6261216     0.6188164     2.6261235
    2.0100000     0.5882281     2.7706121     0.5882281     2.7706141
    2.0150000     0.5604225     2.9082758     0.5604225     2.9082778
    2.0200000     0.5350886     3.0397038     0.5350886     3.0397058
    2.0250000     0.5119578     3.1654257     0.5119578     3.1654277
    2.0300000     0.4907973     3.2859169     0.4907973     3.2859189
    2.0350000     0.4714046     3.4016058     0.4714046     3.4016077
    2.0400000     0.4536029     3.5128789     0.4536030     3.5128809
    2.0450000     0.4372374     3.6200864     0.4372374     3.6200884
    2.0500000     0.4221717     3.7235461     0.4221717     3.7235481
    2.0550000     0.4082859     3.8235471     0.4082859     3.8235491
    2.0600000     0.3954738     3.9203532     0.3954738     3.9203552
    2.0650000     0.3836413     4.0142053     0.3836413     4.0142073
    2.0700000     0.3727048     4.1053245     0.3727048     4.1053265
    2.0750000     0.3625896     4.1939135     0.3625897     4.1939155
    2.0800000     0.3532293     4.2801591     0.3532293     4.2801612
    2.0850000     0.3445643     4.3642335     0.3445643     4.3642355
    2.0900000     0.3365410     4.4462958     0.3365410     4.4462979
    2.0950000     0.3291114     4.5264935     0.3291115     4.5264955
    2.1000000     0.3222324     4.6049632     0.3222325     4.6049653
    2.1050000     0.3158649     4.6818324     0.3158650     4.6818344
    2.1100000     0.3099737     4.7572194     0.3099738     4.7572214
    2.1150000     0.3045270     4.8312351     0.3045270     4.8312371
    2.1200000     0.2994958     4.9039829     0.2994958     4.9039850
    2.1250000     0.2948541     4.9755601     0.2948541     4.9755622
    2.1300000     0.2905780     5.0460579     0.2905780     5.0460599
    2.1350000     0.2866460     5.1155621     0.2866461     5.1155641
    2.1400000     0.2830385     5.1841537     0.2830386     5.1841558
    2.1450000     0.2797377     5.2519093     0.2797377     5.2519114
    2.1500000     0.2767272     5.3189014     0.2767272     5.3189035
    2.1550000     0.2739923     5.3851989     0.2739923     5.3852010
    2.1600000     0.2715196     5.4508672     0.2715196     5.4508693
    2.1650000     0.2692967     5.5159688     0.2692967     5.5159709
    2.1700000     0.2673126     5.5805632     0.2673126     5.5805653
    2.1750000     0.2655571     5.6447075     0.2655571     5.6447096
    2.1800000     0.2640210     5.7084565     0.2640210     5.7084586
    2.1850000     0.2626959     5.7718628     0.2626959     5.7718649
    2.1900000     0.2615743     5.8349773     0.2615744     5.8349794
    2.1950000     0.2606495     5.8978489     0.2606495     5.8978511
    2.2000000     0.2599152     5.9605252     0.2599153     5.9605273
    2.2050000     0.2593661     6.0230523     0.2593661     6.0230544
    2.2100000     0.2589971     6.0854750     0.2589971     6.0854771
    2.2150000     0.2588040     6.1478370     0.2588040     6.1478391
    2.2200000     0.2587829     6.2101812     0.2587829     6.2101833
    2.2250000     0.2589307     6.2725495     0.2589307     6.2725516
    2.2300000     0.2592443     6.3349830     0.2592444     6.3349851
    2.2350000     0.2597216     6.3975224     0.2597216     6.3975245
    2.2400000     0.2603605     6.4602077     0.2603605     6.4602099
    2.2450000     0.2611595     6.5230786     0.2611595     6.5230807
    2.2500000     0.2621176     6.5861743     0.2621176     6.5861765
    2.2550000     0.2632339     6.6495341     0.2632339     6.6495363
    2.2600000     0.2645082     6.7131969     0.2645082     6.7131991
    2.2650000     0.2659405     6.7772017     0.2659406     6.7772039
    2.2700000     0.2675313     6.8415875     0.2675313     6.8415897
    2.2750000     0.2692813     6.9063936     0.2692813     6.9063957
    2.2800000     0.2711916     6.9716593     0.2711916     6.9716615
    2.2850000     0.2732638     7.0374244     0.2732638     7.0374266
    2.2900000     0.2754998     7.1037292     0.2754999     7.1037314
    2.2950000     0.2779019     7.1706142     0.2779019     7.1706164
    2.3000000     0.2804727     7.2381210     0.2804727     7.2381231
    2.3050000     0.2832153     7.3062913     0.2832153     7.3062935
    2.3100000     0.2861331     7.3751681     0.2861331     7.3751703
    2.3150000     0.2892299     7.4447950     0.2892300     7.4447972
    2.3200000     0.2925102     7.5152168     0.2925102     7.5152190
    2.3250000     0.2959786     7.5864793     0.2959786     7.5864815
    2.3300000     0.2996403     7.6586294     0.2996403     7.6586316
    2.3350000     0.3035010     7.7317155     0.3035010     7.7317177
    2.3400000     0.3075669     7.8057875     0.3075670     7.8057897
    2.3450000     0.3118449     7.8808967     0.3118449     7.8808989
    2.3500000     0.3163421     7.9570962     0.3163421     7.9570984
    2.3550000     0.3210665     8.0344410     0.3210665     8.0344432
    2.3600000     0.3260267     8.1129880     0.3260267     8.1129902
    2.3650000     0.3312320     8.1927963     0.3312320     8.1927986
    2.3700000     0.3366922     8.2739275     0.3366922     8.2739297
    2.3750000     0.3424182     8.3564454     0.3424183     8.3564476
    2.3800000     0.3484217     8.4404168     0.3484217     8.4404191
    2.3850000     0.3547150     8.5259113     0.3547150     8.5259136
    2.3900000     0.3613118     8.6130017     0.3613118     8.6130040
    2.3950000     0.3682264     8.7017642     0.3682264     8.7017665
    2.4000000     0.3754747     8.7922785     0.3754747     8.7922808
    2.4050000     0.3830736     8.8846284     0.3830736     8.8846307
    2.4100000     0.3910412     8.9789019     0.3910412     8.9789041
    2.4150000     0.3993973     9.0751915     0.3993974     9.0751938
    2.4200000     0.4081633     9.1735949     0.4081633     9.1735971
    2.4250000     0.4173621     9.2742147     0.4173622     9.2742170
    2.4300000     0.4270188     9.3771597     0.4270188     9.3771620
    2.4350000     0.4371603     9.4825446     0.4371603     9.4825469
    2.4400000     0.4478160     9.5904910     0.4478160     9.5904933
    2.4450000     0.4590177     9.7011279     0.4590177     9.7011302
    2.4500000     0.4708000     9.8145920     0.4708001     9.8145943
    2.4550000     0.4832007     9.9310287     0.4832007     9.9310310
     2.460000      0.496261     10.050593      0.496261     10.050595
     2.465000      0.510025     10.173450      0.510025     10.173452
     2.470000      0.524543     10.299775      0.524543     10.299777
     2.475000      0.539868     10.429757      0.539868     10.429759
     2.480000      0.556059     10.563597      0.556059     10.563599
     2.485000      0.573180     10.701512      0.573180     10.701514
     2.490000      0.591304     10.843733      0.591304     10.843735
     2.495000      0.610510     10.990510      0.610510     10.990513
     2.500000      0.630883     11.142112      0.630883     11.142115
     2.505000      0.652521     11.298829      0.652521     11.298832
     2.510000      0.675531     11.460975      0.675531     11.460978
     2.515000      0.700033     11.628890      0.700033     11.628892
     2.520000      0.726160     11.802942      0.726160     11.802944
     2.525000      0.754063     11.983533      0.754063     11.983535
     2.530000      0.783908     12.171099      0.783908     12.171102
     2.535000      0.815885     12.366119      0.815885     12.366122
     2.540000      0.850209     12.569115      0.850209     12.569117
     2.545000      0.887123     12.780660      0.887123     12.780662
     2.550000      0.926902     13.001385      0.926902     13.001387
     2.555000      0.969864     13.231986      0.969864     13.231988
     2.560000      1.016372     13.473231      1.016372     13.473233
     2.565000      1.066844     13.725974      1.066844     13.725977
     2.570000      1.121766     13.991164      1.121766     13.991166
     2.575000      1.181704     14.269858      1.181704     14.269861
     2.580000      1.247317     14.563242      1.247318     14.563245
     2.585000      1.319388     14.872646      1.319388     14.872649
     2.590000      1.398837     15.199569      1.398837     15.199572
     2.595000      1.486768     15.545706      1.486768     15.545709
     2.600000      1.584504     15.912981      1.584504     15.912984
     2.605000      1.693647     16.303587      1.693647     16.303589
     2.610000      1.816151     16.720027      1.816151     16.720030
     2.615000      1.954426     17.165177      1.954426     17.165179
     2.620000      2.111464     17.642342      2.111464     17.642345
     2.625000      2.291027     18.155336      2.291027     18.155339
     2.630000      2.497889     18.708562      2.497889     18.708565
     2.635000      2.738190     19.307102      2.738190     19.307105
     2.640000      3.019918     19.956798      3.019918     19.956801
     2.645000      3.353617     20.664308      3.353617     20.664310
     2.650000      3.753395     21.437072      3.753395     21.437074
     2.655000      4.238415     22.283098      4.238415     22.283101
     2.660000      4.835082     23.210324      4.835082     23.210326
     2.665000      5.580276     24.225094      5.580276     24.225096
     2.670000      6.526029     25.328797      6.526029     25.328800
     2.675000      7.745964     26.510658      7.745964     26.510661
     2.680000      9.342867     27.732703      9.342867     27.732706
     2.685000     11.453182     28.899521     11.453182     28.899523
     2.690000     14.232810     29.802114     14.232810     29.802117
     2.695000     17.780201     30.034202     17.780201     30.034204
     2.700000     21.913594     28.946486     21.913594     28.946488
     2.705000     25.797175     25.892783     25.797175     25.892786
     2.710000     27.917815     21.048825     27.917815     21.048827
     2.715000     27.241872     16.009942     27.241872     16.009944
     2.720000     24.442388     12.621786     24.442388     12.621789
     2.725000     21.097611     11.427723     21.097611     11.427726
     2.730000     18.289206     11.901813     18.289206     11.901816
     2.735000     16.375128     13.357929     16.375128     13.357932
     2.740000     15.357274     15.332091     15.357274     15.332094
     2.745000     15.160016     17.573849     15.160016     17.573851
     2.750000     15.744705     19.951444     15.744705     19.951446
     2.755000     17.144003     22.368057     17.144003     22.368060
     2.760000     19.464385     24.687221     19.464385     24.687223
     2.765000     22.855562     26.645912     22.855562     26.645915
     2.770000     27.395761     27.756206     27.395761     27.756209
     2.775000     32.811655     27.303025     32.811655     27.303028
     2.780000     38.139576     24.748511     38.139576     24.748514
     2.785000     42.054763     20.601714     42.054763     20.601716
     2.790000     44.304623     16.424614     44.304623     16.424617
     2.795000     46.245811     13.060319     46.245811     13.060321
     2.800000     49.205371      9.487500     49.205371      9.487503
     2.805000     52.781491      3.746022     52.781491      3.746025
     2.810000     54.558470     -5.050746     54.558470     -5.050743
     2.815000     52.000881    -15.002890     52.000881    -15.002888
     2.820000     45.335434    -22.725247     45.335434    -22.725245
     2.825000     37.147062    -26.631820     37.147062    -26.631818
     2.830000     29.625403    -27.411702     29.625403    -27.411700
     2.835000     23.575589    -26.386556     23.575589    -26.386554
     2.840000     18.968357    -24.541132     18.968357    -24.541129
     2.845000     15.516199    -22.423765     15.516199    -22.423763
     2.850000     12.926067    -20.297840     12.926067    -20.297837
     2.855000     10.966674    -18.274950     10.966674    -18.274948
     2.860000      9.470222    -16.392699      9.470222    -16.392696
     2.865000      8.318564    -14.654563      8.318564    -14.654560
     2.870000      7.429331    -13.049249      7.429331    -13.049247
     2.875000      6.745393    -11.559807      6.745393    -11.559804
     2.880000      6.227589    -10.167770      6.227589    -10.167768
    2.8850000     5.8499754    -8.8549423     5.8499750    -8.8549401
    2.8900000     5.5969066    -7.6040808     5.5969061    -7.6040787
    2.8950000     5.4614952    -6.3991587     5.4614946    -6.3991566
    2.9000000     5.4452185    -5.2255887     5.4452177    -5.2255867
    2.9050000     5.5586191    -4.0707838     5.5586181    -4.0707816
    2.9100000     5.8232068    -2.9255817     5.8232056    -2.9255794
    2.9150000     6.2747394    -1.7875309     6.2747381    -1.7875283
    2.9200000     6.9678410    -0.6680118     6.9678397    -0.6680089
    2.9250000     7.9806538     0.3929613     7.9806526     0.3929644
    2.9300000     9.4137405     1.2976951     9.4137395     1.2976984
     2.935000     11.364589      1.840681     11.364588      1.840684
     2.940000     13.832405      1.650026     13.832404      1.650030
     2.945000     16.497386      0.219361     16.497385      0.219364
     2.950000     18.493260     -2.730449     18.493260     -2.730446
     2.955000     18.747156     -6.596579     18.747155     -6.596576
     2.960000     17.049072     -9.993636     17.049072     -9.993633
     2.965000     14.311165    -11.983591     14.311165    -11.983588
     2.970000     11.548347    -12.627335     11.548347    -12.627332
     2.975000      9.240782    -12.421430      9.240782    -12.421427
     2.980000      7.458973    -11.796490      7.458973    -11.796488
     2.985000      6.118436    -11.008570      6.118436    -11.008567
     2.990000      5.111152    -10.186505      5.111152    -10.186502
    2.9950000     4.3468344    -9.3884458     4.3468339    -9.3884432
    3.0000000     3.7586434    -8.6372911     3.7586429    -8.6372885
# 
# 09/19/2018 at 10:26 YAMBO @ narro [start]
# 09/19/2018 at 10:26               [end]
#  
# Timing   [Min/Max/Average]: 08s/08s/08s
#
# .-Input file : yambo.in
# | optics                         # [R OPT] Optics
# | chi                            # [R CHI] Dyson equation for Chi.
# | BoseTemp= 0.000000     eV      # Bosonic Temperature
# | FFTGvecs=  3281        RL      # [FFT] Plane-waves
# | Chimod= "Hartree"              # [X] IP/Hartree/ALDA/LRC/PF/BSfxc
# | NGsBlkXd= 1            Ry      # [Xd] Response block size
# | % QpntsRXd
# |  1 | 1 |                       # [Xd] Transferred momenta
# | %
# | % BndsRnXd
# |   6 | 15 |                     # [Xd] Polarization function bands
# | %
# | % EnRngeXd
# |  2.000000 | 3.000000 | eV      # [Xd] Energy range
# | %
# | % DmRngeXd
# |   0.02000 |  0.02000 | eV      # [Xd] Damping range
# | %
# | ETStpsXd= 201                  # [Xd] Total Energy steps
# | % LongDrXd
# | 0.1000E-4 | 0.000    | 0.000    |        # [Xd] [cc] Electric Field
# | %
