#                                                           
#  __  __   ________   ___ __ __    _______   ______        
# /_/\/_/\ /_______/\ /__//_//_/\ /_______/\ /_____/\       
# \ \ \ \ \\::: _  \ \\::\| \| \ \\::: _  \ \\:::_ \ \      
#  \:\_\ \ \\::(_)  \ \\:.      \ \\::(_)  \/_\:\ \ \ \     
#   \::::_\/ \:: __  \ \\:.\-/\  \ \\::  _  \ \\:\ \ \ \    
#     \::\ \  \:.\ \  \ \\. \  \  \ \\::(_)  \ \\:\_\ \ \   
#      \__\/   \__\/\__\/ \__\/ \__\/ \_______\/ \_____\/   
#                                                           
#                                                           
#        Version 4.1.0 Revision 13855 Hash fb58c1c          
#                        MPI Build                          
#                http://www.yambo-code.org                  
#
# Absorption @ Q(1) [q->0 direction] :0.1000E-4  0.000     0.000   
#
#
# - Energies      are Teter 93(XC)+Scissor
# - Wavefunctions are Teter 93(XC)
#
# - The Green`s function is Resonant -
# - Using the Length Gauge -
# - [r,Vnl] *is* included -
#
#   BSK|Identifier              :2754
#      |Dimension               :2304
#      |Bands                   :11 - 30
#      |Exchange           [res]: yes
#      |Correlation        [res]: yes
#      |Kernel`s coupling       : no
#      |Exchange           [cpl]: no
#      |Correlation        [cpl]: no
#      |W interaction is bare   : no
#      |ALDA kernel in R-space  : no
#      |RL vectors    [exchange]:121
#      |RL vectors [correlation]:11
#      |E/h energy range    [ev]:-1.000000 - -1.000000
#      |Coupling range     [o/o]: 100.0000 -  100.0000
#    W |Interaction is diagonal : no
#      |Matrix size             :11
#      |Bands                   :11 - 30
#      |e/h energy range    [ev]:-1.000000 - -1.000000
#      |Poles              [o/o]: 100.0000
#      |RL vectors in the sum   :3281
#      |[r,Vnl] included        : yes
#      |Field direction         :0.1000E-4  0.000000  0.000000
#      |Coulomb Cutoff          :none
#      |xc-Kernel               :none
#   RIM|RL components      [col]:0
#      |Random points      [col]:0
#  
#   Haydock|Accuracy (requested) [o/o]:   0.0050
#          |Accuracy (reached)   [o/o]:   0.0045
#          |Iteration                 :304
#
#  E/ev[1]    EPS-Im[2]  EPS-Re[3]  EPSo-Im[4] EPSo-Re[5] EPS`-Im[6] EPS`-Re[7]
#
   1.25000    0.09815    5.53677    0.02241    3.47610    0.09815    5.53677
   1.25501    0.09968    5.56150    0.02252    3.48173    0.09968    5.56150
   1.26003    0.10125    5.58662    0.02264    3.48739    0.10125    5.58662
   1.26504    0.10287    5.61214    0.02277    3.49308    0.10287    5.61214
   1.27005    0.10453    5.63806    0.02289    3.49879    0.10453    5.63806
   1.27506    0.10625    5.66441    0.02301    3.50454    0.10625    5.66441
   1.28008    0.10801    5.69118    0.02314    3.51033    0.10801    5.69118
   1.28509    0.10983    5.71841    0.02326    3.51614    0.10983    5.71841
   1.29010    0.11171    5.74609    0.02339    3.52198    0.11171    5.74609
   1.29511    0.11365    5.77425    0.02352    3.52786    0.11365    5.77425
   1.30013    0.11564    5.80290    0.02365    3.53377    0.11564    5.80290
   1.30514    0.11770    5.83205    0.02378    3.53971    0.11770    5.83205
   1.31015    0.11983    5.86172    0.02391    3.54569    0.11983    5.86172
   1.31516    0.12204    5.89193    0.02404    3.55169    0.12204    5.89193
   1.32018    0.12431    5.92270    0.02418    3.55773    0.12431    5.92270
   1.32519    0.12666    5.95404    0.02431    3.56381    0.12666    5.95404
   1.33020    0.12910    5.98598    0.02445    3.56992    0.12910    5.98598
   1.33521    0.13162    6.01853    0.02459    3.57606    0.13162    6.01853
   1.34023    0.13423    6.05172    0.02473    3.58224    0.13423    6.05172
   1.34524    0.13694    6.08557    0.02487    3.58845    0.13694    6.08557
   1.35025    0.13975    6.12010    0.02501    3.59470    0.13975    6.12010
   1.35526    0.14266    6.15534    0.02515    3.60098    0.14266    6.15534
   1.36028    0.14569    6.19132    0.02530    3.60730    0.14569    6.19132
   1.36529    0.14883    6.22806    0.02545    3.61366    0.14883    6.22806
   1.37030    0.15210    6.26560    0.02559    3.62006    0.15210    6.26560
   1.37531    0.15550    6.30396    0.02574    3.62649    0.15550    6.30396
   1.38033    0.15904    6.34318    0.02590    3.63296    0.15904    6.34318
   1.38534    0.16273    6.38330    0.02605    3.63947    0.16273    6.38330
   1.39035    0.16657    6.42434    0.02620    3.64601    0.16657    6.42434
   1.39536    0.17058    6.46636    0.02636    3.65259    0.17058    6.46636
   1.40038    0.17477    6.50939    0.02652    3.65922    0.17477    6.50939
   1.40539    0.17915    6.55347    0.02668    3.66588    0.17915    6.55347
   1.41040    0.18372    6.59866    0.02684    3.67259    0.18372    6.59866
   1.41541    0.18852    6.64501    0.02700    3.67933    0.18852    6.64501
   1.42043    0.19354    6.69256    0.02716    3.68611    0.19354    6.69256
   1.42544    0.19880    6.74138    0.02733    3.69294    0.19880    6.74138
   1.43045    0.20433    6.79153    0.02750    3.69981    0.20433    6.79153
   1.43546    0.21014    6.84308    0.02767    3.70672    0.21014    6.84308
   1.44048    0.21625    6.89609    0.02784    3.71367    0.21625    6.89609
   1.44549    0.22268    6.95063    0.02801    3.72067    0.22268    6.95063
   1.45050    0.22947    7.00680    0.02819    3.72771    0.22947    7.00680
   1.45551    0.23663    7.06467    0.02836    3.73479    0.23663    7.06467
   1.46053    0.24420    7.12435    0.02854    3.74192    0.24420    7.12435
   1.46554    0.25220    7.18593    0.02873    3.74910    0.25220    7.18593
   1.47055    0.26069    7.24953    0.02891    3.75631    0.26069    7.24953
   1.47556    0.26969    7.31525    0.02909    3.76358    0.26969    7.31525
   1.48058    0.27926    7.38324    0.02928    3.77089    0.27926    7.38324
   1.48559    0.28944    7.45362    0.02947    3.77825    0.28944    7.45362
   1.49060    0.30030    7.52657    0.02966    3.78566    0.30030    7.52657
   1.49561    0.31189    7.60223    0.02986    3.79311    0.31189    7.60223
   1.50063    0.32429    7.68079    0.03005    3.80062    0.32429    7.68079
   1.50564    0.33759    7.76245    0.03025    3.80817    0.33759    7.76245
   1.51065    0.35187    7.84743    0.03045    3.81578    0.35187    7.84743
   1.51566    0.36723    7.93597    0.03065    3.82343    0.36723    7.93597
   1.52068    0.38381    8.02833    0.03086    3.83114    0.38381    8.02833
   1.52569    0.40173    8.12482    0.03107    3.83889    0.40173    8.12482
   1.53070    0.42116    8.22575    0.03128    3.84670    0.42116    8.22575
   1.53571    0.44228    8.33149    0.03149    3.85457    0.44228    8.33149
   1.54073    0.46529    8.44244    0.03171    3.86248    0.46529    8.44244
   1.54574    0.49045    8.55905    0.03193    3.87045    0.49045    8.55905
   1.55075    0.51805    8.68184    0.03215    3.87848    0.51805    8.68184
   1.55576    0.54842    8.81136    0.03237    3.88656    0.54842    8.81136
   1.56078    0.58197    8.94829    0.03260    3.89470    0.58197    8.94829
   1.56579    0.61917    9.09333    0.03283    3.90289    0.61917    9.09333
   1.57080    0.66061    9.24734    0.03306    3.91114    0.66061    9.24734
   1.57581    0.70698    9.41126    0.03329    3.91945    0.70698    9.41126
   1.58083    0.75913    9.58619    0.03353    3.92782    0.75913    9.58619
   1.58584    0.81808    9.77338    0.03377    3.93625    0.81808    9.77338
   1.59085    0.88513    9.97429    0.03402    3.94474    0.88513    9.97429
   1.59586    0.96187   10.19060    0.03426    3.95330    0.96187   10.19060
   1.60088    1.05032   10.42428    0.03451    3.96191    1.05032   10.42428
   1.60589    1.15304   10.67758    0.03477    3.97059    1.15304   10.67758
   1.61090    1.27333   10.95317    0.03502    3.97933    1.27333   10.95317
   1.61591    1.41551   11.25409    0.03528    3.98813    1.41551   11.25409
   1.62093    1.58525   11.58391    0.03555    3.99701    1.58525   11.58391
   1.62594    1.79014   11.94661    0.03582    4.00594    1.79014   11.94661
   1.63095    2.04051   12.34661    0.03609    4.01495    2.04051   12.34661
   1.63596    2.35054   12.78847    0.03636    4.02402    2.35054   12.78847
   1.64098    2.74003   13.27625    0.03664    4.03316    2.74003   13.27625
   1.64599    3.23690   13.81204    0.03692    4.04238    3.23690   13.81204
   1.65100    3.88092   14.39284    0.03721    4.05166    3.88092   14.39284
   1.65602    4.72836   15.00377    0.03750    4.06102    4.72836   15.00377
   1.66103    5.85697   15.60435    0.03780    4.07045    5.85697   15.60435
   1.66604    7.36565   16.10143    0.03809    4.07996    7.36565   16.10143
   1.67105    9.35188   16.30196    0.03840    4.08953    9.35188   16.30196
   1.67607   11.82546   15.85662    0.03871    4.09919   11.82546   15.85662
   1.68108   14.50343   14.28254    0.03902    4.10892   14.50343   14.28254
   1.68609   16.58699   11.28932    0.03933    4.11874   16.58699   11.28932
   1.69110   17.04689    7.40042    0.03966    4.12863   17.04689    7.40042
   1.69612   15.62528    3.91784    0.03998    4.13860   15.62528    3.91784
   1.70113   13.15440    1.78063    0.04031    4.14866   13.15440    1.78063
   1.70614   10.62035    0.97276    0.04065    4.15880   10.62035    0.97276
   1.71115    8.51126    1.02747    0.04099    4.16902    8.51126    1.02747
   1.71617    6.91016    1.52571    0.04133    4.17933    6.91016    1.52571
   1.72118    5.74201    2.21578    0.04169    4.18972    5.74201    2.21578
   1.72619    4.90582    2.97114    0.04204    4.20021    4.90582    2.97114
   1.73120    4.31725    3.73567    0.04241    4.21078    4.31725    3.73567
   1.73622    3.91529    4.48866    0.04277    4.22145    3.91529    4.48866
   1.74123    3.65871    5.22644    0.04315    4.23221    3.65871    5.22644
   1.74624    3.52141    5.95331    0.04353    4.24306    3.52141    5.95331
   1.75125    3.48880    6.67728    0.04391    4.25401    3.48880    6.67728
   1.75627    3.55562    7.40795    0.04431    4.26506    3.55562    7.40795
   1.76128    3.72513    8.15551    0.04471    4.27620    3.72513    8.15551
   1.76629    4.00934    8.92983    0.04511    4.28745    4.00934    8.92983
   1.77130    4.43081    9.73965    0.04552    4.29880    4.43081    9.73965
   1.77632    5.02552   10.58962    0.04594    4.31025    5.02552   10.58962
   1.78133    5.84796   11.47606    0.04637    4.32181    5.84796   11.47606
   1.78634    6.97761   12.37615    0.04680    4.33348    6.97761   12.37615
   1.79135    8.52489   13.22650    0.04724    4.34525    8.52489   13.22650
   1.79637   10.62808   13.88191    0.04769    4.35714   10.62808   13.88191
   1.80138   13.41308   14.04553    0.04815    4.36914   13.41308   14.04553
   1.80639   16.85056   13.19473    0.04861    4.38125   16.85056   13.19473
   1.81140   20.44651   10.65586    0.04909    4.39348   20.44651   10.65586
   1.81642   22.98040    6.14973    0.04957    4.40583   22.98040    6.14973
   1.82143   23.09299    0.62937    0.05006    4.41831   23.09299    0.62937
   1.82644   20.69756   -4.05985    0.05056    4.43090   20.69756   -4.05985
   1.83145   17.08537   -6.82623    0.05106    4.44362   17.08537   -6.82623
   1.83647   13.53768   -7.85743    0.05158    4.45647   13.53768   -7.85743
   1.84148   10.61589   -7.82195    0.05211    4.46945   10.61589   -7.82195
   1.84649    8.37858   -7.26696    0.05265    4.48257    8.37858   -7.26696
   1.85150    6.70547   -6.51073    0.05319    4.49582    6.70547   -6.51073
   1.85652    5.45460   -5.71153    0.05375    4.50920    5.45460   -5.71153
   1.86153    4.51005   -4.94039    0.05432    4.52273    4.51005   -4.94039
   1.86654    3.78662   -4.22513    0.05490    4.53641    3.78662   -4.22513
   1.87155    3.22394   -3.57326    0.05549    4.55023    3.22394   -3.57326
   1.87657    2.77960   -2.98333    0.05610    4.56419    2.77960   -2.98333
   1.88158    2.42364   -2.45036    0.05671    4.57831    2.42364   -2.45036
   1.88659    2.13469   -1.96823    0.05734    4.59259    2.13469   -1.96823
   1.89160    1.89728   -1.53086    0.05798    4.60702    1.89728   -1.53086
   1.89662    1.70005   -1.13267    0.05864    4.62162    1.70005   -1.13267
   1.90163    1.53457   -0.76867    0.05931    4.63637    1.53457   -0.76867
   1.90664    1.39446   -0.43457    0.05999    4.65130    1.39446   -0.43457
   1.91165    1.27485   -0.12662    0.06069    4.66641    1.27485   -0.12662
   1.91667    1.17200    0.15834    0.06140    4.68168    1.17200    0.15834
   1.92168    1.08294    0.42308    0.06213    4.69715    1.08294    0.42308
   1.92669    1.00536    0.66995    0.06287    4.71279    1.00536    0.66995
   1.93170    0.93739    0.90099    0.06363    4.72861    0.93739    0.90099
   1.93672    0.87755    1.11793    0.06441    4.74464    0.87755    1.11793
   1.94173    0.82461    1.32231    0.06521    4.76086    0.82461    1.32231
   1.94674    0.77759    1.51546    0.06602    4.77727    0.77759    1.51546
   1.95175    0.73566    1.69850    0.06685    4.79390    0.73566    1.69850
   1.95677    0.69814    1.87246    0.06771    4.81073    0.69814    1.87246
   1.96178    0.66446    2.03824    0.06858    4.82778    0.66446    2.03824
   1.96679    0.63414    2.19662    0.06947    4.84505    0.63414    2.19662
   1.97180    0.60678    2.34829    0.07039    4.86255    0.60678    2.34829
   1.97682    0.58203    2.49388    0.07133    4.88027    0.58203    2.49388
   1.98183    0.55960    2.63394    0.07229    4.89824    0.55960    2.63394
   1.98684    0.53923    2.76895    0.07327    4.91645    0.53923    2.76895
   1.99185    0.52071    2.89938    0.07429    4.93491    0.52071    2.89938
   1.99687    0.50385    3.02561    0.07532    4.95362    0.50385    3.02561
   2.00188    0.48848    3.14801    0.07639    4.97260    0.48848    3.14801
   2.00689    0.47447    3.26692    0.07748    4.99184    0.47447    3.26692
   2.01190    0.46167    3.38263    0.07860    5.01136    0.46167    3.38263
   2.01692    0.45000    3.49542    0.07976    5.03115    0.45000    3.49542
   2.02193    0.43935    3.60553    0.08094    5.05125    0.43935    3.60553
   2.02694    0.42963    3.71320    0.08216    5.07164    0.42963    3.71320
   2.03195    0.42076    3.81864    0.08341    5.09234    0.42076    3.81864
   2.03697    0.41270    3.92204    0.08469    5.11336    0.41270    3.92204
   2.04198    0.40536    4.02360    0.08602    5.13470    0.40536    4.02360
   2.04699    0.39871    4.12346    0.08738    5.15638    0.39871    4.12346
   2.05201    0.39269    4.22180    0.08879    5.17840    0.39269    4.22180
   2.05702    0.38726    4.31876    0.09023    5.20077    0.38726    4.31876
   2.06203    0.38238    4.41448    0.09172    5.22351    0.38238    4.41448
   2.06704    0.37802    4.50908    0.09326    5.24663    0.37802    4.50908
   2.07206    0.37416    4.60269    0.09484    5.27013    0.37416    4.60269
   2.07707    0.37076    4.69543    0.09647    5.29404    0.37076    4.69543
   2.08208    0.36780    4.78739    0.09816    5.31835    0.36780    4.78739
   2.08709    0.36525    4.87870    0.09990    5.34309    0.36525    4.87870
  2.092105   0.363111   4.969444   0.101698   5.368279   0.363111   4.969444
  2.097118   0.361351   5.059720   0.103557   5.393915   0.361351   5.059720
  2.102130   0.359960   5.149611   0.105480   5.420023   0.359960   5.149611
  2.107143   0.358923   5.239224   0.107469   5.446616   0.358923   5.239224
  2.112155   0.358230   5.328634   0.109528   5.473711   0.358230   5.328634
  2.117168   0.357871   5.417928   0.111660   5.501324   0.357871   5.417928
  2.122180   0.357837   5.507177   0.113870   5.529478   0.357837   5.507177
  2.127193   0.358121   5.596470   0.116161   5.558197   0.358121   5.596470
  2.132205   0.358716   5.685881   0.118537   5.587487   0.358716   5.685881
  2.137218   0.359619   5.775486   0.121004   5.617379   0.359619   5.775486
  2.142231   0.360825   5.865356   0.123566   5.647889   0.360825   5.865356
  2.147243   0.362332   5.955571   0.126229   5.679060   0.362332   5.955571
  2.152256   0.364138   6.046198   0.128998   5.710894   0.364138   6.046198
  2.157268   0.366243   6.137319   0.131879   5.743424   0.366243   6.137319
  2.162281   0.368647   6.229005   0.134880   5.776690   0.368647   6.229005
  2.167293   0.371351   6.321329   0.138006   5.810713   0.371351   6.321329
  2.172306   0.374358   6.414364   0.141266   5.845515   0.374358   6.414364
  2.177318   0.377671   6.508184   0.144669   5.881150   0.377671   6.508184
  2.182331   0.381294   6.602871   0.148222   5.917641   0.381294   6.602871
  2.187343   0.385233   6.698494   0.151936   5.955029   0.385233   6.698494
  2.192356   0.389494   6.795139   0.155820   5.993358   0.389494   6.795139
  2.197368   0.394084   6.892880   0.159888   6.032666   0.394084   6.892880
  2.202381   0.399011   6.991802   0.164149   6.072996   0.399011   6.991802
  2.207393   0.404286   7.091989   0.168619   6.114407   0.404286   7.091989
  2.212406   0.409919   7.193527   0.173312   6.156937   0.409919   7.193527
  2.217419   0.415921   7.296505   0.178242   6.200665   0.415921   7.296505
  2.222431   0.422307   7.401018   0.183429   6.245622   0.422307   7.401018
  2.227443   0.429090   7.507158   0.188891   6.291890   0.429090   7.507158
  2.232456   0.436288   7.615027   0.194649   6.339528   0.436288   7.615027
  2.237469   0.443918   7.724730   0.200725   6.388631   0.443918   7.724730
  2.242481   0.452000   7.836375   0.207146   6.439253   0.452000   7.836375
  2.247494   0.460555   7.950063   0.213938   6.491491   0.460555   7.950063
  2.252506   0.469608   8.065937   0.221134   6.545444   0.469608   8.065937
  2.257519   0.479183   8.184103   0.228766   6.601201   0.479183   8.184103
  2.262531   0.489310   8.304701   0.236874   6.658875   0.489310   8.304701
  2.267544   0.500019   8.427862   0.245498   6.718589   0.500019   8.427862
  2.272556   0.511344   8.553738   0.254687   6.780460   0.511344   8.553738
  2.277569   0.523324   8.682481   0.264492   6.844638   0.523324   8.682481
  2.282582   0.535999   8.814253   0.274974   6.911273   0.535999   8.814253
  2.287594   0.549414   8.949232   0.286198   6.980530   0.549414   8.949232
  2.292607   0.563619   9.087598   0.298239   7.052599   0.563619   9.087598
  2.297619   0.578670   9.229553   0.311183   7.127666   0.578670   9.229553
  2.302632   0.594625   9.375299   0.325125   7.205966   0.594625   9.375299
  2.307644   0.611554   9.525075   0.340175   7.287735   0.611554   9.525075
  2.312657   0.629530   9.679118   0.356460   7.373233   0.629530   9.679118
  2.317669   0.648636   9.837689   0.374123   7.462783   0.648636   9.837689
   2.32268    0.66896   10.00106    0.39333    7.55670    0.66896   10.00106
   2.32769    0.69062   10.16955    0.41427    7.65537    0.69062   10.16955
   2.33271    0.71371   10.34348    0.43718    7.75919    0.71371   10.34348
   2.33772    0.73838   10.52321    0.46230    7.86863    0.73838   10.52321
   2.34273    0.76476   10.70911    0.48995    7.98423    0.76476   10.70911
   2.34774    0.79303   10.90163    0.52049    8.10657    0.79303   10.90163
   2.35276    0.82336   11.10120    0.55434    8.23630    0.82336   11.10120
   2.35777    0.85599   11.30836    0.59203    8.37421    0.85599   11.30836
   2.36278    0.89114   11.52363    0.63416    8.52117    0.89114   11.52363
   2.36779    0.92911   11.74765    0.68148    8.67817    0.92911   11.74765
   2.37281    0.97021   11.98108    0.73490    8.84634    0.97021   11.98108
   2.37782    1.01484   12.22469    0.79554    9.02702    1.01484   12.22469
   2.38283    1.06344   12.47930    0.86478    9.22173    1.06344   12.47930
   2.38784    1.11653   12.74585    0.94435    9.43225    1.11653   12.74585
   2.39286    1.17472   13.02540    1.03644    9.66065    1.17472   13.02540
   2.39787    1.23876   13.31910    1.14383    9.90931    1.23876   13.31910
   2.40288    1.30954   13.62833    1.27013   10.18108    1.30954   13.62833
   2.40789    1.38812   13.95457    1.42004   10.47918    1.38812   13.95457
   2.41291    1.47584   14.29955    1.59979   10.80737    1.47584   14.29955
   2.41792    1.57430   14.66524    1.81771   11.16988    1.57430   14.66524
   2.42293    1.68553   15.05388    2.08517   11.57137    1.68553   15.05388
   2.42794    1.81208   15.46807    2.41780   12.01656    1.81208   15.46807
   2.43296    1.95719   15.91077    2.83749   12.50954    1.95719   15.91077
   2.43797    2.12507   16.38542    3.37518   13.05200    2.12507   16.38542
   2.44298    2.32121   16.89587    4.07491   13.63961    2.32121   16.89587
   2.44800    2.55291   17.44654    4.99900   14.25416    2.55291   17.44654
   2.45301    2.82998   18.04219    6.23302   14.84769    2.82998   18.04219
   2.45802    3.16592   18.68790    7.88430   15.31142    3.16592   18.68790
   2.46303    3.57938   19.38820   10.05289   15.42279    3.57938   19.38820
   2.46805    4.09661   20.14587   12.72722   14.78677    4.09661   20.14587
   2.47306    4.75472   20.95879   15.54923   12.88274    4.75472   20.95879
   2.47807    5.60601   21.81363   17.59825    9.46650    5.60601   21.81363
   2.48308    6.72188   22.67262   17.80590    5.23295    6.72188   22.67262
   2.48810    8.19107   23.44806   16.05983    1.60931    8.19107   23.44806
   2.49311   10.09512   23.95963   13.34447   -0.52796   10.09512   23.95963
   2.49812   12.42155   23.88914   10.66376   -1.30526   12.42155   23.88914
   2.50313   14.87566   22.82569    8.46415   -1.23756   14.87566   22.82569
   2.50815   16.72047   20.59421    6.79689   -0.74987   16.72047   20.59421
   2.51316   17.12342   17.76724    5.57173   -0.08951   17.12342   17.76724
   2.51817   16.01838   15.48206    4.68105    0.62100   16.01838   15.48206
   2.52318   14.20612   14.43486    4.03717    1.32760   14.20612   14.43486
   2.52820   12.51066   14.52258    3.57670    2.01026   12.51066   14.52258
   2.53321   11.32024   15.31887    3.25621    2.66520   11.32024   15.31887
   2.53822   10.70887   16.44573    3.04717    3.29601   10.70887   16.44573
   2.54323   10.62204   17.63144    2.93209    3.90946   10.62204   17.63144
   2.54825   10.93249   18.66652    2.90201    4.51374   10.93249   18.66652
   2.55326   11.40799   19.41873    2.95533    5.11721   11.40799   19.41873
   2.55827   11.74403   19.96016    3.09758    5.72790   11.74403   19.96016
   2.56328   11.79670   20.60831    3.34229    6.35252   11.79670   20.60831
   2.56830   11.73558   21.66358    3.71295    6.99477   11.73558   21.66358
   2.57331   11.84510   23.18858    4.24624    7.65158   11.84510   23.18858
   2.57832   12.31699   25.09807    4.99627    8.30541   12.31699   25.09807
   2.58333   13.25121   27.30152    6.03805    8.90841   13.25121   27.30152
   2.58835   14.72849   29.74483    7.46276    9.35211   14.72849   29.74483
   2.59336   16.86264   32.39461    9.34308    9.41879   16.86264   32.39460
   2.59837   19.83113   35.20336   11.62123    8.73927   19.83113   35.20336
   2.60338   23.90021   38.06096   13.88955    6.88208   23.90021   38.06095
   2.60840   29.43877   40.70685   15.27427    3.78253   29.43877   40.70684
   2.61341   36.88758   42.57224   14.97624    0.23883   36.88758   42.57224
   2.61842   46.55790   42.53683   13.16183   -2.54906   46.55787   42.53685
   2.62343   58.02685   38.77195   10.75471   -4.05154   58.02690   38.77196
   2.62845   69.07679   29.35220    8.50636   -4.50762   69.07664   29.35219
   2.63346   75.47582   14.48892    6.69383   -4.35744   75.47562   14.48905
   2.63847   74.03091   -1.56238    5.31612   -3.92561   74.03112   -1.56218
   2.64348   66.32564  -13.44995    4.28632   -3.39277   66.32588  -13.45034
   2.64850   56.90236  -19.39226    3.51434   -2.84666   56.90185  -19.39240
   2.65351   49.11443  -20.98335    2.92893   -2.32558   49.11434  -20.98264
   2.65852   44.10220  -20.65232    2.47835   -1.84380   44.10312  -20.65220
   2.66353   41.56090  -20.44748    2.12610   -1.40447   41.56088  -20.44856
   2.66855   40.21884  -21.71692    1.84651   -1.00589   40.21762  -21.71689
   2.67356   38.23756  -24.55122    1.62141   -0.64448   38.23766  -24.54968
   2.67857   34.46993  -27.54353    1.43778   -0.31615   34.47170  -27.54362
  2.684      29.45     -29.14      1.286     -.1692E-1   29.45     -29.15   
   2.68860   24.46472  -29.02462    1.15968    0.25679   24.46226  -29.02481
   2.69361   20.28031  -27.72981    1.05306    0.50818   20.27978  -27.72688
   2.69862   17.06598  -25.87335    0.96239    0.74004   17.06935  -25.87237
   2.70363   14.71930  -23.86070    0.88467    0.95473   14.72095  -23.86459
   2.70865   13.07821  -21.93307    0.81755    1.15432   13.07376  -21.93567
   2.71366   11.96984  -20.24698    0.75921    1.34057   11.96597  -20.24186
   2.71867   11.19414  -18.89573    0.70819    1.51501   11.20021  -18.89047
   2.72368   10.52887  -17.87187    0.66333    1.67892   10.53536  -17.87896
   2.72870    9.81081  -17.03896    0.62369    1.83347    9.80299  -17.04636
   2.73371    9.03559  -16.21855    0.58849    1.97962    9.02742  -16.21061
   2.73872    8.31061  -15.34433    0.55712    2.11825    8.31817  -15.33544
   2.74373    7.69509  -14.47092    0.52905    2.25008    7.70453  -14.47762
   2.74875    7.14714  -13.64415    0.50385    2.37580    7.14183  -13.65364
   2.75376    6.61645  -12.82381    0.48115    2.49600    6.60742  -12.82055
   2.75877    6.12928  -11.94722    0.46065    2.61116    6.13000  -11.93909
   2.76378    5.75105  -11.00816    0.44208    2.72178    5.75780  -11.00620
   2.76880    5.52550  -10.04539    0.42524    2.82823    5.52987  -10.05014
  2.773809   5.468868  -9.108457   0.409921   2.930907   5.466844  -9.114651
  2.778822   5.580826  -8.252431   0.395967   3.030126   5.573666  -8.253812
  2.783834   5.835744  -7.544628   0.383236   3.126176   5.830420  -7.537544
  2.788847   6.154629  -7.047899   0.371606   3.219334   6.160604  -7.038411
  2.793860   6.404220  -6.758504   0.360969   3.309852   6.417455  -6.762557
  2.798872   6.478233  -6.562558   0.351233   3.397917   6.476766  -6.578237
  2.803885   6.383364  -6.297867   0.342316   3.483763   6.367317  -6.299655
  2.808897   6.232552  -5.851280   0.334145   3.567555   6.226973  -5.837135
  2.813910   6.177023  -5.208635   0.326658   3.649468   6.187225  -5.199344
  2.818923   6.336914  -4.435802   0.319798   3.729659   6.348871  -4.440420
  2.823935   6.788255  -3.631968   0.313514   3.808270   6.790408  -3.644562
  2.828947   7.582008  -2.921293   0.307764   3.885418   7.571615  -2.930657
  2.833960   8.733765  -2.481564   0.302505   3.961243   8.717605  -2.476576
   2.83897   10.14790   -2.55566    0.29771    4.03587   10.14423   -2.53398
   2.84398   11.50735   -3.34375    0.29333    4.10936   11.53272   -3.32894
   2.84900   12.33501   -4.74374    0.28936    4.18186   12.36180   -4.77064
   2.85401   12.36764   -6.27771    0.28575    4.25343   12.34203   -6.31492
   2.85902   11.78615   -7.45397    0.28250    4.32418   11.74206   -7.43329
   2.86404   11.01679   -8.08552    0.27957    4.39418   11.02870   -8.03874
   2.86905   10.44753   -8.32546    0.27696    4.46352   10.49292   -8.32604
   2.87406   10.21863   -8.53710    0.27464    4.53225   10.22962   -8.57735
   2.87907   10.13680   -9.06028    0.27260    4.60044   10.10493   -9.08074
  2.884085   9.782916  -9.931506   0.270824   4.668198   9.756877  -9.910506
   2.88910    8.89544  -10.78786    0.26930    4.73554    8.90450  -10.76086
   2.89411    7.64608  -11.23732    0.26803    4.80256    7.66975  -11.23528
   2.89912    6.38151  -11.21344    0.26698    4.86929    6.39194  -11.23035
   2.90414    5.30243  -10.86999    0.26616    4.93580    5.29422  -10.88475
   2.90915    4.44696  -10.36698    0.26556    5.00214    4.43223  -10.36752
  2.914160   3.786799  -9.802650   0.265173   5.068368   3.779218  -9.791742
  2.919173   3.283289  -9.229644   0.264988   5.134534   3.287981  -9.218104
  2.924185   2.901353  -8.676342   0.265001   5.200678   2.913223  -8.674241
  2.929198   2.610695  -8.157970   0.265211   5.266855   2.618354  -8.166903
  2.934211   2.384001  -7.680902   0.265610   5.333119   2.380090  -7.691504
  2.939223   2.197093  -7.241875   0.266199   5.399523   2.186690  -7.243406
  2.944236   2.035006  -6.828835   0.266972   5.466079   2.029240  -6.821411
  2.949248   1.895401  -6.430319   0.267929   5.532863   1.898237  -6.422689
  2.954261   1.781295  -6.042737   0.269068   5.599916   1.788063  -6.040952
  2.959273   1.693946  -5.667869   0.270388   5.667268   1.698890  -5.671577
  2.964286   1.631995  -5.309109   0.271888   5.734984   1.632330  -5.314843
  2.969298   1.591791  -4.970429   0.273569   5.803083   1.587698  -4.974310
  2.974311   1.565943  -4.655290   0.275430   5.871638   1.560273  -4.654473
  2.979324   1.542966  -4.361890   0.277474   5.940677   1.540255  -4.356760
  2.984336   1.514368  -4.078843   0.279702   6.010242   1.516931  -4.073756
  2.989348   1.483587  -3.792100   0.282115   6.080395   1.488923  -3.791131
  2.994361   1.461804  -3.496554   0.284717   6.151163   1.465783  -3.499883
  2.999373   1.457860  -3.195931   0.287509   6.222611   1.458050  -3.201092
  3.004386   1.475207  -2.897352   0.290497   6.294765   1.471310  -2.901175
  3.009398   1.512000  -2.608627   0.293682   6.367699   1.505935  -2.608104
  3.014411   1.559803  -2.335145   0.297071   6.441454   1.556066  -2.329270
  3.019423   1.605810  -2.072605   0.300667   6.516089   1.608934  -2.065413
  3.024436   1.645135  -1.804644   0.304478   6.591630   1.653509  -1.803323
  3.029449   1.688927  -1.516562   0.308508   6.668143   1.694795  -1.523160
  3.034461   1.753316  -1.207196   0.312765   6.745680   1.750984  -1.215959
  3.039474   1.846923  -0.883012   0.317257   6.824315   1.838151  -0.885961
  3.044486   1.971427  -0.546506   0.321991   6.904073   1.964166  -0.540745
  3.049499   2.132148  -0.191802   0.326976   6.985059   2.132914  -0.182893
  3.054511   2.347136   0.187041   0.332221   7.067295   2.354305   0.191332
  3.059524   2.644915   0.585318   0.337738   7.150875   2.652257   0.582680
  3.064536   3.059222   0.983097   0.343538   7.235858   3.062138   0.976099
  3.069549   3.627010   1.338709   0.349634   7.322315   3.623857   1.331489
  3.074561   4.378358   1.572847   0.356038   7.410311   4.370046   1.569925
  3.079574   5.299104   1.553299   0.362765   7.499937   5.290117   1.558679
  3.084586   6.256431   1.124764   0.369830   7.591267   6.255620   1.137547
  3.089599   6.962672   0.251039   0.377252   7.684392   6.975549   0.259244
  3.094612   7.152191  -0.833097   0.385046   7.779406   7.166273  -0.842278
  3.099624   6.840026  -1.775988   0.393234   7.876381   6.836998  -1.792324
  3.104637   6.234920  -2.394726   0.401838   7.975447   6.220681  -2.398101
  3.109649   5.526795  -2.658629   0.410881   8.076677   5.519045  -2.649820
  3.114662   4.869131  -2.598533   0.420386   8.180206   4.871369  -2.589888
  3.119674   4.374566  -2.299982   0.430383   8.286123   4.380702  -2.296970
  3.124687   4.093225  -1.866949   0.440901   8.394577   4.098461  -1.868645
  3.129699   4.035942  -1.386275   0.451972   8.505686   4.038401  -1.390370
  3.134712   4.204938  -0.931478   0.463632   8.619598   4.204238  -0.935926
  3.139724   4.600352  -0.588735   0.475920   8.736462   4.596830  -0.591682
  3.144737   5.191578  -0.481969   0.488877   8.856407   5.186611  -0.481593
  3.149749   5.847866  -0.758244   0.502549   8.979650   5.844557  -0.753812
  3.154762   6.286024  -1.464271   0.516987   9.106342   6.287780  -1.458607
  3.159774   6.215156  -2.371268   0.532247   9.236662   6.220769  -2.369690
  3.164787   5.638881  -3.078342   0.548386   9.370839   5.642785  -3.081684
  3.169800   4.842794  -3.369748   0.565475   9.509090   4.842591  -3.373909
  3.174812   4.091044  -3.296614   0.583586   9.651626   4.088569  -3.298760
  3.179825   3.494571  -2.999956   0.602801   9.798735   3.491956  -2.999973
  3.184837   3.063405  -2.591218   0.623211   9.950680   3.061623  -2.589923
   3.18985    2.77354   -2.13363    0.64491   10.10776    2.77285   -2.13177
   3.19486    2.59885   -1.65728    0.66802   10.27029    2.59926   -1.65541
   3.19987    2.52102   -1.17446    0.69266   10.43861    2.52242   -1.17307
   3.20489    2.53127   -0.68928    0.71896   10.61312    2.53337   -0.68889
   3.20990    2.63030   -0.20339    0.74709   10.79422    2.63243   -0.20439
   3.21491    2.82837    0.27910    0.77721   10.98238    2.82962    0.27678
   3.21992    3.14569    0.74587    0.80954   11.17806    3.14529    0.74290
   3.22494    3.61127    1.16648    0.84427   11.38184    3.60880    1.16389
   3.22995    4.25372    1.47599    0.88169   11.59427    4.24934    1.47524
   3.23496    5.06963    1.55689    0.92205   11.81604    5.06456    1.55976
   3.23997    5.95212    1.25229    0.96571   12.04782    5.94975    1.25976
   3.24499    6.62350    0.48704    1.01303   12.29047    6.62861    0.49607
   3.25000    6.75857   -0.52932    1.06446   12.54484    6.77146   -0.52684
# 
# 09/07/2016 at 12:20 YAMBO @ narro [start]
# 09/07/2016 at 12:21               [end]
#  
# Timing   [Min/Max/Average]: 01m-09s/01m-09s/01m-09s
#
# .-Input file : yambo.in
# | optics                       # [R OPT] Optics
# | bse                          # [R BSE] Bethe Salpeter Equation.
# | bsk                          # [R BSK] Bethe Salpeter Equation kernel
# | bss                          # [R BSS] Bethe Salpeter Equation solver
# | em1s                         # [R Xs] Static Inverse Dielectric Matrix
# | BoseTemp= 0.000000     eV    # Bosonic Temperature
# | FFTGvecs=  3281        RL    # [FFT] Plane-waves
# | Chimod= "Hartree"            # [X] IP/Hartree/ALDA/LRC/BSfxc
# | BSEmod= "resonant"           # [BSE] resonant/retarded/coupling
# | BSKmod= "SEX"                # [BSE] IP/Hartree/HF/ALDA/SEX/BSfxc
# | BSSmod= "h"                  # [BSS] (h)aydock/(d)iagonalization/(i)nversion/(t)ddft`
# | BSENGexx=  4           Ry    # [BSK] Exchange components
# | BSENGBlk= 1            Ry    # [BSK] Screened interaction block size
# | #WehCpl                      # [BSK] eh interaction included also in coupling
# | % KfnQP_E
# |  0.700000 | 1.000000 | 1.000000 |        # [EXTQP BSK BSS] E parameters  (c/v) eV|adim|adim
# | %
# | % BEnRange
# |  1.250000 | 3.250000 | eV    # [BSS] Energy range
# | %
# | % BDmRange
# |   0.02000 |  0.02000 | eV    # [BSS] Damping range
# | %
# | BEnSteps=  400               # [BSS] Energy steps
# | % BLongDir
# | 0.1000E-4 | 0.000    | 0.000    |        # [BSS] [cc] Electric Field
# | %
# | % BSEBands
# |  11 | 30 |                   # [BSK] Bands range
# | %
# | BSHayTrs=   0.0050           # [BSS] Relative [o/o] Haydock treshold. Strict(>0)/Average(<0)
# | % BndsRnXs
# |  11 | 30 |                   # [Xs] Polarization function bands
# | %
# | NGsBlkXs= 1            Ry    # [Xs] Response block size
# | % DmRngeXs
# | 0.1000E-2 |0.1000E-2 | eV    # [Xs] Damping range
# | %
# | % LongDrXs
# | 0.1000E-4 | 0.000    | 0.000    |        # [Xs] [cc] Electric Field
# | %
