#                                                           
# ooooo   oooo ..     ooo        ooo ooooooooo.    .oooo.   
#  `88.   .8" .88.    `88.       .88 `88"   `Y8b  dP"  `Yb  
#   `88. .8" .8"88.    888b     d"88  88     888 88      88 
#    `88.8" .8" `88.   8 Y88. .P  88  88oooo888" 88      88 
#     `88" .88ooo888.  8  `888"   88  88    `88b 88      88 
#      88 .8"     `88. 8    Y     88  88    .88P `8b    d8" 
#     o88o88o      888o8          88 o88bood8P"   `Ybod8P"  
#                                                           
#                                                           
#         Version 4.2.0 Revision 14314 Hash 217f693         
#                       MPI+SLK Build                       
#                 http://www.yambo-code.org                 
#
# Absorption @ Q(2) [iku] : -0.062500   0.062500  -0.062500
#
#
# - Energies      are Slater exchange(X)+Perdew & Zunger(C)
# - Wavefunctions are Slater exchange(X)+Perdew & Zunger(C)
#
# - The Green`s function is Retarded -
#
#  E/ev[1]     EPS-Im[2]   EPS-Re[3]   EPSo-Im[4]  EPSo-Re[5]
#
  0.0000     0.52142E-6   39.925     -.34377E-7   40.256   
 0.10020E-1  0.75483E-1   39.929     0.77424E-1   40.260   
 0.20040E-1  0.15121      39.939     0.15510      40.270   
 0.30060E-1  0.22744      39.957     0.23329      40.287   
 0.40080E-1  0.30436      39.979     0.31224      40.311   
   0.050100    0.382325   40.010696    0.392227   40.342266
   0.060120    0.461490   40.046478    0.473529   40.380367
   0.070140    0.542233   40.090984    0.556435   40.425613
   0.080160    0.624767   40.142139    0.641254   40.478077
   0.090180    0.709478   40.200649    0.728311   40.537922
   0.100200    0.796579   40.265675    0.817958   40.605247
   0.110220    0.886627   40.339561    0.910574   40.680229
   0.120240    0.979910   40.421108    1.006570   40.763058
   0.130261    1.076797   40.509960    1.106397   40.853863
   0.140281    1.177822   40.607037    1.210548   40.952919
   0.150301    1.283464   40.711796    1.319570   41.060421
   0.160321    1.394313   40.825169    1.434067   41.176605
   0.170341    1.511128   40.948483    1.554717   41.301727
   0.180361    1.634285   41.077896    1.682278   41.436039
   0.190381    1.765061   41.219334    1.817599   41.579845
   0.200401    1.903919   41.368412    1.961642   41.733398
   0.210421    2.052163   41.528366    2.115494   41.896992
   0.220441    2.210976   41.698376    2.280390   42.070869
   0.230461    2.381841   41.880688    2.457736   42.255302
   0.240481    2.565338   42.069309    2.649140   42.450443
   0.250501    2.764475   42.272324    2.856437   42.656425
   0.260521    2.979979   42.482277    3.081733   42.873272
   0.270541    3.215343   42.706272    3.327449   43.100880
   0.280561    3.471963   42.938118    3.596360   43.338909
   0.290581    3.754021   43.181667    3.891638   43.586735
   0.300601    4.064149   43.434067    4.216923   43.843391
   0.310621    4.406799   43.694626    4.576353   44.107269
   0.320641    4.785970   43.962471    4.974601   44.376144
   0.330661    5.205721   44.227795    5.416883   44.646671
   0.340681    5.673627   44.495975    5.908940   44.914379
   0.350701    6.193466   44.756630    6.456881   45.172928
   0.360721    6.773676   45.005245    7.066946   45.413876
   0.370741    7.417931   45.227009    7.745058   45.625900
   0.380762    8.132577   45.412704    8.495979   45.794376
   0.390782    8.921926   45.545620    9.322172   45.900723
   0.400802    9.783220   45.600491   10.221987   45.922150
   0.410822   10.714647   45.557076   11.187293   45.832157
   0.420842   11.697948   45.384357   12.200654   45.601936
   0.430862   12.710183   45.054867   13.232608   45.203686
   0.440882   13.713478   44.545246   14.239799   44.616020
   0.450902   14.660632   43.846474   15.166132   43.831215
   0.460922   15.485467   42.959061   15.947910   42.862701
   0.470942   16.126997   41.914051   16.523954   41.750050
   0.480962   16.534571   40.770195   16.848770   40.557972
   0.490982   16.680498   39.598980   16.904295   39.367313
   0.501002   16.570066   38.485458   16.705305   38.260452
   0.511022   16.238560   37.501926   16.295784   37.305897
   0.521042   15.740059   36.700279   15.738017   36.548080
   0.531062   15.141899   36.105492   15.099406   36.004715
   0.541082   14.509015   35.721336   14.441600   35.670742
   0.551102   13.891251   35.527996   13.814300   35.525566
   0.561122   13.330197   35.500946   13.253603   35.540359
   0.571142   12.853032   35.610329   12.783343   35.683815
   0.581162   12.476575   35.825203   12.417732   35.925449
   0.591182   12.209476   36.115440   12.164089   36.237202
   0.601202   12.057652   36.456516   12.025070   36.593689
   0.611222   12.019402   36.824623   12.000269   36.971745
   0.621242   12.092970   37.195412   12.086769   37.349560
   0.631262   12.273640   37.548428   12.279238   37.705990
   0.641283   12.553724   37.861385   12.569028   38.020107
   0.651303   12.920441   38.115353   12.943166   38.271355
   0.661323   13.356274   38.289856   13.382833   38.440998
   0.671343   13.834237   38.367302   13.862608   38.514462
   0.681363   14.328188   38.344242   14.350815   38.484890
   0.691383   14.796234   38.218853   14.812301   38.357162
   0.701403   15.207620   38.010307   15.213715   38.150330
   0.711423   15.537783   37.751583   15.530673   37.897247
   0.721443   15.772493   37.483002   15.754223   37.639626
   0.731463   15.917439   37.243420   15.894170   37.420124
   0.741483   16.004341   37.078533   15.977380   37.273464
   0.751503   16.063850   37.003216   16.042166   37.220367
   0.761523   16.141750   37.028748   16.130901   37.265232
   0.771543   16.281866   37.144745   16.283791   37.397545
   0.781563   16.513107   37.327888   16.534927   37.595036
   0.791583   16.866697   37.550083   16.910471   37.826954
   0.801603   17.361563   37.776333   17.428251   38.056408
   0.811623   18.006983   37.962730   18.097393   38.241600
   0.821643   18.802431   38.063446   18.917372   38.336586
   0.831663   19.738911   38.030739   19.875996   38.291901
   0.841683   20.789486   37.813732   20.946344   38.056751
   0.851703   21.913805   37.363708   22.083391   37.583179
   0.861723   23.043547   36.640152   23.221754   36.833393
   0.871743   24.098499   35.624416   24.277088   35.789780
   0.881764   24.985832   34.326366   25.153412   34.465855
   0.891784   25.607487   32.795067   25.757307   32.913528
   0.901804   25.890259   31.117744   26.017075   31.222116
   0.911824   25.798660   29.403721   25.900270   29.506044
   0.921844   25.343861   27.773121   25.422373   27.883377
   0.931864   24.581490   26.328907   24.642132   26.453259
   0.941884   23.593172   25.137375   23.646124   25.279755
   0.951904   22.477917   24.225233   22.528849   24.387430
   0.961924   21.318190   23.587887   21.376110   23.765944
   0.971944   20.185616   23.191694   20.254738   23.381729
   0.981964   19.126787   22.992479   19.209160   23.188768
   0.991984   18.166010   22.941942   18.262608   23.138296
   1.002004   17.311478   22.992197   17.420885   23.185537
   1.012024   16.557890   23.107645   16.677141   23.293818
   1.022044   15.891501   23.259167   16.016870   23.436546
   1.032064   15.294583   23.428602   15.422591   23.597212
   1.042084   14.748530   23.606413   14.877523   23.767813
   1.052104   14.240170   23.790176   14.367764   23.946262
   1.062124   13.755460   23.981569   13.882765   24.133934
   1.072144   13.286708   24.184538   13.414816   24.334068
   1.082164   12.828497   24.405300   12.958539   24.551208
   1.092184   12.378821   24.650177   12.510868   24.790962
   1.102204   11.936743   24.924417   12.071349   25.059320
   1.112224   11.507483   25.235867   11.642366   25.362455
   1.122244   11.093861   25.586214   11.228559   25.704422
   1.132264   10.705988   25.978031   10.835943   26.087450
   1.142285   10.347486   26.409264   10.470775   26.511503
   1.152305   10.024392   26.877625   10.138880   26.974936
   1.162325    9.739861   27.379450    9.845268   27.474796
   1.172345    9.497484   27.911280    9.594015   28.007431
   1.182365    9.298991   28.469337    9.388261   28.568829
   1.192385    9.144748   29.049036    9.230265   29.154770
   1.202405    9.038719   29.649555    9.121591   29.761404
   1.212425    8.980763   30.267216    9.063322   30.385139
   1.222445    8.971879   30.899532    9.056342   31.022858
   1.232465    9.013507   31.543205    9.101568   31.671854
   1.242485    9.106016   32.196205    9.200247   32.329815
   1.252505    9.253353   32.858387    9.354094   32.994461
   1.262525    9.456501   33.525681    9.565455   33.663494
   1.272545    9.718470   34.196247    9.837411   34.334221
   1.282565   10.041944   34.865131   10.173803   35.003265
   1.292585   10.433846   35.533215   10.579172   35.666264
   1.302605   10.897951   36.190815   11.058718   36.317249
   1.312625   11.440477   36.832127   11.617978   36.948345
   1.322645   12.065375   37.447392   12.262427   37.549164
   1.332665   12.781174   38.026073   12.996770   38.106224
   1.342685   13.589825   38.551571   13.823888   38.602650
   1.352705   14.492172   39.004246   14.743515   39.017918
   1.362725   15.489100   39.362823   15.750444   39.328281
   1.372745   16.569683   39.600937   16.832718   39.507805
   1.382765   17.718456   39.689713   17.970015   39.530361
   1.392786   18.911100   39.604343   19.132576   39.372421
   1.402806   20.107616   39.322350   20.281155   39.016251
   1.412826   21.269701   38.827942   21.367878   38.453632
   1.422846   22.344889   38.119312   22.338306   37.689278
   1.432866   23.263329   37.207199   23.134888   36.744976
   1.442886   23.969246   36.123035   23.703041   35.662807
   1.452906   24.410864   34.927662   24.000092   34.505924
   1.462926   24.546000   33.697384   24.005615   33.354084
   1.472946   24.379427   32.522804   23.729063   32.292961
   1.482966   23.937433   31.491049   23.210329   31.399771
   1.492986   23.278141   30.672504   22.512537   30.730629
   1.503006   22.476969   30.108356   21.709425   30.314341
   1.513026   21.610489   29.812853   20.872738   30.153439
   1.523046   20.749676   29.772274   20.063448   30.230549
   1.533066   19.944899   29.960026   19.327896   30.516502
   1.543086   19.240671   30.342325   18.697958   30.977514
   1.553106   18.656425   30.883724   18.193636   31.580027
   1.563126   18.210236   31.550476   17.826246   32.293610
   1.573146   17.906889   32.313797   17.601589   33.091721
   1.583166   17.752230   33.147629   17.522367   33.951744
   1.593186   17.747128   34.032986   17.589977   34.854195
   1.603206   17.892847   34.947411   17.805620   35.781513
   1.613226   18.188835   35.874245   18.170795   36.717052
   1.623246   18.637960   36.798626   18.687426   37.643642
   1.633266   19.239571   37.699146   19.357273   38.542721
   1.643287   19.993670   38.553146   20.181023   39.393131
   1.653307   20.902029   39.341328   21.156740   40.170761
   1.663327   21.951269   40.034149   22.277739   40.848495
   1.673347   23.132057   40.606483   23.530285   41.397655
   1.683367   24.420818   41.030247   24.891415   41.790604
   1.693387   25.782482   41.282261   26.328268   42.005253
   1.703407   27.181707   41.357498   27.799749   42.030560
   1.713427   28.576160   41.256733   29.262018   41.871223
   1.723447   29.925755   41.003815   30.677118   41.548931
   1.733467   31.215649   40.635597   32.022243   41.098095
   1.743487   32.434914   40.182755   33.295361   40.555584
   1.753507   33.610073   39.681461   34.513851   39.948174
   1.763527   34.764786   39.135418   35.705425   39.282532
   1.773547   35.941326   38.529873   36.894424   38.542156
   1.783567   37.142609   37.827217   38.088535   37.692402
   1.793587   38.359524   36.983444   39.269810   36.691990
   1.803607   39.557354   35.958824   40.392590   35.508469
   1.813627   40.669666   34.732330   41.389744   34.133308
   1.823647   41.622852   33.313007   42.186890   32.593445
   1.833667   42.345562   31.754444   42.722664   30.953718
   1.843687   42.793896   30.136080   42.969021   29.307661
   1.853707   42.966980   28.561174   42.944115   27.756823
   1.863727   42.915600   27.118387   42.711391   26.385910
   1.873747   42.708447   25.867634   42.365444   25.242352
   1.883767   42.456367   24.828585   42.010239   24.327316
   1.893788   42.246109   23.975096   41.737629   23.597572
   1.903808   42.146271   23.240467   41.611027   22.977512
   1.913828   42.207073   22.535439   41.656166   22.373224
   1.923848   42.404610   21.772997   41.857639   21.688581
   1.933868   42.708542   20.859161   42.161053   20.841236
   1.943888   43.030514   19.743088   42.480511   19.777451
   1.953908   43.273964   18.396570   42.712547   18.483973
   1.963928   43.332500   16.856249   42.755432   16.993034
   1.973948   43.129711   15.178826   42.529564   15.377059
   1.983968   42.614479   13.464664   41.992683   13.733459
   1.993988   41.779099   11.815118   41.144405   12.164551
   2.004008   40.658978   10.318475   40.020130   10.759701
   2.014028   39.308933    9.042679   38.679035    9.585983
   2.024048   37.793896    8.039194   37.192474    8.685312
   2.034068   36.189491    7.327952   35.635494    8.076025
   2.044088   34.569969    6.909001   34.080738    7.755265
   2.054108   33.000233    6.770411   32.593910    7.701716
   2.064128   31.538366    6.877241   31.229576    7.878903
   2.074148   30.229919    7.182148   30.028084    8.239561
   2.084168   29.101603    7.636074   29.014217    8.730373
   2.094188   28.167299    8.182350   28.197159    9.296474
   2.104208   27.422834    8.771185   27.571323    9.885180
   2.114228   26.853870    9.353534   27.117643   10.449372
   2.124248   26.432484    9.891019   26.805239   10.950809
   2.134269   26.121799   10.356133   26.593887   11.363592
   2.144289   25.881895   10.735190   26.438126   11.677484
   2.154309   25.668749   11.032215   26.293337   11.899828
   2.164329   25.448320   11.264318   26.123190   12.054704
   2.174349   25.196484   11.463026   25.906693   12.178133
   2.184369   24.910067   11.662465   25.642223   12.309792
   2.194389   24.596649   11.895705   25.346989   12.483311
   2.204409   24.284698   12.184773   25.051228   12.718397
   2.214429   24.005568   12.533204   24.789776   13.017047
   2.224449   23.786402   12.933831   24.593391   13.364860
   2.234469   23.652800   13.361325   24.482462   13.734919
   2.244489   23.610981   13.788299   24.463272   14.094344
   2.254509   23.660469   14.182665   24.527573   14.410839
   2.264529   23.784285   14.517174   24.654673   14.658690
   2.274549   23.959368   14.773839   24.815765   14.823247
   2.284569   24.157152   14.943260   24.980221   14.902876
   2.294589   24.349628   15.032094   25.121748   14.907249
   2.304609   24.517879   15.049574   25.222464   14.852564
   2.314629   24.646580   15.009844   25.273045   14.755589
   2.324649   24.727781   14.925749   25.268961   14.629417
   2.334669   24.753183   14.805350   25.205307   14.483483
   2.344689   24.714382   14.657800   25.073334   14.327525
   2.354709   24.595007   14.499180   24.861441   14.177125
   2.364729   24.381887   14.352917   24.560484   14.057202
   2.374749   24.070623   14.251435   24.170774   14.000691
   2.384769   23.671328   14.233383   23.706909   14.042659
   2.394789   23.208569   14.332609   23.197720   14.212254
   2.404809   22.719143   14.572397   22.681961   14.526587
   2.414829   22.246288   14.961440   22.201414   14.988365
   2.424850   21.830990   15.493876   21.794937   15.587400
   2.434870   21.510340   16.152952   21.494907   16.304195
   2.444890   21.312866   16.915329   21.326187   17.113811
   2.454910   21.258066   17.753216   21.306725   17.988626
   2.464930   21.360800   18.638456   21.448919   18.899927
   2.474950   21.632278   19.539349   21.760860   19.818241
   2.484970   22.077850   20.426819   22.246891   20.712717
   2.494990   22.697380   21.266781   22.907360   21.550392
   2.505010   23.491198   22.023567   23.737261   22.295506
   2.515030   24.444523   22.659494   24.723976   22.909559
   2.525050   25.540972   23.134010   25.844217   23.352734
   2.535070   26.745649   23.407419   27.061075   23.587526
   2.545090   28.009064   23.445858   28.322321   23.584864
   2.555110   29.268690   23.234842   29.562048   23.332153
   2.565130   30.449774   22.773415   30.707378   22.841507
   2.575150   31.483099   22.099449   31.690550   22.154329
   2.585170   32.308746   21.274902   32.464024   21.338497
   2.595190   32.904907   20.380598   33.013039   20.476486
   2.605210   33.283253   19.501266   33.359997   19.647234
   2.615230   33.489517   18.701357   33.557854   18.908020
   2.625250   33.590839   18.019133   33.674992   18.282902
   2.635270   33.658360   17.451382   33.776989   17.760965
   2.645291   33.744072   16.966738   33.910942   17.303551
   2.655311   33.880657   16.514824   34.095825   16.856926
   2.665331   34.064896   16.039032   34.319496   16.367702
   2.675350   34.264267   15.493496   34.542938   15.797468
   2.685370   34.428257   14.854561   34.711037   15.134366
   2.695390   34.498859   14.132170   34.768314   14.398140
   2.705411   34.426376   13.365228   34.675503   13.636071
   2.715431   34.188904   12.615562   34.421822   12.910308
   2.725451   33.795383   11.946257   34.027767   12.280125
   2.735471   33.285679   11.408945   33.537853   11.787011
   2.745491   32.713985   11.027765   33.006786   11.446272
   2.755511   32.133244   10.805361   32.484932   11.247992
   2.765531   31.590376   10.715175   32.007458   11.164719
   2.775551   31.106016   10.730783   31.589685   11.162601
   2.785571   30.689562   10.814116   31.228674   11.212535
   2.795591   30.329298   10.945891   30.910086   11.298364
   2.805611   30.011976   11.117527   30.618135   11.420029
   2.815631   29.727629   11.335564   30.345335   11.590588
   2.825651   29.480444   11.612048   30.098763   11.828349
   2.835671   29.286697   11.960278   29.900530   12.147191
   2.845691   29.170841   12.384071   29.782991   12.548738
   2.855711   29.167261   12.871178   29.781116   13.018700
   2.865731   29.303831   13.396857   29.925142   13.527596
   2.875751   29.601931   13.922168   30.234701   14.033497
   2.885771   30.067652   14.401421   30.714977   14.486812
   2.895791   30.695541   14.781281   31.354443   14.835253
   2.905811   31.456381   15.014187   32.123703   15.029383
   2.915831   32.308010   15.058467   32.975952   15.029221
   2.925852   33.193600   14.884577   33.850079   14.811182
   2.935872   34.042061   14.491020   34.677582   14.374295
   2.945892   34.785816   13.897176   35.392551   13.742920
   2.955912   35.373253   13.145467   35.943241   12.963627
   2.965932   35.768951   12.296094   36.300354   12.095853
   2.975952   35.963825   11.408131   36.458263   11.198977
   2.985972   35.969158   10.532199   36.428665   10.322750
   2.995992   35.801464    9.709044   36.230389    9.504039
   3.006012   35.479980    8.966849   35.881592    8.771237
   3.016032   35.019447    8.335900   35.398575    8.151670
   3.026052   34.440983    7.844277   34.800804    7.676257
   3.036072   33.772621    7.525960   34.117752    7.377991
   3.046092   33.055489    7.411346   33.392635    7.285107
   3.056112   32.344955    7.513668   32.680267    7.413257
   3.066132   31.697441    7.838543   32.040585    7.760688
   3.076152   31.173697    8.363274   31.531158    8.308044
   3.086172   30.821657    9.059557   31.201759    9.021743
   3.096192   30.681248    9.884720   31.091814    9.858297
   3.106212   30.784422   10.789382   31.230320   10.767982
   3.116232   31.150824   11.720800   31.636883   11.696960
   3.126252   31.791599   12.625549   32.322365   12.587504
   3.136272   32.710686   13.441693   33.288532   13.377474
   3.146292   33.903126   14.103591   34.526134   13.999887
   3.156312   35.345226   14.543063   36.011082   14.382784
   3.166332   36.999828   14.685092   37.699398   14.451998
   3.176353   38.802094   14.460662   39.521889   14.137103
   3.186373   40.666096   13.803670   41.380615   13.381603
   3.196393   42.467258   12.683297   43.150276   12.157127
   3.206413   44.066086   11.105687   44.687561   10.478395
   3.216433   45.318764    9.125979   45.850197    8.415143
   3.226453   46.104000    6.859968   46.523083    6.092607
   3.236473   46.347984    4.466638   46.644661    3.676880
   3.246493   46.044041    2.118945   46.222759    1.346658
  3.2565      45.252     -.15623E-1   45.332     -.74068   
   3.266533   44.087257   -1.813377   44.096680   -2.475903
   3.276553   42.687817   -3.215979   42.656925   -3.809207
   3.286573   41.189243   -4.217279   41.146072   -4.745298
   3.296593   39.705154   -4.849485   39.670292   -5.327683
   3.306613   38.316494   -5.172271   38.302505   -5.619775
   3.316633   37.074043   -5.251505   37.085167   -5.689389
   3.326653   36.003342   -5.151986   36.038166   -5.598824
   3.336673   35.113869   -4.931735   35.167603   -5.401690
   3.346693   34.408085   -4.636809   34.472107   -5.144490
   3.356713   33.882244   -4.311559   33.945194   -4.869930
   3.366733   33.526226   -3.998950   33.573944   -4.619290
   3.376753   33.322590   -3.738931   33.336353   -4.431513
   3.386773   33.242878   -3.567886   33.199959   -4.339896
   3.396793   33.249352   -3.516390   33.122917   -4.367290
   3.406813   33.299484   -3.595244   33.058270   -4.522613
   3.416834   33.347225   -3.812586   32.959229   -4.800126
   3.426854   33.353001   -4.152029   32.783508   -5.181099
   3.436873   33.276371   -4.605535   32.495743   -5.636185
   3.446894   33.086540   -5.142158   32.068954   -6.127014
   3.456913   32.752270   -5.731417   31.486937   -6.606820
   3.466934   32.251999   -6.326979   30.748331   -7.022818
   3.476954   31.574917   -6.876873   29.870344   -7.321643
   3.486974   30.733648   -7.318658   28.888767   -7.457797
   3.496994   29.760962   -7.601283   27.853447   -7.401263
   3.507014   28.707203   -7.685488   26.819735   -7.141371
   3.517034   27.634640   -7.552617   25.840441   -6.685773
   3.527054   26.600964   -7.208238   24.959648   -6.055886
   3.537074   25.658331   -6.672725   24.210688   -5.281465
   3.547094   24.842543   -5.978082   23.616205   -4.395509
   3.557114   24.181576   -5.160329   23.190126   -3.431582
   3.567134   23.691143   -4.255595   22.939857   -2.421859
   3.577154   23.379572   -3.299306   22.868015   -1.397395
   3.587174   23.247900   -2.327709   22.973387   -0.388350
   3.597194   23.293278   -1.372280   23.250904    0.574988
   3.607214   23.506868   -0.467216   23.690863    1.462063
   3.617234   23.874456    0.358949   24.277218    2.242092
   3.627254   24.374369    1.075240   24.986023    2.886008
   3.637274   24.976894    1.658288   25.784000    3.369380
   3.647294   25.645140    2.089998   26.629351    3.677147
   3.657315   26.336597    2.367452   27.475056    3.808170
   3.667334   27.009386    2.502871   28.275251    3.778112
   3.677355   27.630066    2.519413   28.993626    3.618254
   3.687374   28.178350    2.454996   29.610022    3.369455
   3.697395   28.651768    2.343110   30.122929    3.072570
   3.707415   29.061987    2.214287   30.545578    2.759446
   3.717435   29.428724    2.084731   30.897758    2.447731
   3.727455   29.771095    1.955614   31.196497    2.141936
   3.737475   30.100237    1.821643   31.449604    1.839457
   3.747495   30.416592    1.669548   31.654345    1.539315
   3.757515   30.709385    1.497928   31.801901    1.249542
   3.767535   30.963564    1.311092   31.885786    0.990624
   3.777555   31.167391    1.130949   31.910940    0.792511
   3.787575   31.322041    0.985013   31.899654    0.686500
   3.797595   31.446301    0.904848   31.891262    0.694703
   3.807615   31.576385    0.910390   31.936150    0.821579
   3.817635   31.758703    1.008114   32.086330    1.050111
   3.827655   32.040966    1.176400   32.386269    1.342924
   3.837675   32.461201    1.377766   32.865601    1.646748
   3.847695   33.040878    1.559559   33.534309    1.898492
   3.857715   33.780014    1.658297   34.380100    2.032156
   3.867735   34.655041    1.616140   35.367336    1.986563
   3.877755   35.619625    1.385936   36.438339    1.714004
   3.887775   36.610767    0.935575   37.518688    1.189118
   3.897795   37.556278    0.264332   38.526497    0.416067
   3.907815   38.388126   -0.602530   39.385952   -0.569176
   3.917835   39.053864   -1.616403   40.041073   -1.703058
   3.927855   39.526409   -2.712712   40.466679   -2.906115
   3.937876   39.808990   -3.816706   40.672321   -4.097976
   3.947896   39.928097   -4.881875   40.698364   -5.213447
   3.957916   39.931076   -5.863351   40.605232   -6.213499
   3.967936   39.870979   -6.753424   40.458633   -7.090821
   3.977956   39.796486   -7.561703   40.314899   -7.866640
   3.987976   39.740582   -8.317967   40.209614   -8.581713
   3.997996   39.709923   -9.070039   40.152866   -9.282986
   4.008016   39.698830   -9.843138   40.131859  -10.010531
   4.018036   39.684216  -10.660320   40.119869  -10.788200
   4.028056   39.639492  -11.525601   40.088428  -11.621866
   4.038076   39.544659  -12.433290   40.017345  -12.504446
   4.048096   39.399918  -13.366283   39.898228  -13.427232
   4.058116   39.197681  -14.330321   39.729660  -14.388626
   4.068136   38.945961  -15.325194   39.506786  -15.397692
   4.078156   38.628342  -16.368187   39.211468  -16.468260
   4.088176   38.216133  -17.469065   38.808716  -17.606941
   4.098196   37.665977  -18.619070   38.252113  -18.801153
   4.108216   36.938366  -19.787975   37.497082  -20.011801
   4.118237   36.001228  -20.923508   36.516098  -21.176249
   4.128256   34.854546  -21.955564   35.310318  -22.219410
   4.138277   33.519642  -22.821161   33.912334  -23.070005
   4.148296   32.042763  -23.463043   32.380486  -23.673742
   4.158317   30.490538  -23.850899   30.786585  -24.003021
   4.168336   28.930506  -23.974300   29.203581  -24.056572
   4.178357   27.420958  -23.848911   27.695242  -23.854836
   4.188376   26.016603  -23.500376   26.311285  -23.432404
   4.198397   24.751722  -22.965902   25.086138  -22.830048
   4.208416   23.653740  -22.286245   24.041212  -22.090590
   4.218437   22.734398  -21.499144   23.187569  -21.253860
   4.228456   22.000439  -20.640612   22.529356  -20.356651
   4.238477   21.454002  -19.743151   22.066051  -19.432343
   4.248497   21.090864  -18.837887   21.794125  -18.512064
   4.258517   20.907015  -17.952511   21.707512  -17.625582
   4.268537   20.894548  -17.114563   21.797287  -16.802572
   4.278557   21.041836  -16.353376   22.050512  -16.073019
   4.288577   21.333778  -15.696897   22.448599  -15.466904
   4.298597   21.749153  -15.171321   22.965406  -15.012636
   4.308617   22.258127  -14.800982   23.566494  -14.733881
   4.318637   22.823051  -14.602894   24.209560  -14.645761
   4.328657   23.401379  -14.584259   24.847891  -14.750850
   4.338677   23.949888  -14.737403   25.435484  -15.037281
   4.348697   24.428602  -15.043862   25.933437  -15.480095
   4.358717   24.809870  -15.473154   26.314451  -16.045679
   4.368737   25.074183  -15.991402   26.564085  -16.698135
   4.378757   25.217421  -16.565804   26.678444  -17.404228
   4.388777   25.242525  -17.166014   26.660042  -18.135969
   4.398798   25.155722  -17.769840   26.514299  -18.869785
   4.408818   24.967318  -18.358894   26.247927  -19.584621
   4.418838   24.687601  -18.915846   25.869778  -20.259949
   4.428858   24.328072  -19.426826   25.392704  -20.876251
   4.438878   23.905426  -19.881891   24.834639  -21.417072
   4.448898   23.436268  -20.274231   24.217169  -21.871834
   4.458918   22.938160  -20.602140   23.562838  -22.237080
   4.468938   22.423906  -20.871874   22.891949  -22.515852
   4.478958   21.904819  -21.089705   22.220806  -22.715830
   4.488978   21.382812  -21.263542   21.560604  -22.846973
   4.498998   20.860336  -21.397505   20.917797  -22.919775
   4.509017   20.336967  -21.494097   20.294674  -22.941954
   4.519038   19.813320  -21.551327   19.691507  -22.918482
   4.529058   19.290302  -21.563953   19.109425  -22.850035
   4.539078   18.775782  -21.528254   18.552935  -22.735826
   4.549098   18.282068  -21.439949   18.031258  -22.575510
   4.559118   17.822594  -21.302044   17.556986  -22.373383
   4.569138   17.415802  -21.123053   17.143230  -22.140545
   4.579158   17.075045  -20.919298   16.799637  -21.894880
   4.589178   16.805943  -20.715841   16.529045  -21.659502
   4.599198   16.607534  -20.537024   16.324976  -21.459463
   4.609218   16.465229  -20.409864   16.170656  -21.317812
   4.619238   16.355705  -20.353973   16.039675  -21.250858
   4.629258   16.247368  -20.380606   15.898958  -21.263653
   4.639278   16.102669  -20.484886   15.714057  -21.347036
   4.649298   15.889575  -20.648935   15.456158  -21.477324
   4.659318   15.585135  -20.839531   15.108665  -21.620153
   4.669338   15.182172  -21.017572   14.671053  -21.737555
   4.679358   14.690621  -21.145279   14.158134  -21.795727
   4.689379   14.134989  -21.192921   13.595512  -21.771286
   4.699399   13.542799  -21.145266   13.013123  -21.653301
   4.709419   12.947530  -20.997274   12.439695  -21.442301
   4.719439   12.375089  -20.756386   11.899076  -21.147049
   4.729459   11.846784  -20.434057   11.408823  -20.781088
   4.739479   11.378350  -20.046080   10.980698  -20.359957
   4.749499   10.976967  -19.608404   10.621439  -19.899107
   4.759519   10.649856  -19.137152   10.334245  -19.413132
   4.769539   10.396625  -18.645836   10.119676  -18.915321
   4.779559   10.218835  -18.148458    9.976511  -18.417936
   4.789579   10.114303  -17.657263    9.902096  -17.932222
   4.799599   10.078986  -17.184334    9.892424  -17.468901
   4.809619   10.108085  -16.740295    9.941956  -17.038137
   4.819639   10.194426  -16.337112   10.043201  -16.649570
   4.829659   10.327341  -15.983469   10.186309  -16.311661
   4.839679   10.494967  -15.688099   10.358681  -16.030844
   4.849699   10.680060  -15.453748   10.545243  -15.809944
   4.859719   10.866648  -15.279240   10.729564  -15.646500
   4.869740   11.037265  -15.156307   10.896358  -15.531622
   4.879759   11.179930  -15.069803   11.034746  -15.450235
   4.889780   11.290301  -15.000536   11.141466  -15.383356
   4.899799   11.373292  -14.928677   11.222421  -15.312214
   4.909820   11.441151  -14.838171   11.291854  -15.222696
   4.919839   11.514200  -14.721773   11.369283  -15.108675
   4.929859   11.613819  -14.581077   11.475508  -14.973300
   4.939879   11.759562  -14.425390   11.628827  -14.828482
   4.949899   11.966111  -14.273264   11.842200  -14.693181
   4.959919   12.241109  -14.148058   12.121340  -14.591143
   4.969940   12.584890  -14.076159   12.463428  -14.548599
   4.979960   12.987658  -14.084446   12.856180  -14.591463
   4.989980   13.429929  -14.197051   13.277580  -14.742146
   5.000000   13.883783  -14.432696   13.696951  -15.015636
# 
# 02/24/2017 at 16:54 YAMBO @ narro [start]
# 02/24/2017 at 16:54               [end]
#  
# Timing   [Min/Max/Average]: 14s/14s/14s
#
# .-Input file : yambo.in
# | optics                       # [R OPT] Optics
# | chi                          # [R CHI] Dyson equation for Chi.
# | BoseTemp=  0.02585     eV    # Bosonic Temperature
# | FFTGvecs= 229          RL    # [FFT] Plane-waves
# | Chimod= "Hartree"            # [X] IP/Hartree/ALDA/LRC/BSfxc
# | NGsBlkXd=  51          RL    # [Xd] Response block size
# | % QpntsRXd
# |  1 | 2 |                     # [Xd] Transferred momenta
# | %
# | % BndsRnXd
# |   1 | 20 |                   # [Xd] Polarization function bands
# | %
# | GrFnTpXd= "R"                # [Xd] Green`s function (T)ordered,(R)etarded,(r)senant,(a)ntiresonant [T, R, r, Ta, Ra]
# | % EnRngeXd
# |  0.000000 | 5.000000 | eV    # [Xd] Energy range
# | %
# | % DmRngeXd
# |   0.10000 |  0.10000 | eV    # [Xd] Damping range
# | %
# | ETStpsXd=  500               # [Xd] Total Energy steps
# | % LongDrXd
# | 0.1000E-4 | 0.000    | 0.000    |        # [Xd] [cc] Electric Field
# | %
