#                                                           
# ooooo   oooo ..     ooo        ooo ooooooooo.    .oooo.   
#  `88.   .8" .88.    `88.       .88 `88"   `Y8b  dP"  `Yb  
#   `88. .8" .8"88.    888b     d"88  88     888 88      88 
#    `88.8" .8" `88.   8 Y88. .P  88  88oooo888" 88      88 
#     `88" .88ooo888.  8  `888"   88  88    `88b 88      88 
#      88 .8"     `88. 8    Y     88  88    .88P `8b    d8" 
#     o88o88o      888o8          88 o88bood8P"   `Ybod8P"  
#                                                           
#                                                           
#         Version 4.2.0 Revision 14314 Hash 217f693         
#                       MPI+SLK Build                       
#                 http://www.yambo-code.org                 
#
# Absorption @ Q(1) [q->0 direction] : 1.0000000  0.0000000  0.0000000
#
#
# - Energies      are Slater exchange(X)+Perdew & Zunger(C)
# - Wavefunctions are Slater exchange(X)+Perdew & Zunger(C)
#
# - The Green`s function is Retarded -
# - Using the Length Gauge -
# - [r,Vnl] *is* included -
#
#  E/ev[1]     EPS-Im[2]   EPS-Re[3]   EPSo-Im[4]  EPSo-Re[5]
#
  0.0000     0.10292E-5   40.084     0.96415E-6   41.361   
 0.10020E-1  0.48401E-1   40.087     0.50665E-1   41.363   
 0.20040E-1  0.96844E-1   40.093     0.10138      41.370   
 0.30060E-1  0.14538      40.104     0.15219      41.383   
 0.40080E-1  0.19406      40.122     0.20314      41.400   
   0.050100    0.242923   40.142998    0.254296   41.422009
   0.060120    0.292030   40.169739    0.305693   41.449162
   0.070140    0.341403   40.199574    0.357387   41.481293
   0.080160    0.391101   40.235023    0.409429   41.518433
   0.090180    0.441193   40.275631    0.461871   41.560619
   0.100200    0.491727   40.321426    0.514767   41.607906
   0.110220    0.542719   40.371277    0.568172   41.660355
   0.120240    0.594204   40.425209    0.622142   41.717964
   0.130261    0.646311   40.484917    0.676734   41.780815
   0.140281    0.699117   40.550934    0.732009   41.848976
   0.150301    0.752561   40.620564    0.788029   41.922482
   0.160321    0.806800   40.695915    0.844857   42.001423
   0.170341    0.861751   40.774372    0.902562   42.085861
   0.180361    0.917685   40.860245    0.961210   42.175900
   0.190381    0.974628   40.952412    1.020876   42.271599
   0.200401    1.032575   41.049149    1.081633   42.373081
   0.210421    1.091687   41.152531    1.143563   42.480431
   0.220441    1.151926   41.261131    1.206745   42.593758
   0.230461    1.213486   41.375320    1.271270   42.713169
   0.240481    1.276272   41.494366    1.337227   42.838787
   0.250501    1.340582   41.620399    1.404714   42.970768
   0.260521    1.406453   41.753231    1.473831   43.109222
   0.270541    1.473940   41.891705    1.544687   43.254295
   0.280561    1.543184   42.036980    1.617398   43.406162
   0.290581    1.614277   42.188004    1.692083   43.564976
   0.300601    1.687346   42.345955    1.768872   43.730911
   0.310621    1.762578   42.511932    1.847901   43.904171
   0.320641    1.839957   42.683598    1.929320   44.084942
   0.330661    1.919916   42.864338    2.013283   44.273426
   0.340681    2.002429   43.052704    2.099957   44.469872
   0.350701    2.087621   43.247849    2.189521   44.674477
   0.360721    2.175807   43.452507    2.282168   44.887527
   0.370741    2.266748   43.662140    2.378104   45.109268
   0.380762    2.361220   43.881527    2.477552   45.340000
   0.390782    2.459359   44.112434    2.580750   45.579994
   0.400802    2.560905   44.349064    2.687958   45.829601
   0.410822    2.666507   44.594360    2.799455   46.089111
   0.420842    2.776679   44.852261    2.915542   46.358921
   0.430862    2.891785   45.121761    3.036548   46.639370
   0.440882    3.011205   45.398212    3.162828   46.930897
   0.450902    3.136236   45.686424    3.294772   47.233910
   0.460922    3.267003   45.986637    3.432800   47.548874
   0.470942    3.404281   46.300575    3.577373   47.876263
   0.480962    3.547477   46.623547    3.728995   48.216576
   0.490982    3.698162   46.960011    3.888219   48.570374
   0.501002    3.856691   47.311085    4.055651   48.938221
   0.511022    4.023001   47.673885    4.231954   49.320728
   0.521042    4.199412   48.056461    4.417866   49.718555
   0.531062    4.383964   48.445393    4.614191   50.132408
   0.541082    4.580112   48.857262    4.821827   50.563000
   0.551102    4.787449   49.282345    5.041769   51.011108
   0.561122    5.008209   49.728912    5.275110   51.477604
   0.571142    5.240977   50.187431    5.523077   51.963291
   0.581162    5.490360   50.671284    5.787037   52.469166
   0.591182    5.755254   51.172314    6.068514   52.996174
   0.601202    6.037663   51.691666    6.369218   53.545380
   0.611222    6.341043   52.238701    6.691063   54.117855
   0.621242    6.665297   52.806999    7.036208   54.714748
   0.631262    7.012069   53.393829    7.407090   55.337257
   0.641283    7.387983   54.013695    7.806446   55.986584
   0.651303    7.792321   54.659428    8.237397   56.664036
   0.661323    8.228155   55.328316    8.703477   57.370872
   0.671343    8.701879   56.031288    9.208710   58.108372
   0.681363    9.214581   56.759499    9.757690   58.877789
   0.691383    9.773783   57.522808   10.355667   59.680157
   0.701403   10.382305   58.315804   11.008646   60.516827
   0.711423   11.048321   59.142445   11.723532   61.388432
   0.721443   11.781824   60.011017   12.508249   62.295563
   0.731463   12.587300   60.908859   13.371933   63.238235
   0.741483   13.473635   61.838715   14.325081   64.215820
   0.751503   14.450373   62.798485   15.379785   65.226860
   0.761523   15.535671   63.791901   16.549965   66.268471
   0.771543   16.744276   64.814156   17.851561   67.336143
   0.781563   18.087618   65.851982   19.302805   68.422905
   0.791583   19.591829   66.913345   20.924351   69.518547
   0.801603   21.266331   67.962280   22.739393   70.608551
   0.811623   23.151838   69.006630   24.773520   71.672653
   0.821643   25.264532   70.008011   27.054235   72.682892
   0.831663   27.627844   70.929718   29.609959   73.601662
   0.841683   30.277164   71.737526   32.468094   74.378693
   0.851703   33.234516   72.371231   35.651764   74.948524
   0.861723   36.510956   72.756477   39.174603   75.227623
   0.871743   40.115379   72.797737   43.033150   75.112808
   0.881764   44.039890   72.393661   47.196373   74.482048
   0.891784   48.211105   71.407982   51.592651   73.200020
   0.901804   52.555988   69.708946   56.096134   71.131157
   0.911824   56.898598   67.177460   60.516571   68.162422
   0.921844   61.004898   63.729240   64.599983   64.235596
   0.931864   64.613449   59.359161   68.047081   59.384056
   0.941884   67.413368   54.171505   70.555420   53.760483
   0.951904   69.163902   48.385052   71.879234   47.641556
   0.961924   69.670807   42.328629   71.889236   41.395126
   0.971944   68.887436   36.387333   70.607834   35.416374
   0.981964   66.948730   30.919668   68.203232   30.053324
   0.991984   64.079636   26.199093   64.945015   25.550032
   1.002004   60.559620   22.397738   61.141872   22.024866
   1.012024   56.683445   19.567465   57.085659   19.482544
   1.022044   52.719238   17.635706   53.015732   17.846363
   1.032064   48.845936   16.517813   49.105953   16.994488
   1.042084   45.201958   16.080576   45.468201   16.789948
   1.052104   41.860100   16.187765   42.163891   17.100491
   1.062124   38.858082   16.724449   39.217934   17.809340
   1.072144   36.208012   17.580742   36.631046   18.818995
   1.082164   33.895145   18.682024   34.389557   20.051281
   1.092184   31.904074   19.958832   32.472363   21.445158
   1.102204   30.212236   21.362165   30.855455   22.953796
   1.112224   28.796003   22.854275   29.514917   24.541658
   1.122244   27.631599   24.403688   28.428486   26.181803
   1.132264   26.697514   25.989840   27.576344   27.853466
   1.142285   25.980389   27.595501   26.941368   29.540274
   1.152305   25.462139   29.205570   26.509045   31.228405
   1.162325   25.128250   30.807631   26.266916   32.905373
   1.172345   24.970701   32.389797   26.203812   34.558876
   1.182365   24.975161   33.940002   26.308729   36.176163
   1.192385   25.131302   35.445446   26.569437   37.743549
   1.202405   25.423056   36.893059   26.970755   39.246986
   1.212425   25.834188   38.268299   27.492867   40.673424
   1.222445   26.341253   39.564663   28.110142   42.013325
   1.232465   26.912868   40.775326   28.791298   43.264309
   1.242485   27.522686   41.906216   29.501881   44.435448
   1.252505   28.132690   42.977150   30.209352   45.549873
   1.262525   28.716761   44.015804   30.890083   46.644932
   1.272545   29.266354   45.071865   31.536180   47.767773
   1.282565   29.783989   46.185799   32.159004   48.967602
   1.292585   30.292099   47.401161   32.788090   50.287075
   1.302605   30.829996   48.752354   33.465797   51.756245
   1.312625   31.443130   50.255970   34.240311   53.390221
   1.322645   32.164806   51.912666   35.159702   55.190903
   1.332665   33.048634   53.726440   36.268513   57.150471
   1.342685   34.114433   55.674213   37.606907   59.255165
   1.352705   35.412407   57.758587   39.211739   61.488106
   1.362725   36.959183   59.949165   41.118340   63.831097
   1.372745   38.795719   62.242599   43.362812   66.264183
   1.382765   40.932964   64.611893   45.983822   68.765396
   1.392786   43.437653   67.053345   49.024418   71.308891
   1.402806   46.326263   69.529106   52.533161   73.862709
   1.412826   49.655190   72.022690   56.564842   76.385666
   1.422846   53.461411   74.498055   61.180603   78.823380
   1.432866   57.824020   76.907394   66.447037   81.103470
   1.442886   62.787712   79.188416   72.433784   83.129692
   1.452906   68.438957   81.246536   79.209160   84.775009
   1.462926   74.819206   82.981789   86.831940   85.873970
   1.472946   82.031273   84.240295   95.338943   86.215591
    1.48297    90.05273    84.84274   104.72609    85.53828
    1.49299    98.99243    84.52430   114.92216    83.53068
    1.50301   108.73031    83.01767   125.75581    79.84404
    1.51303   119.14560    79.98404   136.92010    74.12275
    1.52305   130.03421    75.07266   147.94350    66.05946
    1.53307   140.90060    67.98328   158.18597    55.47624
    1.54309   151.26552    58.45939   166.88014    42.41877
    1.55311   160.41458    46.41749   173.23097    27.23647
    1.56313   167.46086    32.22005   176.56725    10.60269
    1.57315   171.78101    16.29333   176.50012    -6.55417
    1.58317   172.84439    -0.35970   173.02733   -23.20807
    1.59319   170.52878   -16.98691   166.53377   -38.42909
    1.60321   165.12640   -32.38787   157.68803   -51.54122
    1.61323   157.17880   -45.95449   147.28342   -62.19289
    1.62325   147.43120   -57.21150   136.08701   -70.33568
    1.63327   136.66908   -65.98380   124.73856   -76.14641
    1.64329   125.58836   -72.39906   113.70959   -79.93171
    1.65331   114.66187   -76.73161   103.30669   -82.04709
    1.66333   104.24379   -79.32106    93.70050   -82.84145
   1.673347   94.612343  -80.484596   84.960747  -82.626152
   1.683367   85.774269  -80.578072   77.089867  -81.662888
   1.693387   77.793793  -79.868172   70.048851  -80.162529
   1.703407   70.654266  -78.552681   63.776234  -78.289948
   1.713427   64.290817  -76.833244   58.200775  -76.171165
   1.723447   58.612785  -74.832352   53.249443  -73.900810
   1.733467   53.590309  -72.658218   48.851994  -71.548759
   1.743487   49.116550  -70.382835   44.943375  -69.166000
   1.753507   45.139046  -68.054665   41.464859  -66.788910
   1.763527   41.611359  -65.729218   38.364277  -64.443024
   1.773547   38.472458  -63.427299   35.595688  -62.145813
   1.783567   35.662090  -61.163677   33.118999  -59.908752
   1.793587   33.152523  -58.954582   30.899330  -57.738918
   1.803607   30.909426  -56.816738   28.906492  -55.639961
   1.813627   28.891796  -54.739925   27.114275  -53.613659
   1.823647   27.081430  -52.733589   25.500103  -51.659729
   1.833667   25.454222  -50.800156   24.044348  -49.776787
   1.843687   23.980795  -48.933086   22.730129  -47.962658
   1.853707   22.658504  -47.137173   21.542839  -46.214649
   1.863727   21.464617  -45.405617   20.469872  -44.529690
   1.873747   20.385326  -43.736549   19.500322  -42.904503
   1.883767   19.408138  -42.125065   18.624821  -41.335754
   1.893788   18.529297  -40.571682   17.835306  -39.819958
   1.903808   17.737190  -39.069115   17.124924  -38.353806
   1.913828   17.026062  -37.616356   16.487818  -36.933929
   1.923848   16.387794  -36.210396   15.919097  -35.557117
   1.933868   15.819473  -34.847012   15.414718  -34.220268
   1.943888   15.313783  -33.522079   14.971430  -32.920406
   1.953908   14.871444  -32.234566   14.586741  -31.654690
   1.963928   14.490834  -30.983120   14.258846  -30.420477
   1.973948   14.164654  -29.760048   13.986650  -29.215303
   1.983968   13.893981  -28.566320   13.769766  -28.036915
   1.993988   13.680426  -27.400339   13.608500  -26.883331
   2.004008   13.522056  -26.257078   13.503898  -25.752924
   2.014028   13.421654  -25.138950   13.457776  -24.644432
   2.024048   13.380083  -24.042347   13.472773  -23.557125
   2.034068   13.399482  -22.966301   13.552397  -22.490934
   2.044088   13.486552  -21.913019   13.701096  -21.446609
   2.054108   13.641689  -20.881763   13.924298  -20.426073
   2.064128   13.872271  -19.874859   14.228424  -19.432690
   2.074148   14.185941  -18.896389   14.620876  -18.471754
   2.084168   14.588366  -17.951721   15.109860  -17.551104
   2.094188   15.087380  -17.049446   15.704149  -16.681774
   2.104208   15.692910  -16.201363   16.412392  -15.878971
   2.114228   16.413862  -15.423305   17.242216  -15.162947
   2.124248   17.254772  -14.736542   18.198551  -14.560012
   2.134269   18.221659  -14.168839   19.281248  -14.103207
   2.144289   19.311375  -13.754031   20.481718  -13.832283
   2.154309   20.513718  -13.532793   21.778616  -13.792236
   2.164329   21.803558  -13.550426   23.133127  -14.029569
   2.174349   23.136507  -13.851650   24.485008  -14.585272
   2.184369   24.450823  -14.472964   25.751652  -15.484470
   2.194389   25.656963  -15.434947   26.832760  -16.723841
   2.204409   26.655340  -16.725456   27.622904  -18.260849
   2.214429   27.344324  -18.290642   28.030952  -20.009798
   2.224449   27.640795  -20.036737   28.001425  -21.849964
   2.234469   27.498875  -21.840900   27.529287  -23.645390
   2.244489   26.930990  -23.568754   26.661495  -25.270512
   2.254509   25.991549  -25.101854   25.484432  -26.631866
   2.264529   24.771858  -26.359800   24.103193  -27.678783
   2.274549   23.379883  -27.303045   22.621292  -28.401569
   2.284569   21.910627  -27.929234   21.126514  -28.821627
   2.294589   20.447037  -28.267307   19.684717  -28.979195
   2.304609   19.046354  -28.356522   18.339928  -28.922138
   2.314629   17.750408  -28.247162   17.117815  -28.698597
   2.324649   16.579796  -27.984308   16.030348  -28.352718
   2.334669   15.540165  -27.608303   15.080031  -27.922956
   2.344689   14.637224  -27.157253   14.263304  -27.442131
   2.354709   13.864057  -26.661037   13.572663  -26.937994
   2.364729   13.212314  -26.144533   12.997983  -26.434397
   2.374749   12.674500  -25.630344   12.526831  -25.952076
   2.384769   12.237859  -25.136528   12.144278  -25.509054
   2.394789   11.890008  -24.682226   11.832416  -25.120506
   2.404809   11.614642  -24.279886   11.570010  -24.797657
   2.414829   11.392283  -23.942205   11.332837  -24.546160
   2.424850   11.202724  -23.676420   11.095258  -24.364153
   2.434870   11.020373  -23.482922   10.833212  -24.241131
   2.444890   10.823020  -23.356384   10.528070  -24.158499
   2.454910   10.589469  -23.283342   10.170063  -24.092447
   2.464930   10.304902  -23.244171    9.759747  -24.018484
   2.474950    9.963447  -23.215416    9.306757  -23.916098
   2.484970    9.566880  -23.173239    8.826493  -23.771854
   2.494990    9.127177  -23.099401    8.336078  -23.580137
   2.505010    8.657521  -22.980165    7.851051  -23.341959
   2.515030    8.177940  -22.813131    7.383512  -23.062788
   2.525050    7.701833  -22.597279    6.941620  -22.750336
   2.535070    7.242835  -22.339687    6.529957  -22.412809
   2.545090    6.807602  -22.046104    6.150324  -22.057892
   2.555110    6.402049  -21.726089    5.802574  -21.692181
   2.565130    6.027833  -21.387808    5.485332  -21.321051
   2.575150    5.685408  -21.037176    5.196549  -20.948660
   2.585170    5.372900  -20.679544    4.933877  -20.578156
   2.595190    5.089277  -20.320524    4.694911  -20.211834
   2.605210    4.831427  -19.962025    4.477335  -19.851326
   2.615230    4.597339  -19.607241    4.279001  -19.497751
   2.625250    4.384434  -19.257099    4.097969  -19.151810
   2.635270    4.191197  -18.914177    3.932515  -18.813942
   2.645291    4.015243  -18.577709    3.781122  -18.484373
   2.655311    3.854841  -18.249050    3.642481  -18.163170
   2.665331    3.708561  -17.928005    3.515455  -17.850328
   2.675350    3.575501  -17.615639    3.399082  -17.545782
   2.685370    3.454314  -17.311455    3.292546  -17.249384
   2.695390    3.343927  -17.015034    3.195157  -16.961082
   2.705411    3.243701  -16.726612    3.106350  -16.680779
   2.715431    3.152810  -16.446018    3.025647  -16.408459
   2.725451    3.071270  -16.174147    2.952643  -16.144163
   2.735471    2.998031  -15.910498    2.886975  -15.888044
   2.745491    2.933150  -15.655474    2.828280  -15.640356
   2.755511    2.875690  -15.408914    2.776146  -15.401493
   2.765531    2.825704  -15.172123    2.730029  -15.171989
   2.775551    2.782246  -14.945529    2.689175  -14.952476
   2.785571    2.744496  -14.729790    2.652525  -14.743590
   2.795591    2.711068  -14.525964    2.618641  -14.545869
   2.805611    2.680314  -14.334525    2.585696  -14.359537
   2.815631    2.649826  -14.155218    2.551573  -14.184235
   2.825651    2.617244  -13.988276    2.514127  -14.018897
   2.835671    2.580077  -13.831758    2.471541  -13.861648
   2.845691    2.536515  -13.683815    2.422734  -13.709996
   2.855711    2.484994  -13.541147    2.367593  -13.561228
   2.865731    2.425973  -13.400640    2.306971  -13.412951
   2.875751    2.360555  -13.259564    2.242423  -13.263361
   2.885771    2.290692  -13.116039    2.175800  -13.111470
   2.895791    2.218546  -12.969371    2.108887  -12.957057
   2.905811    2.146276  -12.819163    2.043162  -12.800434
   2.915831    2.075290  -12.665861    1.979684  -12.642263
   2.925852    2.006922  -12.510034    1.919121  -12.483291
   2.935872    1.941911  -12.353112    1.861809  -12.324278
   2.945892    1.880593  -12.195734    1.807845  -12.165878
   2.955912    1.822925  -12.038587    1.757168  -12.008627
   2.965932    1.769034  -11.882432    1.709620  -11.852961
   2.975952    1.718676  -11.727802    1.664994  -11.699172
   2.985972    1.671460  -11.574755    1.623062  -11.547491
   2.995992    1.627318  -11.424140    1.583596  -11.398068
   3.006012    1.585823  -11.275469    1.546380  -11.250995
   3.016032    1.546844  -11.129334    1.511211  -11.106303
   3.026052    1.510102  -10.985526    1.477908  -10.964025
   3.036072    1.475360  -10.844050    1.446303  -10.824139
   3.046092    1.442528  -10.705180    1.416252  -10.686632
   3.056112    1.411317  -10.568602    1.387622  -10.551454
   3.066132    1.381665  -10.434382    1.360297  -10.418572
   3.076152    1.353438  -10.302616    1.334175  -10.287918
   3.086172    1.326475  -10.172986    1.309164  -10.159451
   3.096192    1.300678  -10.045557    1.285182  -10.033111
  3.1062121   1.2760558  -9.9204578   1.2621576  -9.9088430
  3.1162322   1.2523607  -9.7973461   1.2400249  -9.7865896
  3.1262522   1.2296431  -9.6762514   1.2187263  -9.6662817
  3.1362724   1.2077981  -9.5571527   1.1982098  -9.5478811
  3.1462924   1.1868300  -9.4401150   1.1784282  -9.4313183
  3.1563125   1.1665665  -9.3247919   1.1593386  -9.3165588
  3.1663325   1.1470667  -9.2113638   1.1409028  -9.2035332
  3.1763525   1.1282443  -9.0997362   1.1230860  -9.0922108
  3.1863725   1.1100805  -8.9897957   1.1058561  -8.9825153
  3.1963925   1.0925348  -8.8815327   1.0891836  -8.8744240
  3.2064126   1.0755548  -8.7748690   1.0730417  -8.7678785
  3.2164328   1.0590707  -8.6696367   1.0574059  -8.6628447
  3.2264528   1.0431558  -8.5660963   1.0422537  -8.5592737
  3.2364728   1.0277584  -8.4639807   1.0275637  -8.4571209
  3.2464929   1.0128089  -8.3633757   1.0133168  -8.3563547
  3.2565129   0.9983093  -8.2641296   0.9994950  -8.2569351
  3.2665329   0.9842585  -8.1662426   0.9860811  -8.1588211
  3.2765529   0.9705994  -8.0697594   0.9730609  -8.0619793
  3.2865732   0.9573692  -7.9745088   0.9604183  -7.9663668
  3.2965932   0.9445233  -7.8804960   0.9481412  -7.8719683
  3.3066132   0.9320290  -7.7876515   0.9362162  -7.7787352
  3.3166330   0.9199025  -7.6960812   0.9246317  -7.6866417
  3.3266530   0.9081250  -7.6056714   0.9133783  -7.5956526
  3.3366730   0.8966700  -7.5163488   0.9024422  -7.5057459
  3.3466930   0.8855546  -7.4281468   0.8918154  -7.4168844
  3.3567133   0.8747091  -7.3409715   0.8814888  -7.3290415
  3.3667333   0.8641661  -7.2547746   0.8714539  -7.2421865
  3.3767533   0.8539432  -7.1696992   0.8617027  -7.1562996
  3.3867733   0.8439964  -7.0855618   0.8522281  -7.0713463
  3.3967934   0.8343157  -7.0024095   0.8430226  -6.9873128
  3.4068134   0.8248979  -6.9201989   0.8340794  -6.9041638
  3.4168336   0.8157440  -6.8388071   0.8253924  -6.8218765
  3.4268537   0.8068457  -6.7583556   0.8169559  -6.7404261
  3.4368734   0.7981864  -6.6787701   0.8087645  -6.6597962
  3.4468937   0.7897788  -6.6000772   0.8008125  -6.5799589
  3.4569135   0.7815977  -6.5220971   0.7930958  -6.5008817
  3.4669337   0.7736475  -6.4449334   0.7856087  -6.4225535
  3.4769535   0.7659113  -6.3685255   0.7783490  -6.3449564
  3.4869738   0.7584087  -6.2929244   0.7713112  -6.2680454
  3.4969938   0.7511226  -6.2180080   0.7644928  -6.1918335
  3.5070140   0.7440413  -6.1438060   0.7578892  -6.1162801
  3.5170338   0.7371556  -6.0702600   0.7514980  -6.0413680
  3.5270541   0.7304848  -5.9974475   0.7453166  -5.9670801
  3.5370739   0.7240129  -5.9252634   0.7393429  -5.8933902
  3.5470941   0.7177230  -5.8536468   0.7335731  -5.8202791
  3.5571139   0.7116478  -5.7827229   0.7280068  -5.7477374
  3.5671341   0.7057514  -5.7123189   0.7226411  -5.6757298
  3.5771542   0.7000461  -5.6425076   0.7174752  -5.6042500
  3.5871744   0.6945274  -5.5732479   0.7125069  -5.5332699
  3.5971942   0.6891907  -5.5045695   0.7077361  -5.4627786
  3.6072145   0.6840327  -5.4363418   0.7031614  -5.3927441
  3.6172342   0.6790690  -5.3687000   0.6987821  -5.3231659
  3.6272545   0.6742741  -5.3014760   0.6945981  -5.2540154
  3.6372743   0.6696601  -5.2347450   0.6906098  -5.1852760
  3.6472943   0.6652250  -5.1684675   0.6868166  -5.1169238
  3.6573145   0.6609699  -5.1026092   0.6832187  -5.0489421
  3.6673343   0.6568828  -5.0371614   0.6798179  -4.9813185
  3.6773546   0.6529752  -4.9721251   0.6766136  -4.9140282
  3.6873744   0.6492422  -4.9075146   0.6736084  -4.8470545
  3.6973946   0.6456786  -4.8431969   0.6708026  -4.7803717
  3.7074146   0.6423004  -4.7792664   0.6681991  -4.7139678
  3.7174346   0.6390935  -4.7156525   0.6657991  -4.6478262
  3.7274547   0.6360656  -4.6523590   0.6636058  -4.5819230
  3.7374749   0.6332133  -4.5893602   0.6616206  -4.5162377
  3.7474947   0.6305412  -4.5266461   0.6598479  -4.4507542
  3.7575150   0.6280548  -4.4642119   0.6582900  -4.3854480
  3.7675347   0.6257485  -4.4020128   0.6569515  -4.3203030
  3.7775550   0.6236295  -4.3400574   0.6558363  -4.2552905
  3.7875750   0.6216856  -4.2782893   0.6549489  -4.1904030
  3.7975953   0.6199408  -4.2167335   0.6542943  -4.1256042
  3.8076150   0.6183851  -4.1553488   0.6538783  -4.0608788
  3.8176353   0.6170223  -4.0941110   0.6537066  -3.9962049
  3.8276551   0.6158633  -4.0330305   0.6537856  -3.9315643
  3.8376753   0.6149023  -3.9720602   0.6541227  -3.8669233
  3.8476951   0.6141445  -3.9111805   0.6547248  -3.8022656
  3.8577151   0.6136000  -3.8503873   0.6556014  -3.7375627
  3.8677354   0.6132782  -3.7896748   0.6567604  -3.6727891
  3.8777552   0.6131733  -3.7289882   0.6582118  -3.6079206
  3.8877754   0.6132916  -3.6683116   0.6599660  -3.5429282
  3.8977952   0.6136499  -3.6076481   0.6620346  -3.4777832
  3.9078155   0.6142439  -3.5469584   0.6644294  -3.4124603
  3.9178352   0.6150833  -3.4862120   0.6671644  -3.3469281
  3.9278555   0.6161923  -3.4254270   0.6702524  -3.2811556
  3.9378755   0.6175531  -3.3645155   0.6737099  -3.2151108
  3.9478958   0.6191925  -3.3035028   0.6775528  -3.1487598
  3.9579155   0.6211161  -3.2423475   0.6817992  -3.0820708
  3.9679358   0.6233438  -3.1810417   0.6864691  -3.0150027
  3.9779556   0.6258654  -3.1195123   0.6915823  -2.9475214
  3.9879758   0.6287147  -3.0577810   0.6971620  -2.8795905
  3.9979956   0.6318968  -2.9957871   0.7032325  -2.8111610
  4.0080161   0.6354203  -2.9334998   0.7098204  -2.7421982
  4.0180359   0.6393197  -2.8709238   0.7169543  -2.6726508
  4.0280561   0.6435907  -2.8079827   0.7246659  -2.6024735
  4.0380759   0.6482677  -2.7446680   0.7329882  -2.5316205
  4.0480962   0.6533682  -2.6809399   0.7419589  -2.4600344
  4.0581160   0.6589034  -2.6167526   0.7516171  -2.3876684
  4.0681357   0.6649167  -2.5520909   0.7620072  -2.3144584
  4.0781560   0.6714166  -2.4868858   0.7731771  -2.2403440
  4.0881758   0.6784307  -2.4210949   0.7851776  -2.1652644
  4.0981960   0.6860002  -2.3546963   0.7980661  -2.0891497
  4.1082163   0.6941463  -2.2876248   0.8119048  -2.0119331
  4.1182365   0.7029218  -2.2198522   0.8267621  -1.9335341
  4.1282563   0.7123487  -2.1513050   0.8427115  -1.8538802
  4.1382766   0.7224770  -2.0819337   0.8598367  -1.7728782
  4.1482964   0.7333525  -2.0116918   0.8782269  -1.6904497
  4.1583166   0.7450305  -1.9405094   0.8979836  -1.6064906
  4.1683364   0.7575533  -1.8683208   0.9192138  -1.5209072
  4.1783566   0.7709970  -1.7950667   0.9420441  -1.4335923
  4.1883764   0.7854192  -1.7206782   0.9666057  -1.3444383
  4.1983967   0.8009008  -1.6450697   0.9930521  -1.2533185
  4.2084165   0.8175174  -1.5681734   1.0215479  -1.1601174
  4.2184367   0.8353597  -1.4898953   1.0522821  -1.0646949
  4.2284565   0.8545291  -1.4101580   1.0854602  -0.9669195
  4.2384768   0.8751359  -1.3288608   1.1213183  -0.8666335
  4.2484965   0.8972983  -1.2459140   1.1601148  -0.7637005
  4.2585168   0.9211581  -1.1612042   1.2021478  -0.6579394
  4.2685370   0.9468652  -1.0746317   1.2477458  -0.5491977
  4.2785568   0.9745873  -0.9860802   1.2972842  -0.4372994
  4.2885771   1.0045161  -0.8954252   1.3511894  -0.3220578
  4.2985969   1.0368651  -0.8025589   1.4099379  -0.2033105
   4.308617    1.071872   -0.707340    1.474080   -0.080867
   4.318637    1.109810   -0.609645    1.544235    0.045434
  4.3286572   1.1509819  -0.5093344   1.6211147   0.1757609
  4.3386769   1.1957273  -0.4062949   1.7055235   0.3102403
  4.3486972   1.2444438  -0.3003826   1.7983946   0.4489872
  4.3587170   1.2975646  -0.1914914   1.9007757   0.5920463
   4.368737    1.355596   -0.079509    2.013890    0.739415
   4.378757    1.419098    0.035641    2.139103    0.890969
  4.3887773   1.4887185   0.1540114   2.2779927   1.0464650
  4.3987975   1.5651633   0.2756000   2.4323244   1.2054529
  4.4088178   1.6492504   0.4003504   2.6041012   1.3672562
  4.4188375   1.7418582   0.5280935   2.7955201   1.5308430
  4.4288578   1.8439851   0.6585790   3.0090127   1.6947823
  4.4388776   1.9566686   0.7913774   3.2471402   1.8570840
  4.4488978   2.0810339   0.9259157   3.5125952   2.0151262
  4.4589176   2.2181938   1.0613899   3.8079994   2.1654859
  4.4689379   2.3692882   1.1968001   4.1358538   2.3038716
  4.4789577   2.5353355   1.3309038   4.4981985   2.4249899
  4.4889779   2.7172625   1.4622685   4.8965106   2.5225277
  4.4989977   2.9158208   1.5893009   5.3312511   2.5890810
  4.5090175   3.1316574   1.7102782   5.8016343   2.6162117
  4.5190377   3.3652334   1.8234150   6.3051052   2.5945230
  4.5290575   3.6169555   1.9268212   6.8367138   2.5139546
  4.5390778   3.8871336   2.0185268   7.3886681   2.3643050
  4.5490980   4.1761146   2.0963409   7.9497008   2.1361237
  4.5591183   4.4842544   2.1578772   8.5049438   1.8218527
  4.5691381   4.8117976   2.2001922   9.0359430   1.4173548
  4.5791583   5.1588998   2.2196398   9.5215387   0.9234644
  4.5891781   5.5249867   2.2115397   9.9392290   0.3477580
   4.599198    5.908040    2.170435   10.267919   -0.294360
   4.609218    6.303757    2.090428   10.491360   -0.979399
   4.619238    6.705207    1.966763   10.602286   -1.678007
   4.629258    7.102901    1.797643   10.605241   -2.359164
   4.639278    7.487087    1.584927   10.516711   -2.996421
   4.649298    7.849572    1.335948   10.361812   -3.573092
   4.659318    8.187323    1.060713   10.168374   -4.085377
  4.6693382   8.5037193   0.7689753   9.9606276  -4.5415330
  4.6793585   8.8082075   0.4664914   9.7541199  -4.9584670
  4.6893787   9.1129694   0.1514853   9.5532513  -5.3562913
  4.6993990   9.4287806  -0.1866815   9.3513422  -5.7527957
  4.7094188   9.7598696  -0.5660396   9.1334686  -6.1583748
   4.719439   10.100422   -1.008842    8.881179   -6.573061
   4.729459   10.432521   -1.536086    8.578399   -6.986202
   4.739479   10.726258   -2.161280    8.216579   -7.379350
   4.749499   10.943944   -2.884721    7.797336   -7.731524
   4.759519   11.046324   -3.689976    7.331863   -8.024669
   4.769539   11.001813   -4.542429    6.837455   -8.247608
   4.779559   10.794753   -5.395721    6.333291   -8.397131
   4.789579   10.429775   -6.199962    5.836665   -8.476952
  4.7995987   9.9304504  -6.9123788   5.3610315  -8.4953642
  4.8096189   9.3332186  -7.5041890   4.9152727  -8.4628506
  4.8196387   8.6779985  -7.9635863   4.5042915  -8.3901739
  4.8296590   8.0024128  -8.2928553   4.1297665  -8.2872553
  4.8396792   7.3359299  -8.5044641   3.7912428  -8.1625757
  4.8496995   6.6995473  -8.6160975   3.4868469  -8.0230370
  4.8597193   6.1061163  -8.6468830   3.2140152  -7.8740873
  4.8697395   5.5622520  -8.6148958   2.9698298  -7.7198448
  4.8797593   5.0693779  -8.5358639   2.7513809  -7.5634308
  4.8897796   4.6263380  -8.4227400   2.5558441  -7.4070787
  4.8997993   4.2301025  -8.2858953   2.3806500  -7.2524157
  4.9098196   3.8767774  -8.1333628   2.2234423  -7.1005487
  4.9198394   3.5621397  -7.9711576   2.0821538  -6.9522343
  4.9298592   3.2820959  -7.8038435   1.9549417  -6.8079510
  4.9398794   3.0325830  -7.6346502   1.8401966  -6.6679497
  4.9498992   2.8101554  -7.4660316   1.7365309  -6.5323887
  4.9599195   2.6115949  -7.2996483   1.6427168  -6.4012680
  4.9699397   2.4339156  -7.1364689   1.5577114  -6.2745447
  4.9799600   2.2747962  -6.9774776   1.4805975  -6.1521239
  4.9899797   2.1320169  -6.8230124   1.4105965  -6.0338717
  5.0000000   2.0037155  -6.6734242   1.3470272  -5.9196267
# 
# 02/24/2017 at 16:54 YAMBO @ narro [start]
# 02/24/2017 at 16:54               [end]
#  
# Timing   [Min/Max/Average]: 14s/14s/14s
#
# .-Input file : yambo.in
# | optics                       # [R OPT] Optics
# | chi                          # [R CHI] Dyson equation for Chi.
# | BoseTemp=  0.02585     eV    # Bosonic Temperature
# | FFTGvecs= 229          RL    # [FFT] Plane-waves
# | Chimod= "Hartree"            # [X] IP/Hartree/ALDA/LRC/BSfxc
# | NGsBlkXd=  51          RL    # [Xd] Response block size
# | % QpntsRXd
# |  1 | 2 |                     # [Xd] Transferred momenta
# | %
# | % BndsRnXd
# |   1 | 20 |                   # [Xd] Polarization function bands
# | %
# | GrFnTpXd= "R"                # [Xd] Green`s function (T)ordered,(R)etarded,(r)senant,(a)ntiresonant [T, R, r, Ta, Ra]
# | % EnRngeXd
# |  0.000000 | 5.000000 | eV    # [Xd] Energy range
# | %
# | % DmRngeXd
# |   0.10000 |  0.10000 | eV    # [Xd] Damping range
# | %
# | ETStpsXd=  500               # [Xd] Total Energy steps
# | % LongDrXd
# | 0.1000E-4 | 0.000    | 0.000    |        # [Xd] [cc] Electric Field
# | %
