#  __      __   ______   __       __  _______    ______     
# |  \    /  \ /      \ |  \     /  \|       \  /      \    
#  \$$\  /  $$|  $$$$$$\| $$\   /  $$| $$$$$$$\|  $$$$$$\   
#   \$$\/  $$ | $$__| $$| $$$\ /  $$$| $$__/ $$| $$  | $$   
#    \$$  $$  | $$    $$| $$$$\  $$$$| $$    $$| $$  | $$   
#     \$$$$   | $$$$$$$$| $$\$$ $$ $$| $$$$$$$\| $$  | $$   
#     | $$    | $$  | $$| $$ \$$$| $$| $$__/ $$| $$__/ $$   
#     | $$    | $$  | $$| $$  \$ | $$| $$    $$ \$$    $$   
#      \$$     \$$   \$$ \$$      \$$ \$$$$$$$   \$$$$$$    
#                                                           
#        Version 4.3.0 Revision 15201 Hash 76636f9          
#                      MPI+SLK Build                        
#                http://www.yambo-code.org                  
#
# EELS @ Q(1)  [q->0 direction]:0.1000E-4  0.000     0.000   
#
#
# - Energies      are  E < 08_gw_eq/ndb.QP + E Fit
# - Wavefunctions are Slater exchange(X)+Perdew & Zunger(C)
#
# - The Green`s function is Retarded -
# - Using the Length Gauge -
# - [r,Vnl] *is* included -
#
#   BSK|Identifier              :8720
#      |Dimension               :72
#      |Bands                   :2 - 7
#      |Exchange           [res]: yes
#      |Correlation        [res]: yes
#      |Kernel`s coupling       : no
#      |Exchange           [cpl]: no
#      |Correlation        [cpl]: no
#      |W interaction is bare   : no
#      |ALDA kernel in R-space  : no
#      |RL vectors    [exchange]:531
#      |RL vectors [correlation]:59
#      |E/h energy range    [ev]:-1.000000 - -1.000000
#      |Coupling range     [o/o]: 100.0000 -  100.0000
#    W |Interaction is diagonal : no
#      |Matrix size             :59
#      |Bands                   :1 - 8
#      |e/h energy range    [ev]:-1.000000 - -1.000000
#      |Poles              [o/o]: 100.0000
#      |RL vectors in the sum   :387
#      |[r,Vnl] included        : yes
#      |Field direction         :0.1000E-4  0.000000  0.000000
#      |Coulomb Cutoff          :none
#      |xc-Kernel               :none
#   RIM|RL components      [col]:0
#      |Random points      [col]:0
#  
#   Haydock|Accuracy (requested) [o/o]:  0.02000
#          |Accuracy (reached)   [o/o]:  0.01386
#          |Iteration                 :14
#
#    E/ev[1]      EEL-Im[2]    EEL-Re[3]    EELo-Im[4]   EELo-Re[5]   EEL`-Im[6]   EEL`-Re[7]
#
     0.00000     -0.00000     -0.02204     -0.00000     -0.02606     -0.00000     -0.02204
   0.2004E-1    0.6355E-5    -.2204E-1    0.5362E-5    -.2606E-1    0.6355E-5    -.2204E-1
   0.4008E-1    0.1271E-4    -.2204E-1    0.1072E-4    -.2606E-1    0.1271E-4    -.2204E-1
   0.6012E-1    0.1907E-4    -.2203E-1    0.1609E-4    -.2606E-1    0.1907E-4    -.2203E-1
   0.8016E-1    0.2542E-4    -.2203E-1    0.2145E-4    -.2606E-1    0.2542E-4    -.2203E-1
   0.1002       0.3178E-4    -.2202E-1    0.2681E-4    -.2605E-1    0.3178E-4    -.2202E-1
   0.1202       0.3814E-4    -.2202E-1    0.3218E-4    -.2605E-1    0.3814E-4    -.2202E-1
   0.1403       0.4449E-4    -.2201E-1    0.3754E-4    -.2604E-1    0.4449E-4    -.2201E-1
   0.1603       0.5085E-4    -.2200E-1    0.4290E-4    -.2603E-1    0.5085E-4    -.2200E-1
   0.1804       0.5721E-4    -.2199E-1    0.4827E-4    -.2602E-1    0.5721E-4    -.2199E-1
   0.2004       0.6357E-4    -.2198E-1    0.5364E-4    -.2601E-1    0.6357E-4    -.2198E-1
   0.2204       0.6993E-4    -.2196E-1    0.5901E-4    -.2600E-1    0.6993E-4    -.2196E-1
   0.2405       0.7630E-4    -.2195E-1    0.6438E-4    -.2599E-1    0.7630E-4    -.2195E-1
   0.2605       0.8266E-4    -.2193E-1    0.6975E-4    -.2597E-1    0.8266E-4    -.2193E-1
   0.2806       0.8903E-4    -.2191E-1    0.7512E-4    -.2596E-1    0.8903E-4    -.2191E-1
   0.3006       0.9540E-4    -.2190E-1    0.8049E-4    -.2594E-1    0.9540E-4    -.2190E-1
   0.3206       0.1018E-3    -.2188E-1    0.8587E-4    -.2593E-1    0.1018E-3    -.2188E-1
   0.3407       0.1081E-3    -.2186E-1    0.9125E-4    -.2591E-1    0.1081E-3    -.2186E-1
   0.3607       0.1145E-3    -.2183E-1    0.9663E-4    -.2589E-1    0.1145E-3    -.2183E-1
   0.3808       0.1209E-3    -.2181E-1    0.1020E-3    -.2587E-1    0.1209E-3    -.2181E-1
   0.4008       0.1273E-3    -.2178E-1    0.1074E-3    -.2585E-1    0.1273E-3    -.2178E-1
   0.4208       0.1337E-3    -.2176E-1    0.1128E-3    -.2583E-1    0.1337E-3    -.2176E-1
   0.4409       0.1400E-3    -.2173E-1    0.1182E-3    -.2580E-1    0.1400E-3    -.2173E-1
   0.4609       0.1464E-3    -.2170E-1    0.1236E-3    -.2578E-1    0.1464E-3    -.2170E-1
   0.4810       0.1528E-3    -.2167E-1    0.1290E-3    -.2575E-1    0.1528E-3    -.2167E-1
   0.5010       0.1592E-3    -.2164E-1    0.1344E-3    -.2573E-1    0.1592E-3    -.2164E-1
   0.5210       0.1656E-3    -.2161E-1    0.1398E-3    -.2570E-1    0.1656E-3    -.2161E-1
   0.5411       0.1720E-3    -.2157E-1    0.1452E-3    -.2567E-1    0.1720E-3    -.2157E-1
   0.5611       0.1784E-3    -.2154E-1    0.1506E-3    -.2564E-1    0.1784E-3    -.2154E-1
   0.5812       0.1848E-3    -.2150E-1    0.1560E-3    -.2561E-1    0.1848E-3    -.2150E-1
   0.6012       0.1912E-3    -.2147E-1    0.1614E-3    -.2558E-1    0.1912E-3    -.2147E-1
   0.6212       0.1976E-3    -.2143E-1    0.1668E-3    -.2555E-1    0.1976E-3    -.2143E-1
   0.6413       0.2041E-3    -.2139E-1    0.1722E-3    -.2551E-1    0.2041E-3    -.2139E-1
   0.6613       0.2105E-3    -.2134E-1    0.1777E-3    -.2548E-1    0.2105E-3    -.2134E-1
   0.6814       0.2169E-3    -.2130E-1    0.1831E-3    -.2544E-1    0.2169E-3    -.2130E-1
   0.7014       0.2233E-3    -.2126E-1    0.1885E-3    -.2540E-1    0.2233E-3    -.2126E-1
   0.7214       0.2298E-3    -.2121E-1    0.1940E-3    -.2537E-1    0.2298E-3    -.2121E-1
   0.7415       0.2362E-3    -.2117E-1    0.1994E-3    -.2533E-1    0.2362E-3    -.2117E-1
   0.7615       0.2427E-3    -.2112E-1    0.2049E-3    -.2529E-1    0.2427E-3    -.2112E-1
   0.7816       0.2491E-3    -.2107E-1    0.2103E-3    -.2525E-1    0.2491E-3    -.2107E-1
   0.8016       0.2556E-3    -.2102E-1    0.2158E-3    -.2520E-1    0.2556E-3    -.2102E-1
   0.8216       0.2620E-3    -.2097E-1    0.2213E-3    -.2516E-1    0.2620E-3    -.2097E-1
   0.8417       0.2685E-3    -.2091E-1    0.2267E-3    -.2511E-1    0.2685E-3    -.2091E-1
   0.8617       0.2750E-3    -.2086E-1    0.2322E-3    -.2507E-1    0.2750E-3    -.2086E-1
   0.8818       0.2815E-3    -.2080E-1    0.2377E-3    -.2502E-1    0.2815E-3    -.2080E-1
   0.9018       0.2879E-3    -.2075E-1    0.2432E-3    -.2497E-1    0.2879E-3    -.2075E-1
   0.9218       0.2944E-3    -.2069E-1    0.2487E-3    -.2492E-1    0.2944E-3    -.2069E-1
   0.9419       0.3009E-3    -.2063E-1    0.2542E-3    -.2487E-1    0.3009E-3    -.2063E-1
   0.9619       0.3074E-3    -.2057E-1    0.2597E-3    -.2482E-1    0.3074E-3    -.2057E-1
   0.9820       0.3139E-3    -.2050E-1    0.2652E-3    -.2477E-1    0.3139E-3    -.2050E-1
    1.002       0.3205E-3    -.2044E-1    0.2707E-3    -.2472E-1    0.3205E-3    -.2044E-1
    1.022       0.3270E-3    -.2038E-1    0.2762E-3    -.2466E-1    0.3270E-3    -.2038E-1
    1.042       0.3335E-3    -.2031E-1    0.2818E-3    -.2460E-1    0.3335E-3    -.2031E-1
    1.062       0.3401E-3    -.2024E-1    0.2873E-3    -.2455E-1    0.3401E-3    -.2024E-1
    1.082       0.3466E-3    -.2017E-1    0.2929E-3    -.2449E-1    0.3466E-3    -.2017E-1
    1.102       0.3532E-3    -.2010E-1    0.2984E-3    -.2443E-1    0.3532E-3    -.2010E-1
    1.122       0.3597E-3    -.2003E-1    0.3040E-3    -.2437E-1    0.3597E-3    -.2003E-1
    1.142       0.3663E-3    -.1996E-1    0.3096E-3    -.2431E-1    0.3663E-3    -.1996E-1
    1.162       0.3729E-3    -.1989E-1    0.3152E-3    -.2425E-1    0.3729E-3    -.1989E-1
    1.182       0.3795E-3    -.1981E-1    0.3207E-3    -.2418E-1    0.3795E-3    -.1981E-1
    1.202       0.3861E-3    -.1973E-1    0.3263E-3    -.2412E-1    0.3861E-3    -.1973E-1
    1.222       0.3927E-3    -.1966E-1    0.3320E-3    -.2405E-1    0.3927E-3    -.1966E-1
    1.242       0.3993E-3    -.1958E-1    0.3376E-3    -.2398E-1    0.3993E-3    -.1958E-1
    1.263       0.4059E-3    -.1950E-1    0.3432E-3    -.2392E-1    0.4059E-3    -.1950E-1
    1.283       0.4126E-3    -.1941E-1    0.3488E-3    -.2385E-1    0.4126E-3    -.1941E-1
    1.303       0.4192E-3    -.1933E-1    0.3545E-3    -.2378E-1    0.4192E-3    -.1933E-1
    1.323       0.4259E-3    -.1925E-1    0.3602E-3    -.2370E-1    0.4259E-3    -.1925E-1
    1.343       0.4325E-3    -.1916E-1    0.3658E-3    -.2363E-1    0.4325E-3    -.1916E-1
    1.363       0.4392E-3    -.1907E-1    0.3715E-3    -.2356E-1    0.4392E-3    -.1907E-1
    1.383       0.4459E-3    -.1898E-1    0.3772E-3    -.2348E-1    0.4459E-3    -.1898E-1
    1.403       0.4526E-3    -.1889E-1    0.3829E-3    -.2341E-1    0.4526E-3    -.1889E-1
    1.423       0.4593E-3    -.1880E-1    0.3886E-3    -.2333E-1    0.4593E-3    -.1880E-1
    1.443       0.4660E-3    -.1871E-1    0.3944E-3    -.2325E-1    0.4660E-3    -.1871E-1
    1.463       0.4728E-3    -.1862E-1    0.4001E-3    -.2317E-1    0.4728E-3    -.1862E-1
    1.483       0.4795E-3    -.1852E-1    0.4059E-3    -.2309E-1    0.4795E-3    -.1852E-1
    1.503       0.4863E-3    -.1842E-1    0.4116E-3    -.2301E-1    0.4863E-3    -.1842E-1
    1.523       0.4930E-3    -.1832E-1    0.4174E-3    -.2293E-1    0.4930E-3    -.1832E-1
    1.543       0.4998E-3    -.1823E-1    0.4232E-3    -.2284E-1    0.4998E-3    -.1823E-1
    1.563       0.5066E-3    -.1812E-1    0.4290E-3    -.2276E-1    0.5066E-3    -.1812E-1
    1.583       0.5134E-3    -.1802E-1    0.4349E-3    -.2267E-1    0.5134E-3    -.1802E-1
    1.603       0.5203E-3    -.1792E-1    0.4407E-3    -.2258E-1    0.5203E-3    -.1792E-1
    1.623       0.5271E-3    -.1781E-1    0.4466E-3    -.2249E-1    0.5271E-3    -.1781E-1
    1.643       0.5340E-3    -.1771E-1    0.4524E-3    -.2240E-1    0.5340E-3    -.1771E-1
    1.663       0.5408E-3    -.1760E-1    0.4583E-3    -.2231E-1    0.5408E-3    -.1760E-1
    1.683       0.5477E-3    -.1749E-1    0.4642E-3    -.2222E-1    0.5477E-3    -.1749E-1
    1.703       0.5546E-3    -.1738E-1    0.4702E-3    -.2213E-1    0.5546E-3    -.1738E-1
    1.723       0.5616E-3    -.1727E-1    0.4761E-3    -.2203E-1    0.5616E-3    -.1727E-1
    1.743       0.5685E-3    -.1716E-1    0.4821E-3    -.2194E-1    0.5685E-3    -.1716E-1
    1.764       0.5754E-3    -.1704E-1    0.4880E-3    -.2184E-1    0.5754E-3    -.1704E-1
    1.784       0.5824E-3    -.1692E-1    0.4940E-3    -.2174E-1    0.5824E-3    -.1692E-1
    1.804       0.5894E-3    -.1681E-1    0.5001E-3    -.2164E-1    0.5894E-3    -.1681E-1
    1.824       0.5964E-3    -.1669E-1    0.5061E-3    -.2154E-1    0.5964E-3    -.1669E-1
    1.844       0.6034E-3    -.1657E-1    0.5122E-3    -.2144E-1    0.6034E-3    -.1657E-1
    1.864       0.6105E-3    -.1645E-1    0.5183E-3    -.2133E-1    0.6105E-3    -.1645E-1
    1.884       0.6175E-3    -.1632E-1    0.5244E-3    -.2123E-1    0.6175E-3    -.1632E-1
    1.904       0.6246E-3    -.1620E-1    0.5305E-3    -.2112E-1    0.6246E-3    -.1620E-1
    1.924       0.6317E-3    -.1607E-1    0.5366E-3    -.2102E-1    0.6317E-3    -.1607E-1
    1.944       0.6389E-3    -.1595E-1    0.5428E-3    -.2091E-1    0.6389E-3    -.1595E-1
    1.964       0.6460E-3    -.1582E-1    0.5490E-3    -.2080E-1    0.6460E-3    -.1582E-1
    1.984       0.6532E-3    -.1569E-1    0.5552E-3    -.2069E-1    0.6532E-3    -.1569E-1
    2.004       0.6604E-3    -.1556E-1    0.5615E-3    -.2058E-1    0.6604E-3    -.1556E-1
    2.024       0.6676E-3    -.1542E-1    0.5678E-3    -.2046E-1    0.6676E-3    -.1542E-1
    2.044       0.6748E-3    -.1529E-1    0.5741E-3    -.2035E-1    0.6748E-3    -.1529E-1
    2.064       0.6821E-3    -.1515E-1    0.5804E-3    -.2023E-1    0.6821E-3    -.1515E-1
    2.084       0.6894E-3    -.1502E-1    0.5868E-3    -.2012E-1    0.6894E-3    -.1502E-1
    2.104       0.6967E-3    -.1488E-1    0.5932E-3    -.2000E-1    0.6967E-3    -.1488E-1
    2.124       0.7041E-3    -.1474E-1    0.5996E-3    -.1988E-1    0.7041E-3    -.1474E-1
    2.144       0.7114E-3    -.1459E-1    0.6061E-3    -.1976E-1    0.7114E-3    -.1459E-1
    2.164       0.7188E-3    -.1445E-1    0.6126E-3    -.1964E-1    0.7188E-3    -.1445E-1
    2.184       0.7263E-3    -.1431E-1    0.6192E-3    -.1951E-1    0.7263E-3    -.1431E-1
    2.204       0.7337E-3    -.1416E-1    0.6257E-3    -.1939E-1    0.7337E-3    -.1416E-1
    2.224       0.7412E-3    -.1401E-1    0.6323E-3    -.1926E-1    0.7412E-3    -.1401E-1
    2.244       0.7488E-3    -.1386E-1    0.6390E-3    -.1914E-1    0.7488E-3    -.1386E-1
    2.265       0.7563E-3    -.1371E-1    0.6457E-3    -.1901E-1    0.7563E-3    -.1371E-1
    2.285       0.7639E-3    -.1356E-1    0.6524E-3    -.1888E-1    0.7639E-3    -.1356E-1
    2.305       0.7715E-3    -.1341E-1    0.6592E-3    -.1875E-1    0.7715E-3    -.1341E-1
    2.325       0.7792E-3    -.1325E-1    0.6660E-3    -.1861E-1    0.7792E-3    -.1325E-1
    2.345       0.7869E-3    -.1309E-1    0.6729E-3    -.1848E-1    0.7869E-3    -.1309E-1
    2.365       0.7946E-3    -.1294E-1    0.6798E-3    -.1834E-1    0.7946E-3    -.1294E-1
    2.385       0.8024E-3    -.1278E-1    0.6868E-3    -.1821E-1    0.8024E-3    -.1278E-1
    2.405       0.8102E-3    -.1261E-1    0.6938E-3    -.1807E-1    0.8102E-3    -.1261E-1
    2.425       0.8181E-3    -.1245E-1    0.7009E-3    -.1793E-1    0.8181E-3    -.1245E-1
    2.445       0.8260E-3    -.1229E-1    0.7081E-3    -.1779E-1    0.8260E-3    -.1229E-1
    2.465       0.8339E-3    -.1212E-1    0.7152E-3    -.1764E-1    0.8339E-3    -.1212E-1
    2.485       0.8419E-3    -.1195E-1    0.7225E-3    -.1750E-1    0.8419E-3    -.1195E-1
    2.505       0.8499E-3    -.1178E-1    0.7298E-3    -.1736E-1    0.8499E-3    -.1178E-1
    2.525       0.8580E-3    -.1161E-1    0.7372E-3    -.1721E-1    0.8580E-3    -.1161E-1
    2.545       0.8662E-3    -.1144E-1    0.7447E-3    -.1706E-1    0.8662E-3    -.1144E-1
    2.565       0.8744E-3    -.1126E-1    0.7522E-3    -.1691E-1    0.8744E-3    -.1126E-1
    2.585       0.8826E-3    -.1109E-1    0.7598E-3    -.1676E-1    0.8826E-3    -.1109E-1
    2.605       0.8909E-3    -.1091E-1    0.7675E-3    -.1661E-1    0.8909E-3    -.1091E-1
    2.625       0.8993E-3    -.1073E-1    0.7753E-3    -.1645E-1    0.8993E-3    -.1073E-1
    2.645       0.9077E-3    -.1055E-1    0.7832E-3    -.1630E-1    0.9077E-3    -.1055E-1
    2.665       0.9162E-3    -.1037E-1    0.7911E-3    -.1614E-1    0.9162E-3    -.1037E-1
    2.685       0.9248E-3    -.1018E-1    0.7992E-3    -.1598E-1    0.9248E-3    -.1018E-1
    2.705       0.9334E-3    -.9998E-2    0.8073E-3    -.1582E-1    0.9334E-3    -.9998E-2
    2.725       0.9421E-3    -.9810E-2    0.8156E-3    -.1566E-1    0.9421E-3    -.9810E-2
    2.745       0.9509E-3    -.9621E-2    0.8240E-3    -.1549E-1    0.9509E-3    -.9621E-2
    2.766       0.9597E-3    -.9429E-2    0.8325E-3    -.1533E-1    0.9597E-3    -.9429E-2
    2.786       0.9686E-3    -.9236E-2    0.8411E-3    -.1516E-1    0.9686E-3    -.9236E-2
    2.806       0.9777E-3    -.9041E-2    0.8498E-3    -.1499E-1    0.9777E-3    -.9041E-2
    2.826       0.9868E-3    -.8845E-2    0.8587E-3    -.1482E-1    0.9868E-3    -.8845E-2
    2.846       0.9960E-3    -.8646E-2    0.8677E-3    -.1465E-1    0.9960E-3    -.8646E-2
    2.866       0.1005E-2    -.8446E-2    0.8769E-3    -.1447E-1    0.1005E-2    -.8446E-2
    2.886       0.1015E-2    -.8244E-2    0.8863E-3    -.1429E-1    0.1015E-2    -.8244E-2
    2.906       0.1024E-2    -.8039E-2    0.8958E-3    -.1412E-1    0.1024E-2    -.8039E-2
    2.926       0.1034E-2    -.7833E-2    0.9055E-3    -.1394E-1    0.1034E-2    -.7833E-2
    2.946       0.1044E-2    -.7625E-2    0.9154E-3    -.1375E-1    0.1044E-2    -.7625E-2
    2.966       0.1053E-2    -.7416E-2    0.9255E-3    -.1357E-1    0.1053E-2    -.7416E-2
    2.986       0.1063E-2    -.7204E-2    0.9359E-3    -.1338E-1    0.1063E-2    -.7204E-2
    3.006       0.1074E-2    -.6990E-2    0.9464E-3    -.1320E-1    0.1074E-2    -.6990E-2
    3.026       0.1084E-2    -.6774E-2    0.9573E-3    -.1300E-1    0.1084E-2    -.6774E-2
    3.046       0.1094E-2    -.6556E-2    0.9684E-3    -.1281E-1    0.1094E-2    -.6556E-2
    3.066       0.1105E-2    -.6336E-2    0.9798E-3    -.1262E-1    0.1105E-2    -.6336E-2
    3.086       0.1116E-2    -.6114E-2    0.9915E-3    -.1242E-1    0.1116E-2    -.6114E-2
    3.106       0.1127E-2    -.5889E-2    0.1004E-2    -.1222E-1    0.1127E-2    -.5889E-2
    3.126       0.1138E-2    -.5663E-2    0.1016E-2    -.1202E-1    0.1138E-2    -.5663E-2
    3.146       0.1149E-2    -.5434E-2    0.1029E-2    -.1182E-1    0.1149E-2    -.5434E-2
    3.166       0.1161E-2    -.5203E-2    0.1042E-2    -.1161E-1    0.1161E-2    -.5203E-2
    3.186       0.1173E-2    -.4969E-2    0.1056E-2    -.1140E-1    0.1173E-2    -.4969E-2
    3.206       0.1185E-2    -.4733E-2    0.1070E-2    -.1119E-1    0.1185E-2    -.4733E-2
    3.226       0.1198E-2    -.4495E-2    0.1085E-2    -.1097E-1    0.1198E-2    -.4495E-2
    3.246       0.1210E-2    -.4254E-2    0.1100E-2    -.1075E-1    0.1210E-2    -.4254E-2
    3.267       0.1223E-2    -.4011E-2    0.1117E-2    -.1053E-1    0.1223E-2    -.4011E-2
    3.287       0.1237E-2    -.3765E-2    0.1133E-2    -.1031E-1    0.1237E-2    -.3765E-2
    3.307       0.1251E-2    -.3517E-2    0.1151E-2    -.1008E-1    0.1251E-2    -.3517E-2
    3.327       0.1265E-2    -.3265E-2    0.1170E-2    -.9851E-2    0.1265E-2    -.3265E-2
    3.347       0.1280E-2    -.3011E-2    0.1189E-2    -.9617E-2    0.1280E-2    -.3011E-2
    3.367       0.1295E-2    -.2754E-2    0.1210E-2    -.9379E-2    0.1295E-2    -.2754E-2
    3.387       0.1311E-2    -.2494E-2    0.1232E-2    -.9136E-2    0.1311E-2    -.2494E-2
    3.407       0.1328E-2    -.2231E-2    0.1256E-2    -.8890E-2    0.1328E-2    -.2231E-2
    3.427       0.1345E-2    -.1964E-2    0.1281E-2    -.8639E-2    0.1345E-2    -.1964E-2
    3.447       0.1363E-2    -.1694E-2    0.1308E-2    -.8383E-2    0.1363E-2    -.1694E-2
    3.467       0.1382E-2    -.1421E-2    0.1338E-2    -.8122E-2    0.1382E-2    -.1421E-2
    3.487       0.1402E-2    -.1144E-2    0.1370E-2    -.7855E-2    0.1402E-2    -.1144E-2
    3.507       0.1423E-2    -.8629E-3    0.1404E-2    -.7583E-2    0.1423E-2    -.8629E-3
    3.527       0.1445E-2    -.5779E-3    0.1443E-2    -.7304E-2    0.1445E-2    -.5779E-3
    3.547       0.1469E-2    -.2886E-3    0.1485E-2    -.7019E-2    0.1469E-2    -.2886E-3
    3.567       0.1495E-2    0.5191E-5    0.1532E-2    -.6726E-2    0.1495E-2    0.5188E-5
    3.587       0.1522E-2    0.3038E-3    0.1584E-2    -.6425E-2    0.1522E-2    0.3038E-3
    3.607       0.1552E-2    0.6075E-3    0.1643E-2    -.6115E-2    0.1552E-2    0.6075E-3
    3.627       0.1585E-2    0.9166E-3    0.1711E-2    -.5796E-2    0.1585E-2    0.9166E-3
    3.647       0.1620E-2    0.1231E-2    0.1789E-2    -.5467E-2    0.1620E-2    0.1231E-2
    3.667       0.1660E-2    0.1553E-2    0.1879E-2    -.5127E-2    0.1660E-2    0.1553E-2
    3.687       0.1704E-2    0.1880E-2    0.1984E-2    -.4775E-2    0.1704E-2    0.1880E-2
    3.707       0.1753E-2    0.2216E-2    0.2110E-2    -.4410E-2    0.1753E-2    0.2216E-2
    3.727       0.1809E-2    0.2558E-2    0.2261E-2    -.4033E-2    0.1809E-2    0.2558E-2
    3.747       0.1873E-2    0.2910E-2    0.2443E-2    -.3644E-2    0.1873E-2    0.2910E-2
    3.768       0.1947E-2    0.3270E-2    0.2668E-2    -.3246E-2    0.1947E-2    0.3270E-2
    3.788       0.2034E-2    0.3640E-2    0.2947E-2    -.2843E-2    0.2034E-2    0.3640E-2
    3.808       0.2138E-2    0.4019E-2    0.3295E-2    -.2448E-2    0.2138E-2    0.4019E-2
    3.828       0.2262E-2    0.4408E-2    0.3729E-2    -.2081E-2    0.2262E-2    0.4408E-2
    3.848       0.2413E-2    0.4805E-2    0.4266E-2    -.1780E-2    0.2413E-2    0.4806E-2
    3.868       0.2598E-2    0.5208E-2    0.4907E-2    -.1603E-2    0.2599E-2    0.5209E-2
    3.888       0.2829E-2    0.5611E-2    0.5617E-2    -.1630E-2    0.2830E-2    0.5612E-2
    3.908       0.3117E-2    0.6002E-2    0.6296E-2    -.1936E-2    0.3118E-2    0.6003E-2
    3.928       0.3475E-2    0.6361E-2    0.6773E-2    -.2523E-2    0.3476E-2    0.6361E-2
    3.948       0.3911E-2    0.6651E-2    0.6884E-2    -.3259E-2    0.3912E-2    0.6651E-2
    3.968       0.4414E-2    0.6821E-2    0.6598E-2    -.3913E-2    0.4415E-2    0.6820E-2
      3.9880       0.0049       0.0068       0.0060      -0.0043       0.0049       0.0068
      4.0080       0.0054       0.0066       0.0054      -0.0044       0.0054       0.0066
      4.0281       0.0056       0.0062       0.0048      -0.0042       0.0056       0.0062
    4.048       0.5525E-2    0.5757E-2    0.4311E-2    -.3895E-2    0.5524E-2    0.5755E-2
    4.068       0.5193E-2    0.5470E-2    0.3923E-2    -.3466E-2    0.5191E-2    0.5469E-2
    4.088       0.4731E-2    0.5405E-2    0.3634E-2    -.2983E-2    0.4729E-2    0.5405E-2
    4.108       0.4260E-2    0.5549E-2    0.3426E-2    -.2470E-2    0.4258E-2    0.5549E-2
    4.128       0.3846E-2    0.5843E-2    0.3285E-2    -.1940E-2    0.3844E-2    0.5844E-2
    4.148       0.3510E-2    0.6231E-2    0.3198E-2    -.1401E-2    0.3509E-2    0.6232E-2
    4.168       0.3249E-2    0.6672E-2    0.3158E-2    -.8537E-3    0.3248E-2    0.6673E-2
    4.188       0.3051E-2    0.7140E-2    0.3158E-2    -.2984E-3    0.3050E-2    0.7141E-2
    4.208       0.2903E-2    0.7622E-2    0.3197E-2    0.2664E-3    0.2903E-2    0.7623E-2
    4.228       0.2796E-2    0.8111E-2    0.3272E-2    0.8431E-3    0.2795E-2    0.8111E-2
    4.248       0.2720E-2    0.8602E-2    0.3385E-2    0.1434E-2    0.2720E-2    0.8602E-2
    4.269       0.2669E-2    0.9094E-2    0.3541E-2    0.2043E-2    0.2669E-2    0.9095E-2
    4.289       0.2639E-2    0.9589E-2    0.3743E-2    0.2672E-2    0.2639E-2    0.9589E-2
    4.309       0.2626E-2    0.1009E-1    0.4002E-2    0.3324E-2    0.2626E-2    0.1009E-1
    4.329       0.2628E-2    0.1059E-1    0.4329E-2    0.4000E-2    0.2628E-2    0.1059E-1
    4.349       0.2644E-2    0.1109E-1    0.4741E-2    0.4702E-2    0.2644E-2    0.1109E-1
    4.369       0.2671E-2    0.1160E-1    0.5262E-2    0.5424E-2    0.2671E-2    0.1160E-1
    4.389       0.2711E-2    0.1212E-1    0.5921E-2    0.6157E-2    0.2711E-2    0.1212E-1
    4.409       0.2762E-2    0.1264E-1    0.6758E-2    0.6879E-2    0.2763E-2    0.1265E-1
    4.429       0.2826E-2    0.1318E-1    0.7823E-2    0.7548E-2    0.2826E-2    0.1318E-1
    4.449       0.2903E-2    0.1373E-1    0.9166E-2    0.8084E-2    0.2904E-2    0.1373E-1
    4.469       0.2995E-2    0.1429E-1    0.1082E-1    0.8353E-2    0.2995E-2    0.1430E-1
    4.489       0.3103E-2    0.1487E-1    0.1277E-1    0.8151E-2    0.3104E-2    0.1487E-1
    4.509       0.3230E-2    0.1547E-1    0.1484E-1    0.7229E-2    0.3231E-2    0.1547E-1
    4.529       0.3379E-2    0.1609E-1    0.1665E-1    0.5409E-2    0.3380E-2    0.1609E-1
    4.549       0.3555E-2    0.1673E-1    0.1764E-1    0.2819E-2    0.3556E-2    0.1673E-1
    4.569       0.3762E-2    0.1740E-1    0.1743E-1    0.2038E-5    0.3763E-2    0.1740E-1
    4.589       0.4009E-2    0.1809E-1    0.1610E-1    -.2350E-2    0.4010E-2    0.1809E-1
    4.609       0.4304E-2    0.1882E-1    0.1417E-1    -.3833E-2    0.4305E-2    0.1882E-1
    4.629       0.4660E-2    0.1957E-1    0.1213E-1    -.4456E-2    0.4661E-2    0.1958E-1
    4.649       0.5093E-2    0.2037E-1    0.1030E-1    -.4443E-2    0.5095E-2    0.2037E-1
    4.669       0.5625E-2    0.2119E-1    0.8774E-2    -.4036E-2    0.5628E-2    0.2120E-1
    4.689       0.6286E-2    0.2205E-1    0.7556E-2    -.3412E-2    0.6288E-2    0.2205E-1
    4.709       0.7112E-2    0.2292E-1    0.6597E-2    -.2685E-2    0.7116E-2    0.2292E-1
    4.729       0.8154E-2    0.2377E-1    0.5846E-2    -.1919E-2    0.8158E-2    0.2377E-1
    4.749       0.9468E-2    0.2455E-1    0.5256E-2    -.1147E-2    0.9474E-2    0.2455E-1
    4.770       0.1112E-1    0.2515E-1    0.4790E-2    -.3872E-3    0.1112E-1    0.2515E-1
    4.790       0.1313E-1    0.2541E-1    0.4422E-2    0.3536E-3    0.1314E-1    0.2541E-1
    4.810       0.1546E-1    0.2508E-1    0.4129E-2    0.1073E-2    0.1547E-1    0.2507E-1
    4.830       0.1787E-1    0.2386E-1    0.3895E-2    0.1771E-2    0.1788E-1    0.2385E-1
    4.850       0.1986E-1    0.2158E-1    0.3708E-2    0.2450E-2    0.1987E-1    0.2157E-1
    4.870       0.2080E-1    0.1850E-1    0.3559E-2    0.3112E-2    0.2080E-1    0.1848E-1
    4.890       0.2030E-1    0.1530E-1    0.3442E-2    0.3760E-2    0.2029E-1    0.1529E-1
    4.910       0.1859E-1    0.1277E-1    0.3351E-2    0.4397E-2    0.1858E-1    0.1276E-1
    4.930       0.1629E-1    0.1128E-1    0.3282E-2    0.5024E-2    0.1628E-1    0.1128E-1
    4.950       0.1395E-1    0.1076E-1    0.3232E-2    0.5645E-2    0.1394E-1    0.1076E-1
    4.970       0.1189E-1    0.1093E-1    0.3199E-2    0.6261E-2    0.1188E-1    0.1093E-1
    4.990       0.1020E-1    0.1151E-1    0.3180E-2    0.6875E-2    0.1019E-1    0.1151E-1
    5.010       0.8849E-2    0.1232E-1    0.3176E-2    0.7489E-2    0.8843E-2    0.1232E-1
    5.030       0.7792E-2    0.1323E-1    0.3183E-2    0.8104E-2    0.7787E-2    0.1324E-1
    5.050       0.6966E-2    0.1419E-1    0.3203E-2    0.8723E-2    0.6962E-2    0.1419E-1
    5.070       0.6320E-2    0.1515E-1    0.3235E-2    0.9348E-2    0.6317E-2    0.1515E-1
    5.090       0.5813E-2    0.1609E-1    0.3279E-2    0.9980E-2    0.5811E-2    0.1609E-1
    5.110       0.5414E-2    0.1701E-1    0.3334E-2    0.1062E-1    0.5412E-2    0.1702E-1
    5.130       0.5099E-2    0.1791E-1    0.3402E-2    0.1127E-1    0.5097E-2    0.1792E-1
    5.150       0.4851E-2    0.1879E-1    0.3483E-2    0.1194E-1    0.4850E-2    0.1880E-1
    5.170       0.4656E-2    0.1965E-1    0.3578E-2    0.1262E-1    0.4655E-2    0.1965E-1
    5.190       0.4505E-2    0.2049E-1    0.3688E-2    0.1332E-1    0.4504E-2    0.2050E-1
    5.210       0.4390E-2    0.2132E-1    0.3816E-2    0.1404E-1    0.4389E-2    0.2133E-1
    5.230       0.4305E-2    0.2214E-1    0.3962E-2    0.1479E-1    0.4305E-2    0.2215E-1
    5.251       0.4246E-2    0.2296E-1    0.4130E-2    0.1556E-1    0.4246E-2    0.2296E-1
    5.271       0.4210E-2    0.2376E-1    0.4322E-2    0.1636E-1    0.4210E-2    0.2377E-1
    5.291       0.4194E-2    0.2457E-1    0.4543E-2    0.1719E-1    0.4194E-2    0.2458E-1
    5.311       0.4197E-2    0.2538E-1    0.4796E-2    0.1806E-1    0.4197E-2    0.2538E-1
    5.331       0.4217E-2    0.2620E-1    0.5089E-2    0.1898E-1    0.4217E-2    0.2620E-1
    5.351       0.4253E-2    0.2702E-1    0.5427E-2    0.1994E-1    0.4253E-2    0.2702E-1
    5.371       0.4306E-2    0.2784E-1    0.5821E-2    0.2095E-1    0.4306E-2    0.2785E-1
    5.391       0.4374E-2    0.2869E-1    0.6281E-2    0.2203E-1    0.4375E-2    0.2869E-1
    5.411       0.4459E-2    0.2954E-1    0.6823E-2    0.2317E-1    0.4460E-2    0.2955E-1
    5.431       0.4562E-2    0.3042E-1    0.7464E-2    0.2439E-1    0.4562E-2    0.3042E-1
    5.451       0.4682E-2    0.3131E-1    0.8230E-2    0.2569E-1    0.4683E-2    0.3131E-1
    5.471       0.4822E-2    0.3223E-1    0.9151E-2    0.2708E-1    0.4823E-2    0.3223E-1
    5.491       0.4984E-2    0.3317E-1    0.1027E-1    0.2857E-1    0.4985E-2    0.3317E-1
    5.511       0.5169E-2    0.3414E-1    0.1164E-1    0.3015E-1    0.5171E-2    0.3415E-1
    5.531       0.5381E-2    0.3515E-1    0.1334E-1    0.3183E-1    0.5383E-2    0.3515E-1
      5.5511       0.0056       0.0362       0.0155       0.0336       0.0056       0.0362
      5.5711       0.0059       0.0373       0.0181       0.0353       0.0059       0.0373
      5.5912       0.0062       0.0384       0.0215       0.0370       0.0062       0.0384
      5.6112       0.0066       0.0396       0.0258       0.0383       0.0066       0.0396
      5.6313       0.0070       0.0409       0.0311       0.0390       0.0070       0.0409
      5.6513       0.0075       0.0422       0.0375       0.0383       0.0075       0.0422
      5.6713       0.0081       0.0436       0.0448       0.0356       0.0081       0.0436
      5.6914       0.0087       0.0451       0.0519       0.0299       0.0087       0.0451
      5.7114       0.0095       0.0466       0.0572       0.0210       0.0095       0.0466
     5.73146      0.01042      0.04832      0.05865      0.01021      0.01043      0.04833
    5.752       0.1152E-1    0.5012E-1    0.5576E-1    -.2028E-3    0.1153E-1    0.5013E-1
      5.7715       0.0128       0.0520       0.0497      -0.0081       0.0129       0.0521
     5.79158      0.01446      0.05411      0.04234     -0.01270      0.01449      0.05412
     5.81162      0.01645      0.05630      0.03528     -0.01462      0.01648      0.05631
     5.83166      0.01891      0.05860      0.02921     -0.01473      0.01895      0.05861
     5.85170      0.02198      0.06097      0.02425     -0.01378      0.02204      0.06097
     5.87174      0.02586      0.06331      0.02031     -0.01230      0.02593      0.06330
     5.89178      0.03075      0.06544      0.01719     -0.01059      0.03085      0.06541
      5.9118       0.0369       0.0670       0.0147      -0.0088       0.0370       0.0669
      5.9319       0.0445       0.0674       0.0128      -0.0071       0.0446       0.0673
    5.952       0.5343E-1    0.6574E-1    0.1119E-1    -.5447E-2    0.5353E-1    0.6551E-1
    5.972       0.6298E-1    0.6091E-1    0.9913E-2    -.3886E-2    0.6299E-1    0.6056E-1
    5.992       0.7148E-1    0.5210E-1    0.8868E-2    -.2422E-2    0.7128E-1    0.5168E-1
    6.012       0.7651E-1    0.3984E-1    0.8004E-2    -.1052E-2    0.7605E-1    0.3951E-1
    6.032       0.7636E-1    0.2648E-1    0.7283E-2    0.2306E-3    0.7571E-1    0.2644E-1
    6.052       0.7147E-1    0.1507E-1    0.6678E-2    0.1433E-2    0.7084E-1    0.1540E-1
    6.072       0.6405E-1    0.7290E-2    0.6165E-2    0.2563E-2    0.6368E-1    0.7920E-2
    6.092       0.5638E-1    0.2987E-2    0.5727E-2    0.3628E-2    0.5638E-1    0.3709E-2
    6.112       0.4969E-1    0.9790E-3    0.5351E-2    0.4635E-2    0.5005E-1    0.1561E-2
    6.132       0.4420E-1    0.5276E-4    0.5025E-2    0.5590E-2    0.4475E-1    0.3285E-3
    6.152       0.3947E-1    -.5151E-3    0.4742E-2    0.6499E-2    0.4000E-1    -.5638E-3
    6.172       0.3500E-1    -.8385E-3    0.4495E-2    0.7366E-2    0.3534E-1    -.1084E-2
    6.192       0.3061E-1    -.6861E-3    0.4278E-2    0.8195E-2    0.3075E-1    -.9669E-3
    6.212       0.2644E-1    0.1064E-3    0.4087E-2    0.8991E-2    0.2645E-1    -.1170E-3
    6.232       0.2273E-1    0.1471E-2    0.3917E-2    0.9758E-2    0.2267E-1    0.1323E-2
    6.253       0.1957E-1    0.3210E-2    0.3766E-2    0.1050E-1    0.1951E-1    0.3123E-2
    6.273       0.1698E-1    0.5131E-2    0.3631E-2    0.1121E-1    0.1692E-1    0.5083E-2
    6.293       0.1486E-1    0.7097E-2    0.3511E-2    0.1190E-1    0.1481E-1    0.7072E-2
    6.313       0.1314E-1    0.9028E-2    0.3402E-2    0.1258E-1    0.1311E-1    0.9016E-2
    6.333       0.1174E-1    0.1088E-1    0.3305E-2    0.1323E-1    0.1171E-1    0.1088E-1
    6.353       0.1058E-1    0.1264E-1    0.3217E-2    0.1387E-1    0.1056E-1    0.1264E-1
    6.373       0.9623E-2    0.1431E-1    0.3137E-2    0.1449E-1    0.9607E-2    0.1431E-1
    6.393       0.8820E-2    0.1588E-1    0.3065E-2    0.1510E-1    0.8808E-2    0.1588E-1
    6.413       0.8142E-2    0.1736E-1    0.2999E-2    0.1570E-1    0.8133E-2    0.1736E-1
    6.433       0.7565E-2    0.1876E-1    0.2940E-2    0.1628E-1    0.7558E-2    0.1877E-1
    6.453       0.7071E-2    0.2009E-1    0.2885E-2    0.1686E-1    0.7065E-2    0.2009E-1
    6.473       0.6644E-2    0.2135E-1    0.2835E-2    0.1742E-1    0.6639E-2    0.2135E-1
    6.493       0.6273E-2    0.2255E-1    0.2790E-2    0.1798E-1    0.6270E-2    0.2255E-1
    6.513       0.5949E-2    0.2370E-1    0.2748E-2    0.1853E-1    0.5946E-2    0.2370E-1
    6.533       0.5665E-2    0.2480E-1    0.2710E-2    0.1907E-1    0.5663E-2    0.2480E-1
    6.553       0.5414E-2    0.2585E-1    0.2675E-2    0.1961E-1    0.5412E-2    0.2585E-1
    6.573       0.5192E-2    0.2687E-1    0.2643E-2    0.2013E-1    0.5190E-2    0.2687E-1
    6.593       0.4994E-2    0.2785E-1    0.2613E-2    0.2066E-1    0.4993E-2    0.2785E-1
    6.613       0.4818E-2    0.2880E-1    0.2586E-2    0.2117E-1    0.4817E-2    0.2880E-1
    6.633       0.4660E-2    0.2972E-1    0.2561E-2    0.2169E-1    0.4659E-2    0.2972E-1
    6.653       0.4517E-2    0.3061E-1    0.2538E-2    0.2219E-1    0.4517E-2    0.3061E-1
    6.673       0.4389E-2    0.3148E-1    0.2517E-2    0.2270E-1    0.4389E-2    0.3148E-1
    6.693       0.4274E-2    0.3233E-1    0.2498E-2    0.2320E-1    0.4273E-2    0.3233E-1
    6.713       0.4169E-2    0.3315E-1    0.2480E-2    0.2369E-1    0.4168E-2    0.3316E-1
    6.733       0.4074E-2    0.3396E-1    0.2464E-2    0.2419E-1    0.4073E-2    0.3397E-1
    6.754       0.3987E-2    0.3476E-1    0.2449E-2    0.2468E-1    0.3987E-2    0.3476E-1
    6.774       0.3908E-2    0.3554E-1    0.2435E-2    0.2516E-1    0.3908E-2    0.3554E-1
    6.794       0.3836E-2    0.3630E-1    0.2422E-2    0.2565E-1    0.3836E-2    0.3630E-1
    6.814       0.3771E-2    0.3705E-1    0.2411E-2    0.2613E-1    0.3771E-2    0.3705E-1
    6.834       0.3711E-2    0.3779E-1    0.2400E-2    0.2661E-1    0.3710E-2    0.3779E-1
    6.854       0.3656E-2    0.3852E-1    0.2390E-2    0.2709E-1    0.3655E-2    0.3852E-1
    6.874       0.3605E-2    0.3924E-1    0.2382E-2    0.2757E-1    0.3605E-2    0.3924E-1
    6.894       0.3559E-2    0.3996E-1    0.2374E-2    0.2804E-1    0.3559E-2    0.3996E-1
    6.914       0.3516E-2    0.4066E-1    0.2366E-2    0.2851E-1    0.3516E-2    0.4066E-1
    6.934       0.3477E-2    0.4135E-1    0.2360E-2    0.2899E-1    0.3477E-2    0.4135E-1
    6.954       0.3441E-2    0.4204E-1    0.2354E-2    0.2946E-1    0.3441E-2    0.4204E-1
    6.974       0.3408E-2    0.4272E-1    0.2349E-2    0.2993E-1    0.3408E-2    0.4272E-1
    6.994       0.3378E-2    0.4340E-1    0.2344E-2    0.3040E-1    0.3378E-2    0.4340E-1
    7.014       0.3350E-2    0.4407E-1    0.2340E-2    0.3087E-1    0.3350E-2    0.4407E-1
    7.034       0.3324E-2    0.4473E-1    0.2337E-2    0.3133E-1    0.3324E-2    0.4473E-1
    7.054       0.3301E-2    0.4539E-1    0.2333E-2    0.3180E-1    0.3301E-2    0.4539E-1
    7.074       0.3279E-2    0.4605E-1    0.2331E-2    0.3227E-1    0.3279E-2    0.4605E-1
    7.094       0.3259E-2    0.4670E-1    0.2329E-2    0.3273E-1    0.3259E-2    0.4670E-1
    7.114       0.3241E-2    0.4735E-1    0.2327E-2    0.3320E-1    0.3241E-2    0.4735E-1
    7.134       0.3224E-2    0.4800E-1    0.2326E-2    0.3366E-1    0.3224E-2    0.4800E-1
    7.154       0.3209E-2    0.4864E-1    0.2325E-2    0.3413E-1    0.3209E-2    0.4864E-1
    7.174       0.3195E-2    0.4928E-1    0.2324E-2    0.3460E-1    0.3195E-2    0.4928E-1
    7.194       0.3183E-2    0.4992E-1    0.2324E-2    0.3506E-1    0.3183E-2    0.4992E-1
    7.214       0.3171E-2    0.5055E-1    0.2324E-2    0.3553E-1    0.3171E-2    0.5055E-1
    7.234       0.3161E-2    0.5118E-1    0.2324E-2    0.3599E-1    0.3161E-2    0.5118E-1
    7.255       0.3151E-2    0.5181E-1    0.2325E-2    0.3646E-1    0.3151E-2    0.5181E-1
    7.275       0.3143E-2    0.5244E-1    0.2326E-2    0.3692E-1    0.3143E-2    0.5244E-1
    7.295       0.3136E-2    0.5307E-1    0.2327E-2    0.3739E-1    0.3136E-2    0.5307E-1
    7.315       0.3129E-2    0.5370E-1    0.2329E-2    0.3785E-1    0.3129E-2    0.5370E-1
    7.335       0.3123E-2    0.5432E-1    0.2330E-2    0.3832E-1    0.3123E-2    0.5432E-1
    7.355       0.3118E-2    0.5495E-1    0.2332E-2    0.3879E-1    0.3118E-2    0.5495E-1
    7.375       0.3114E-2    0.5557E-1    0.2335E-2    0.3925E-1    0.3114E-2    0.5557E-1
    7.395       0.3110E-2    0.5619E-1    0.2337E-2    0.3972E-1    0.3110E-2    0.5619E-1
    7.415       0.3107E-2    0.5681E-1    0.2340E-2    0.4019E-1    0.3107E-2    0.5681E-1
    7.435       0.3105E-2    0.5744E-1    0.2342E-2    0.4066E-1    0.3105E-2    0.5744E-1
    7.455       0.3103E-2    0.5806E-1    0.2345E-2    0.4113E-1    0.3103E-2    0.5806E-1
    7.475       0.3102E-2    0.5868E-1    0.2348E-2    0.4160E-1    0.3102E-2    0.5868E-1
    7.495       0.3101E-2    0.5930E-1    0.2352E-2    0.4207E-1    0.3101E-2    0.5930E-1
    7.515       0.3101E-2    0.5992E-1    0.2355E-2    0.4254E-1    0.3101E-2    0.5992E-1
    7.535       0.3101E-2    0.6054E-1    0.2359E-2    0.4301E-1    0.3101E-2    0.6054E-1
    7.555       0.3102E-2    0.6116E-1    0.2363E-2    0.4349E-1    0.3102E-2    0.6116E-1
    7.575       0.3103E-2    0.6178E-1    0.2367E-2    0.4396E-1    0.3103E-2    0.6178E-1
    7.595       0.3105E-2    0.6240E-1    0.2371E-2    0.4443E-1    0.3105E-2    0.6240E-1
    7.615       0.3107E-2    0.6302E-1    0.2375E-2    0.4491E-1    0.3107E-2    0.6302E-1
    7.635       0.3109E-2    0.6365E-1    0.2380E-2    0.4539E-1    0.3109E-2    0.6365E-1
    7.655       0.3112E-2    0.6427E-1    0.2384E-2    0.4586E-1    0.3112E-2    0.6427E-1
    7.675       0.3115E-2    0.6489E-1    0.2389E-2    0.4634E-1    0.3115E-2    0.6489E-1
    7.695       0.3119E-2    0.6552E-1    0.2394E-2    0.4682E-1    0.3119E-2    0.6552E-1
    7.715       0.3122E-2    0.6614E-1    0.2399E-2    0.4730E-1    0.3122E-2    0.6614E-1
    7.735       0.3126E-2    0.6677E-1    0.2404E-2    0.4778E-1    0.3126E-2    0.6677E-1
    7.756       0.3131E-2    0.6739E-1    0.2409E-2    0.4826E-1    0.3131E-2    0.6739E-1
    7.776       0.3136E-2    0.6802E-1    0.2414E-2    0.4875E-1    0.3136E-2    0.6802E-1
    7.796       0.3141E-2    0.6865E-1    0.2420E-2    0.4923E-1    0.3141E-2    0.6865E-1
    7.816       0.3146E-2    0.6928E-1    0.2425E-2    0.4972E-1    0.3146E-2    0.6928E-1
    7.836       0.3151E-2    0.6991E-1    0.2431E-2    0.5020E-1    0.3151E-2    0.6991E-1
    7.856       0.3157E-2    0.7054E-1    0.2436E-2    0.5069E-1    0.3157E-2    0.7054E-1
    7.876       0.3163E-2    0.7117E-1    0.2442E-2    0.5118E-1    0.3163E-2    0.7117E-1
    7.896       0.3169E-2    0.7181E-1    0.2448E-2    0.5167E-1    0.3169E-2    0.7181E-1
    7.916       0.3176E-2    0.7244E-1    0.2454E-2    0.5216E-1    0.3176E-2    0.7244E-1
    7.936       0.3183E-2    0.7308E-1    0.2460E-2    0.5265E-1    0.3183E-2    0.7308E-1
    7.956       0.3190E-2    0.7372E-1    0.2466E-2    0.5314E-1    0.3190E-2    0.7372E-1
    7.976       0.3197E-2    0.7436E-1    0.2473E-2    0.5364E-1    0.3197E-2    0.7436E-1
    7.996       0.3204E-2    0.7500E-1    0.2479E-2    0.5413E-1    0.3204E-2    0.7500E-1
    8.016       0.3212E-2    0.7564E-1    0.2486E-2    0.5463E-1    0.3212E-2    0.7564E-1
    8.036       0.3220E-2    0.7629E-1    0.2492E-2    0.5513E-1    0.3220E-2    0.7629E-1
    8.056       0.3228E-2    0.7693E-1    0.2499E-2    0.5563E-1    0.3228E-2    0.7693E-1
    8.076       0.3236E-2    0.7758E-1    0.2505E-2    0.5613E-1    0.3236E-2    0.7758E-1
    8.096       0.3245E-2    0.7823E-1    0.2512E-2    0.5663E-1    0.3245E-2    0.7823E-1
    8.116       0.3253E-2    0.7888E-1    0.2519E-2    0.5714E-1    0.3253E-2    0.7888E-1
    8.136       0.3262E-2    0.7953E-1    0.2526E-2    0.5764E-1    0.3262E-2    0.7953E-1
    8.156       0.3271E-2    0.8019E-1    0.2533E-2    0.5815E-1    0.3271E-2    0.8019E-1
    8.176       0.3280E-2    0.8084E-1    0.2540E-2    0.5866E-1    0.3280E-2    0.8084E-1
    8.196       0.3290E-2    0.8150E-1    0.2548E-2    0.5917E-1    0.3290E-2    0.8150E-1
    8.216       0.3300E-2    0.8216E-1    0.2555E-2    0.5968E-1    0.3300E-2    0.8216E-1
    8.236       0.3309E-2    0.8282E-1    0.2562E-2    0.6019E-1    0.3309E-2    0.8282E-1
    8.257       0.3319E-2    0.8349E-1    0.2570E-2    0.6071E-1    0.3319E-2    0.8349E-1
    8.277       0.3330E-2    0.8415E-1    0.2577E-2    0.6122E-1    0.3330E-2    0.8415E-1
    8.297       0.3340E-2    0.8482E-1    0.2585E-2    0.6174E-1    0.3340E-2    0.8482E-1
    8.317       0.3351E-2    0.8549E-1    0.2593E-2    0.6226E-1    0.3351E-2    0.8549E-1
    8.337       0.3361E-2    0.8616E-1    0.2601E-2    0.6278E-1    0.3361E-2    0.8616E-1
    8.357       0.3372E-2    0.8684E-1    0.2609E-2    0.6330E-1    0.3372E-2    0.8684E-1
    8.377       0.3383E-2    0.8751E-1    0.2617E-2    0.6382E-1    0.3383E-2    0.8751E-1
    8.397       0.3395E-2    0.8819E-1    0.2625E-2    0.6435E-1    0.3395E-2    0.8819E-1
    8.417       0.3406E-2    0.8887E-1    0.2633E-2    0.6488E-1    0.3406E-2    0.8887E-1
    8.437       0.3418E-2    0.8956E-1    0.2641E-2    0.6540E-1    0.3418E-2    0.8956E-1
    8.457       0.3430E-2    0.9024E-1    0.2649E-2    0.6593E-1    0.3430E-2    0.9024E-1
    8.477       0.3442E-2    0.9093E-1    0.2658E-2    0.6647E-1    0.3442E-2    0.9093E-1
    8.497       0.3454E-2    0.9162E-1    0.2666E-2    0.6700E-1    0.3454E-2    0.9162E-1
    8.517       0.3467E-2    0.9231E-1    0.2675E-2    0.6753E-1    0.3467E-2    0.9231E-1
    8.537       0.3479E-2    0.9301E-1    0.2683E-2    0.6807E-1    0.3479E-2    0.9301E-1
    8.557       0.3492E-2    0.9371E-1    0.2692E-2    0.6861E-1    0.3492E-2    0.9371E-1
    8.577       0.3505E-2    0.9441E-1    0.2701E-2    0.6915E-1    0.3505E-2    0.9441E-1
    8.597       0.3519E-2    0.9511E-1    0.2710E-2    0.6969E-1    0.3519E-2    0.9511E-1
    8.617       0.3532E-2    0.9582E-1    0.2719E-2    0.7024E-1    0.3532E-2    0.9582E-1
    8.637       0.3546E-2    0.9653E-1    0.2728E-2    0.7078E-1    0.3546E-2    0.9653E-1
    8.657       0.3560E-2    0.9724E-1    0.2737E-2    0.7133E-1    0.3560E-2    0.9724E-1
    8.677       0.3574E-2    0.9795E-1    0.2747E-2    0.7188E-1    0.3574E-2    0.9795E-1
    8.697       0.3588E-2    0.9867E-1    0.2756E-2    0.7243E-1    0.3588E-2    0.9867E-1
    8.717       0.3603E-2    0.9939E-1    0.2765E-2    0.7298E-1    0.3603E-2    0.9939E-1
    8.737       0.3618E-2    0.1001       0.2775E-2    0.7354E-1    0.3618E-2    0.1001   
    8.758       0.3633E-2    0.1008       0.2785E-2    0.7409E-1    0.3633E-2    0.1008   
    8.778       0.3648E-2    0.1016       0.2795E-2    0.7465E-1    0.3648E-2    0.1016   
    8.798       0.3664E-2    0.1023       0.2805E-2    0.7521E-1    0.3664E-2    0.1023   
    8.818       0.3680E-2    0.1030       0.2815E-2    0.7578E-1    0.3680E-2    0.1030   
    8.838       0.3696E-2    0.1038       0.2825E-2    0.7634E-1    0.3696E-2    0.1038   
    8.858       0.3712E-2    0.1045       0.2835E-2    0.7691E-1    0.3712E-2    0.1045   
    8.878       0.3729E-2    0.1053       0.2846E-2    0.7748E-1    0.3729E-2    0.1053   
    8.898       0.3746E-2    0.1060       0.2856E-2    0.7805E-1    0.3746E-2    0.1060   
    8.918       0.3764E-2    0.1068       0.2867E-2    0.7862E-1    0.3764E-2    0.1068   
    8.938       0.3781E-2    0.1075       0.2878E-2    0.7920E-1    0.3781E-2    0.1075   
    8.958       0.3799E-2    0.1083       0.2889E-2    0.7977E-1    0.3799E-2    0.1083   
    8.978       0.3818E-2    0.1090       0.2900E-2    0.8035E-1    0.3818E-2    0.1090   
    8.998       0.3836E-2    0.1098       0.2911E-2    0.8094E-1    0.3836E-2    0.1098   
    9.018       0.3856E-2    0.1106       0.2922E-2    0.8152E-1    0.3856E-2    0.1106   
    9.038       0.3875E-2    0.1113       0.2934E-2    0.8211E-1    0.3875E-2    0.1113   
    9.058       0.3895E-2    0.1121       0.2946E-2    0.8270E-1    0.3895E-2    0.1121   
    9.078       0.3915E-2    0.1129       0.2958E-2    0.8329E-1    0.3915E-2    0.1129   
    9.098       0.3936E-2    0.1137       0.2970E-2    0.8388E-1    0.3936E-2    0.1137   
    9.118       0.3957E-2    0.1145       0.2982E-2    0.8448E-1    0.3957E-2    0.1145   
    9.138       0.3979E-2    0.1153       0.2995E-2    0.8507E-1    0.3979E-2    0.1153   
    9.158       0.4001E-2    0.1161       0.3008E-2    0.8568E-1    0.4001E-2    0.1161   
    9.178       0.4024E-2    0.1169       0.3021E-2    0.8628E-1    0.4024E-2    0.1169   
    9.198       0.4047E-2    0.1177       0.3034E-2    0.8689E-1    0.4047E-2    0.1177   
    9.218       0.4071E-2    0.1185       0.3048E-2    0.8749E-1    0.4071E-2    0.1185   
    9.238       0.4096E-2    0.1193       0.3061E-2    0.8811E-1    0.4096E-2    0.1193   
    9.259       0.4121E-2    0.1201       0.3076E-2    0.8872E-1    0.4121E-2    0.1201   
    9.279       0.4147E-2    0.1210       0.3090E-2    0.8934E-1    0.4147E-2    0.1210   
    9.299       0.4173E-2    0.1218       0.3105E-2    0.8996E-1    0.4173E-2    0.1218   
    9.319       0.4201E-2    0.1226       0.3120E-2    0.9058E-1    0.4201E-2    0.1226   
    9.339       0.4229E-2    0.1235       0.3135E-2    0.9121E-1    0.4229E-2    0.1235   
    9.359       0.4258E-2    0.1243       0.3151E-2    0.9184E-1    0.4258E-2    0.1243   
    9.379       0.4288E-2    0.1252       0.3167E-2    0.9247E-1    0.4288E-2    0.1252   
    9.399       0.4318E-2    0.1260       0.3184E-2    0.9310E-1    0.4318E-2    0.1260   
    9.419       0.4350E-2    0.1269       0.3201E-2    0.9374E-1    0.4350E-2    0.1269   
    9.439       0.4383E-2    0.1278       0.3218E-2    0.9439E-1    0.4383E-2    0.1278   
    9.459       0.4417E-2    0.1287       0.3236E-2    0.9503E-1    0.4417E-2    0.1287   
    9.479       0.4452E-2    0.1296       0.3255E-2    0.9568E-1    0.4452E-2    0.1296   
    9.499       0.4489E-2    0.1304       0.3274E-2    0.9633E-1    0.4489E-2    0.1304   
    9.519       0.4527E-2    0.1313       0.3294E-2    0.9699E-1    0.4527E-2    0.1313   
    9.539       0.4566E-2    0.1323       0.3314E-2    0.9765E-1    0.4566E-2    0.1323   
    9.559       0.4607E-2    0.1332       0.3336E-2    0.9832E-1    0.4607E-2    0.1332   
    9.579       0.4650E-2    0.1341       0.3358E-2    0.9899E-1    0.4650E-2    0.1341   
    9.599       0.4694E-2    0.1350       0.3381E-2    0.9966E-1    0.4694E-2    0.1350   
    9.619       0.4741E-2    0.1360       0.3405E-2    0.1003       0.4741E-2    0.1360   
    9.639       0.4789E-2    0.1369       0.3430E-2    0.1010       0.4789E-2    0.1369   
    9.659       0.4840E-2    0.1379       0.3456E-2    0.1017       0.4840E-2    0.1379   
    9.679       0.4893E-2    0.1389       0.3483E-2    0.1024       0.4893E-2    0.1389   
    9.699       0.4949E-2    0.1398       0.3511E-2    0.1031       0.4949E-2    0.1398   
    9.719       0.5008E-2    0.1408       0.3541E-2    0.1038       0.5008E-2    0.1408   
    9.739       0.5070E-2    0.1418       0.3573E-2    0.1045       0.5070E-2    0.1418   
    9.760       0.5136E-2    0.1428       0.3606E-2    0.1052       0.5136E-2    0.1428   
    9.780       0.5205E-2    0.1439       0.3642E-2    0.1060       0.5205E-2    0.1439   
    9.800       0.5278E-2    0.1449       0.3679E-2    0.1067       0.5278E-2    0.1449   
    9.820       0.5356E-2    0.1460       0.3719E-2    0.1074       0.5356E-2    0.1460   
    9.840       0.5439E-2    0.1471       0.3762E-2    0.1082       0.5439E-2    0.1471   
    9.860       0.5527E-2    0.1481       0.3807E-2    0.1089       0.5527E-2    0.1481   
    9.880       0.5621E-2    0.1492       0.3856E-2    0.1097       0.5621E-2    0.1492   
    9.900       0.5722E-2    0.1504       0.3908E-2    0.1105       0.5722E-2    0.1504   
    9.920       0.5830E-2    0.1515       0.3965E-2    0.1112       0.5830E-2    0.1515   
    9.940       0.5947E-2    0.1527       0.4026E-2    0.1120       0.5947E-2    0.1527   
    9.960       0.6072E-2    0.1539       0.4093E-2    0.1128       0.6072E-2    0.1539   
    9.980       0.6208E-2    0.1551       0.4166E-2    0.1136       0.6208E-2    0.1551   
    10.00       0.6356E-2    0.1563       0.4246E-2    0.1145       0.6355E-2    0.1563   
# 
# 01/04/2018 at 10:54 YAMBO_RT @ narro [start]
# 01/04/2018 at 10:54                  [end]
#  
# Timing   [Min/Max/Average]: 01s/01s/01s
#
# .-Input file : yambo.in
# | optics                         # [R OPT] Optics
# | bse                            # [R BSE] Bethe Salpeter Equation.
# | bsk                            # [R BSK] Bethe Salpeter Equation kernel
# | bss                            # [R BSS] Bethe Salpeter Equation solver
# | em1s                           # [R Xs] Static Inverse Dielectric Matrix
# | BoseTemp= 0.000000     eV      # Bosonic Temperature
# | FFTGvecs=  387         RL      # [FFT] Plane-waves
# | Chimod= "hartree"              # [X] IP/Hartree/ALDA/LRC/BSfxc
# | BSEmod= "retarded"             # [BSE] resonant/retarded/coupling
# | BSKmod= "SEX"                  # [BSE] IP/Hartree/HF/ALDA/SEX/BSfxc
# | BSSmod= "h"                    # [BSS] (h)aydock/(d)iagonalization/(i)nversion/(t)ddft`
# | BSENGexx=  531         RL      # [BSK] Exchange components
# | BSENGBlk=  59          RL      # [BSK] Screened interaction block size
# | #WehCpl                        # [BSK] eh interaction included also in coupling
# | KfnQPdb= "E < 08_gw_eq/ndb.QP" # [EXTQP BSK BSS] Database
# | % BEnRange
# |   0.00000 | 10.00000 | eV      # [BSS] Energy range
# | %
# | % BDmRange
# |   0.10000 |  0.10000 | eV      # [BSS] Damping range
# | %
# | BEnSteps=  500                 # [BSS] Energy steps
# | % BLongDir
# | 0.1000E-4 | 0.000    | 0.000    |        # [BSS] [cc] Electric Field
# | %
# | % BSEBands
# |   2 |  7 |                     # [BSK] Bands range
# | %
# | BSHayTrs=  0.02000             # [BSS] Relative [o/o] Haydock treshold. Strict(>0)/Average(<0)
# | % BndsRnXs
# |   1 |  8 |                     # [Xs] Polarization function bands
# | %
# | NGsBlkXs=  59          RL      # [Xs] Response block size
# | GrFnTpXs= "R"                  # [Xs] Green`s function (T)ordered,(R)etarded,(r)senant,(a)ntiresonant [T, R, r, Ta, Ra]
# | % DmRngeXs
# |   0.10000 |  0.10000 | eV      # [Xs] Damping range
# | %
# | % LongDrXs
# | 0.1000E-4 | 0.000    | 0.000    |        # [Xs] [cc] Electric Field
# | %
