#                                                           
#                                                           
# Y88b    /   e           e    e      888~~\    ,88~-_      
#  Y88b  /   d8b         d8b  d8b     888   |  d888   \     
#   Y88b/   /Y88b       d888bdY88b    888 _/  88888    |    
#    Y8Y   /  Y88b     / Y88Y Y888b   888  \  88888    |    
#     Y   /____Y88b   /   YY   Y888b  888   |  Y888   /     
#    /   /      Y88b /          Y888b 888__/    `88_-~      
#                                                           
#                                                           
#       Version 4.3.0 Revision 15201 Hash 76636f9           
#                     MPI+SLK Build                         
#               http://www.yambo-code.org                   
#
# EELS @ Q(1)  [q->0 direction]:0.1000E-4  0.000     0.000   
#
#
# - Energies      are Slater exchange(X)+Perdew & Zunger(C)
# - Wavefunctions are Slater exchange(X)+Perdew & Zunger(C)
#
# - The Green`s function is Retarded -
# - Using the Length Gauge -
# - [r,Vnl] *is* included -
#
#   BSK|Identifier              :4411
#      |Dimension               :100
#      |Bands                   :2 - 7
#      |Exchange           [res]: yes
#      |Correlation        [res]: yes
#      |Kernel`s coupling       : no
#      |Exchange           [cpl]: no
#      |Correlation        [cpl]: no
#      |W interaction is bare   : no
#      |ALDA kernel in R-space  : no
#      |RL vectors    [exchange]:531
#      |RL vectors [correlation]:59
#      |E/h energy range    [ev]:-1.000000 - -1.000000
#      |Coupling range     [o/o]: 100.0000 -  100.0000
#    W |Interaction is diagonal : no
#      |Matrix size             :59
#      |Bands                   :1 - 8
#      |e/h energy range    [ev]:-1.000000 - -1.000000
#      |Poles              [o/o]: 100.0000
#      |RL vectors in the sum   :387
#      |[r,Vnl] included        : yes
#      |Field direction         :0.1000E-4  0.000000  0.000000
#      |Coulomb Cutoff          :none
#      |xc-Kernel               :none
#   RIM|RL components      [col]:0
#      |Random points      [col]:0
#  
#   Haydock|Accuracy (requested) [o/o]:  0.02000
#          |Accuracy (reached)   [o/o]:   0.0087
#          |Iteration                 :21
#
#    E/ev[1]      EEL-Im[2]    EEL-Re[3]    EELo-Im[4]   EELo-Re[5]   EEL`-Im[6]   EEL`-Re[7]
#
     0.00000     -0.00000     -0.01523     -0.00000     -0.01781     -0.00000     -0.01523
   0.2004E-1    0.9703E-5    -.1523E-1    0.8417E-5    -.1781E-1    0.9703E-5    -.1523E-1
   0.4008E-1    0.1941E-4    -.1523E-1    0.1683E-4    -.1780E-1    0.1941E-4    -.1523E-1
   0.6012E-1    0.2911E-4    -.1522E-1    0.2525E-4    -.1780E-1    0.2911E-4    -.1522E-1
   0.8016E-1    0.3882E-4    -.1522E-1    0.3367E-4    -.1779E-1    0.3882E-4    -.1522E-1
   0.1002       0.4853E-4    -.1521E-1    0.4210E-4    -.1779E-1    0.4853E-4    -.1521E-1
   0.1202       0.5824E-4    -.1520E-1    0.5052E-4    -.1778E-1    0.5824E-4    -.1520E-1
   0.1403       0.6795E-4    -.1518E-1    0.5895E-4    -.1777E-1    0.6795E-4    -.1518E-1
   0.1603       0.7767E-4    -.1517E-1    0.6738E-4    -.1775E-1    0.7767E-4    -.1517E-1
   0.1804       0.8739E-4    -.1515E-1    0.7582E-4    -.1774E-1    0.8739E-4    -.1515E-1
   0.2004       0.9712E-4    -.1513E-1    0.8427E-4    -.1772E-1    0.9712E-4    -.1513E-1
   0.2204       0.1069E-3    -.1511E-1    0.9272E-4    -.1770E-1    0.1069E-3    -.1511E-1
   0.2405       0.1166E-3    -.1509E-1    0.1012E-3    -.1769E-1    0.1166E-3    -.1509E-1
   0.2605       0.1263E-3    -.1507E-1    0.1096E-3    -.1766E-1    0.1263E-3    -.1507E-1
   0.2806       0.1361E-3    -.1504E-1    0.1181E-3    -.1764E-1    0.1361E-3    -.1504E-1
   0.3006       0.1459E-3    -.1501E-1    0.1266E-3    -.1762E-1    0.1459E-3    -.1501E-1
   0.3206       0.1556E-3    -.1498E-1    0.1351E-3    -.1759E-1    0.1556E-3    -.1498E-1
   0.3407       0.1654E-3    -.1495E-1    0.1436E-3    -.1756E-1    0.1654E-3    -.1495E-1
   0.3607       0.1752E-3    -.1492E-1    0.1521E-3    -.1753E-1    0.1752E-3    -.1492E-1
   0.3808       0.1850E-3    -.1488E-1    0.1606E-3    -.1750E-1    0.1850E-3    -.1488E-1
   0.4008       0.1948E-3    -.1484E-1    0.1691E-3    -.1747E-1    0.1948E-3    -.1484E-1
   0.4208       0.2046E-3    -.1480E-1    0.1777E-3    -.1743E-1    0.2046E-3    -.1480E-1
   0.4409       0.2144E-3    -.1476E-1    0.1862E-3    -.1740E-1    0.2144E-3    -.1476E-1
   0.4609       0.2243E-3    -.1472E-1    0.1948E-3    -.1736E-1    0.2243E-3    -.1472E-1
   0.4810       0.2342E-3    -.1467E-1    0.2034E-3    -.1732E-1    0.2342E-3    -.1467E-1
   0.5010       0.2440E-3    -.1462E-1    0.2120E-3    -.1728E-1    0.2440E-3    -.1462E-1
   0.5210       0.2539E-3    -.1457E-1    0.2206E-3    -.1723E-1    0.2539E-3    -.1457E-1
   0.5411       0.2638E-3    -.1452E-1    0.2293E-3    -.1719E-1    0.2638E-3    -.1452E-1
   0.5611       0.2737E-3    -.1447E-1    0.2379E-3    -.1714E-1    0.2737E-3    -.1447E-1
   0.5812       0.2837E-3    -.1441E-1    0.2466E-3    -.1709E-1    0.2837E-3    -.1441E-1
   0.6012       0.2936E-3    -.1435E-1    0.2553E-3    -.1704E-1    0.2936E-3    -.1435E-1
   0.6212       0.3036E-3    -.1429E-1    0.2640E-3    -.1699E-1    0.3036E-3    -.1429E-1
   0.6413       0.3136E-3    -.1423E-1    0.2728E-3    -.1694E-1    0.3136E-3    -.1423E-1
   0.6613       0.3236E-3    -.1417E-1    0.2815E-3    -.1688E-1    0.3236E-3    -.1417E-1
   0.6814       0.3336E-3    -.1410E-1    0.2903E-3    -.1683E-1    0.3336E-3    -.1410E-1
   0.7014       0.3437E-3    -.1403E-1    0.2991E-3    -.1677E-1    0.3437E-3    -.1403E-1
   0.7214       0.3538E-3    -.1396E-1    0.3080E-3    -.1671E-1    0.3538E-3    -.1396E-1
   0.7415       0.3639E-3    -.1389E-1    0.3168E-3    -.1664E-1    0.3639E-3    -.1389E-1
   0.7615       0.3740E-3    -.1382E-1    0.3257E-3    -.1658E-1    0.3740E-3    -.1382E-1
   0.7816       0.3842E-3    -.1374E-1    0.3347E-3    -.1651E-1    0.3842E-3    -.1374E-1
   0.8016       0.3944E-3    -.1366E-1    0.3436E-3    -.1644E-1    0.3944E-3    -.1366E-1
   0.8216       0.4046E-3    -.1358E-1    0.3526E-3    -.1637E-1    0.4046E-3    -.1358E-1
   0.8417       0.4148E-3    -.1350E-1    0.3616E-3    -.1630E-1    0.4148E-3    -.1350E-1
   0.8617       0.4251E-3    -.1342E-1    0.3707E-3    -.1623E-1    0.4251E-3    -.1342E-1
   0.8818       0.4354E-3    -.1333E-1    0.3798E-3    -.1616E-1    0.4354E-3    -.1333E-1
   0.9018       0.4457E-3    -.1324E-1    0.3889E-3    -.1608E-1    0.4457E-3    -.1324E-1
   0.9218       0.4561E-3    -.1315E-1    0.3981E-3    -.1600E-1    0.4561E-3    -.1315E-1
   0.9419       0.4665E-3    -.1306E-1    0.4073E-3    -.1592E-1    0.4665E-3    -.1306E-1
   0.9619       0.4769E-3    -.1297E-1    0.4166E-3    -.1584E-1    0.4769E-3    -.1297E-1
   0.9820       0.4874E-3    -.1287E-1    0.4259E-3    -.1575E-1    0.4874E-3    -.1287E-1
    1.002       0.4979E-3    -.1277E-1    0.4353E-3    -.1567E-1    0.4979E-3    -.1277E-1
    1.022       0.5085E-3    -.1267E-1    0.4447E-3    -.1558E-1    0.5085E-3    -.1267E-1
    1.042       0.5191E-3    -.1257E-1    0.4541E-3    -.1549E-1    0.5191E-3    -.1257E-1
    1.062       0.5298E-3    -.1246E-1    0.4636E-3    -.1540E-1    0.5298E-3    -.1246E-1
    1.082       0.5405E-3    -.1236E-1    0.4732E-3    -.1530E-1    0.5405E-3    -.1236E-1
    1.102       0.5512E-3    -.1225E-1    0.4828E-3    -.1521E-1    0.5512E-3    -.1225E-1
    1.122       0.5620E-3    -.1213E-1    0.4925E-3    -.1511E-1    0.5620E-3    -.1213E-1
    1.142       0.5728E-3    -.1202E-1    0.5023E-3    -.1501E-1    0.5728E-3    -.1202E-1
    1.162       0.5837E-3    -.1191E-1    0.5121E-3    -.1491E-1    0.5837E-3    -.1191E-1
    1.182       0.5947E-3    -.1179E-1    0.5220E-3    -.1480E-1    0.5947E-3    -.1179E-1
    1.202       0.6057E-3    -.1167E-1    0.5320E-3    -.1470E-1    0.6057E-3    -.1167E-1
    1.222       0.6168E-3    -.1154E-1    0.5420E-3    -.1459E-1    0.6168E-3    -.1154E-1
    1.242       0.6280E-3    -.1142E-1    0.5521E-3    -.1448E-1    0.6280E-3    -.1142E-1
    1.263       0.6392E-3    -.1129E-1    0.5624E-3    -.1437E-1    0.6392E-3    -.1129E-1
    1.283       0.6505E-3    -.1116E-1    0.5727E-3    -.1426E-1    0.6505E-3    -.1116E-1
    1.303       0.6618E-3    -.1103E-1    0.5831E-3    -.1414E-1    0.6618E-3    -.1103E-1
    1.323       0.6733E-3    -.1090E-1    0.5936E-3    -.1402E-1    0.6733E-3    -.1090E-1
    1.343       0.6848E-3    -.1076E-1    0.6042E-3    -.1390E-1    0.6848E-3    -.1076E-1
    1.363       0.6964E-3    -.1062E-1    0.6149E-3    -.1378E-1    0.6964E-3    -.1062E-1
    1.383       0.7081E-3    -.1048E-1    0.6257E-3    -.1366E-1    0.7081E-3    -.1048E-1
    1.403       0.7199E-3    -.1034E-1    0.6367E-3    -.1353E-1    0.7199E-3    -.1034E-1
    1.423       0.7318E-3    -.1020E-1    0.6478E-3    -.1340E-1    0.7318E-3    -.1020E-1
    1.443       0.7437E-3    -.1005E-1    0.6590E-3    -.1327E-1    0.7437E-3    -.1005E-1
    1.463       0.7558E-3    -.9898E-2    0.6703E-3    -.1314E-1    0.7558E-3    -.9898E-2
    1.483       0.7680E-3    -.9746E-2    0.6819E-3    -.1300E-1    0.7680E-3    -.9746E-2
    1.503       0.7804E-3    -.9591E-2    0.6935E-3    -.1287E-1    0.7804E-3    -.9591E-2
    1.523       0.7928E-3    -.9434E-2    0.7054E-3    -.1273E-1    0.7928E-3    -.9434E-2
    1.543       0.8054E-3    -.9274E-2    0.7174E-3    -.1258E-1    0.8054E-3    -.9274E-2
    1.563       0.8182E-3    -.9111E-2    0.7297E-3    -.1244E-1    0.8182E-3    -.9111E-2
    1.583       0.8310E-3    -.8946E-2    0.7421E-3    -.1229E-1    0.8310E-3    -.8946E-2
    1.603       0.8441E-3    -.8779E-2    0.7548E-3    -.1214E-1    0.8441E-3    -.8779E-2
    1.623       0.8573E-3    -.8609E-2    0.7677E-3    -.1199E-1    0.8573E-3    -.8609E-2
    1.643       0.8707E-3    -.8436E-2    0.7808E-3    -.1184E-1    0.8707E-3    -.8436E-2
    1.663       0.8842E-3    -.8260E-2    0.7943E-3    -.1168E-1    0.8842E-3    -.8260E-2
    1.683       0.8980E-3    -.8082E-2    0.8080E-3    -.1152E-1    0.8980E-3    -.8082E-2
    1.703       0.9120E-3    -.7901E-2    0.8220E-3    -.1136E-1    0.9120E-3    -.7901E-2
    1.723       0.9262E-3    -.7717E-2    0.8364E-3    -.1119E-1    0.9262E-3    -.7717E-2
    1.743       0.9406E-3    -.7531E-2    0.8511E-3    -.1102E-1    0.9406E-3    -.7531E-2
    1.764       0.9553E-3    -.7341E-2    0.8662E-3    -.1085E-1    0.9553E-3    -.7341E-2
    1.784       0.9703E-3    -.7149E-2    0.8818E-3    -.1068E-1    0.9703E-3    -.7149E-2
    1.804       0.9856E-3    -.6953E-2    0.8978E-3    -.1050E-1    0.9856E-3    -.6953E-2
    1.824       0.1001E-2    -.6755E-2    0.9144E-3    -.1032E-1    0.1001E-2    -.6755E-2
    1.844       0.1017E-2    -.6553E-2    0.9315E-3    -.1013E-1    0.1017E-2    -.6553E-2
    1.864       0.1033E-2    -.6349E-2    0.9492E-3    -.9946E-2    0.1033E-2    -.6349E-2
    1.884       0.1050E-2    -.6140E-2    0.9675E-3    -.9755E-2    0.1050E-2    -.6140E-2
    1.904       0.1067E-2    -.5929E-2    0.9866E-3    -.9561E-2    0.1067E-2    -.5929E-2
    1.924       0.1085E-2    -.5714E-2    0.1007E-2    -.9363E-2    0.1085E-2    -.5714E-2
    1.944       0.1103E-2    -.5496E-2    0.1027E-2    -.9161E-2    0.1103E-2    -.5496E-2
    1.964       0.1122E-2    -.5274E-2    0.1049E-2    -.8954E-2    0.1122E-2    -.5274E-2
    1.984       0.1142E-2    -.5048E-2    0.1072E-2    -.8744E-2    0.1142E-2    -.5048E-2
    2.004       0.1162E-2    -.4819E-2    0.1096E-2    -.8529E-2    0.1162E-2    -.4819E-2
    2.024       0.1183E-2    -.4585E-2    0.1122E-2    -.8309E-2    0.1183E-2    -.4585E-2
    2.044       0.1205E-2    -.4348E-2    0.1149E-2    -.8085E-2    0.1205E-2    -.4348E-2
    2.064       0.1228E-2    -.4106E-2    0.1179E-2    -.7855E-2    0.1228E-2    -.4106E-2
    2.084       0.1252E-2    -.3859E-2    0.1210E-2    -.7620E-2    0.1252E-2    -.3859E-2
    2.104       0.1278E-2    -.3608E-2    0.1244E-2    -.7379E-2    0.1278E-2    -.3608E-2
    2.124       0.1305E-2    -.3352E-2    0.1280E-2    -.7131E-2    0.1305E-2    -.3352E-2
    2.144       0.1334E-2    -.3091E-2    0.1320E-2    -.6877E-2    0.1334E-2    -.3091E-2
    2.164       0.1364E-2    -.2824E-2    0.1364E-2    -.6616E-2    0.1364E-2    -.2824E-2
    2.184       0.1397E-2    -.2552E-2    0.1412E-2    -.6347E-2    0.1397E-2    -.2552E-2
    2.204       0.1433E-2    -.2274E-2    0.1466E-2    -.6070E-2    0.1433E-2    -.2274E-2
    2.224       0.1472E-2    -.1989E-2    0.1527E-2    -.5784E-2    0.1472E-2    -.1989E-2
    2.244       0.1515E-2    -.1697E-2    0.1596E-2    -.5488E-2    0.1515E-2    -.1697E-2
    2.265       0.1562E-2    -.1398E-2    0.1675E-2    -.5182E-2    0.1562E-2    -.1398E-2
    2.285       0.1614E-2    -.1091E-2    0.1766E-2    -.4865E-2    0.1614E-2    -.1091E-2
    2.305       0.1674E-2    -.7762E-3    0.1873E-2    -.4536E-2    0.1674E-2    -.7762E-3
    2.325       0.1741E-2    -.4518E-3    0.2000E-2    -.4195E-2    0.1741E-2    -.4518E-3
    2.345       0.1819E-2    -.1180E-3    0.2153E-2    -.3842E-2    0.1819E-2    -.1180E-3
    2.365       0.1910E-2    0.2258E-3    0.2338E-2    -.3479E-2    0.1910E-2    0.2258E-3
    2.385       0.2017E-2    0.5797E-3    0.2565E-2    -.3108E-2    0.2017E-2    0.5797E-3
    2.405       0.2145E-2    0.9434E-3    0.2847E-2    -.2739E-2    0.2145E-2    0.9434E-3
    2.425       0.2301E-2    0.1315E-2    0.3198E-2    -.2385E-2    0.2301E-2    0.1315E-2
    2.445       0.2492E-2    0.1692E-2    0.3632E-2    -.2071E-2    0.2492E-2    0.1692E-2
    2.465       0.2728E-2    0.2067E-2    0.4157E-2    -.1842E-2    0.2728E-2    0.2067E-2
    2.485       0.3021E-2    0.2426E-2    0.4756E-2    -.1761E-2    0.3021E-2    0.2426E-2
    2.505       0.3381E-2    0.2747E-2    0.5366E-2    -.1895E-2    0.3381E-2    0.2747E-2
    2.525       0.3811E-2    0.2990E-2    0.5860E-2    -.2277E-2    0.3811E-2    0.2990E-2
      2.5451       0.0043       0.0031       0.0061      -0.0028       0.0043       0.0031
      2.5651       0.0048       0.0030       0.0060      -0.0034       0.0048       0.0030
      2.5852       0.0051       0.0028       0.0056      -0.0038       0.0051       0.0028
    2.605       0.5214E-2    0.2419E-2    0.5048E-2    -.3870E-2    0.5214E-2    0.2419E-2
    2.625       0.5055E-2    0.2096E-2    0.4536E-2    -.3742E-2    0.5055E-2    0.2096E-2
    2.645       0.4705E-2    0.1943E-2    0.4101E-2    -.3446E-2    0.4705E-2    0.1943E-2
    2.665       0.4287E-2    0.1997E-2    0.3759E-2    -.3045E-2    0.4287E-2    0.1997E-2
    2.685       0.3892E-2    0.2223E-2    0.3507E-2    -.2584E-2    0.3892E-2    0.2223E-2
    2.705       0.3561E-2    0.2567E-2    0.3332E-2    -.2088E-2    0.3561E-2    0.2567E-2
    2.725       0.3303E-2    0.2982E-2    0.3219E-2    -.1571E-2    0.3303E-2    0.2982E-2
    2.745       0.3110E-2    0.3438E-2    0.3159E-2    -.1039E-2    0.3110E-2    0.3438E-2
    2.766       0.2971E-2    0.3916E-2    0.3144E-2    -.4954E-3    0.2971E-2    0.3916E-2
    2.786       0.2876E-2    0.4407E-2    0.3169E-2    0.6039E-4    0.2876E-2    0.4407E-2
    2.806       0.2816E-2    0.4906E-2    0.3231E-2    0.6298E-3    0.2816E-2    0.4906E-2
    2.826       0.2785E-2    0.5412E-2    0.3331E-2    0.1215E-2    0.2785E-2    0.5412E-2
    2.846       0.2778E-2    0.5925E-2    0.3469E-2    0.1819E-2    0.2778E-2    0.5925E-2
    2.866       0.2792E-2    0.6445E-2    0.3650E-2    0.2446E-2    0.2792E-2    0.6445E-2
    2.886       0.2825E-2    0.6973E-2    0.3880E-2    0.3097E-2    0.2825E-2    0.6973E-2
    2.906       0.2876E-2    0.7511E-2    0.4169E-2    0.3777E-2    0.2876E-2    0.7511E-2
      2.9259       0.0029       0.0081       0.0045       0.0045       0.0029       0.0081
      2.9459       0.0030       0.0086       0.0050       0.0052       0.0030       0.0086
      2.9659       0.0031       0.0092       0.0055       0.0060       0.0031       0.0092
      2.9860       0.0033       0.0098       0.0062       0.0068       0.0033       0.0098
      3.0060       0.0034       0.0104       0.0071       0.0076       0.0034       0.0104
      3.0261       0.0036       0.0111       0.0082       0.0084       0.0036       0.0111
      3.0461       0.0038       0.0117       0.0097       0.0091       0.0038       0.0117
      3.0661       0.0041       0.0125       0.0114       0.0095       0.0041       0.0125
      3.0862       0.0044       0.0132       0.0136       0.0096       0.0044       0.0132
      3.1062       0.0047       0.0140       0.0161       0.0090       0.0047       0.0140
      3.1263       0.0052       0.0148       0.0185       0.0074       0.0052       0.0148
      3.1463       0.0057       0.0156       0.0205       0.0047       0.0057       0.0156
    3.166       0.6381E-2    0.1653E-1    0.2116E-1    0.1306E-2    0.6381E-2    0.1652E-1
    3.186       0.7211E-2    0.1745E-1    0.2036E-1    -.2081E-2    0.7210E-2    0.1745E-1
      3.2064       0.0083       0.0184       0.0184      -0.0047       0.0083       0.0184
      3.2265       0.0096       0.0193       0.0159      -0.0061       0.0096       0.0193
      3.2465       0.0112       0.0201       0.0135      -0.0066       0.0112       0.0201
      3.2665       0.0133       0.0206       0.0114      -0.0065       0.0133       0.0206
      3.2866       0.0158       0.0206       0.0097      -0.0060       0.0158       0.0206
      3.3066       0.0186       0.0199       0.0084      -0.0052       0.0186       0.0199
      3.3267       0.0214       0.0180       0.0073      -0.0044       0.0214       0.0180
      3.3467       0.0235       0.0149       0.0065      -0.0035       0.0235       0.0149
    3.367       0.2412E-1    0.1097E-1    0.5823E-2    -.2652E-2    0.2412E-1    0.1097E-1
    3.387       0.2307E-1    0.7225E-2    0.5309E-2    -.1806E-2    0.2308E-1    0.7228E-2
    3.407       0.2077E-1    0.4456E-2    0.4902E-2    -.9831E-3    0.2078E-1    0.4458E-2
    3.427       0.1798E-1    0.2940E-2    0.4580E-2    -.1858E-3    0.1798E-1    0.2941E-2
    3.447       0.1528E-1    0.2486E-2    0.4325E-2    0.5877E-3    0.1528E-1    0.2485E-2
    3.467       0.1295E-1    0.2749E-2    0.4124E-2    0.1340E-2    0.1296E-1    0.2748E-2
    3.487       0.1106E-1    0.3431E-2    0.3968E-2    0.2074E-2    0.1107E-1    0.3430E-2
    3.507       0.9571E-2    0.4331E-2    0.3848E-2    0.2794E-2    0.9572E-2    0.4329E-2
    3.527       0.8402E-2    0.5328E-2    0.3760E-2    0.3503E-2    0.8403E-2    0.5327E-2
      3.5471       0.0075       0.0064       0.0037       0.0042       0.0075       0.0064
      3.5671       0.0068       0.0074       0.0037       0.0049       0.0068       0.0074
      3.5872       0.0062       0.0084       0.0036       0.0056       0.0062       0.0084
      3.6072       0.0058       0.0094       0.0037       0.0063       0.0058       0.0094
      3.6273       0.0054       0.0103       0.0037       0.0070       0.0054       0.0103
      3.6473       0.0051       0.0112       0.0037       0.0077       0.0051       0.0112
      3.6673       0.0049       0.0121       0.0038       0.0084       0.0049       0.0121
      3.6874       0.0048       0.0130       0.0039       0.0091       0.0048       0.0130
      3.7074       0.0046       0.0139       0.0040       0.0099       0.0046       0.0139
      3.7275       0.0045       0.0148       0.0041       0.0107       0.0045       0.0148
      3.7475       0.0045       0.0156       0.0043       0.0114       0.0045       0.0156
      3.7675       0.0045       0.0165       0.0045       0.0123       0.0045       0.0165
      3.7876       0.0045       0.0173       0.0047       0.0131       0.0045       0.0173
      3.8076       0.0045       0.0182       0.0050       0.0140       0.0045       0.0182
      3.8277       0.0045       0.0190       0.0053       0.0149       0.0045       0.0190
      3.8477       0.0046       0.0199       0.0057       0.0159       0.0046       0.0199
      3.8677       0.0047       0.0208       0.0061       0.0169       0.0047       0.0208
      3.8878       0.0048       0.0217       0.0067       0.0180       0.0048       0.0217
      3.9078       0.0049       0.0226       0.0074       0.0192       0.0049       0.0226
      3.9279       0.0051       0.0236       0.0082       0.0204       0.0051       0.0235
      3.9479       0.0053       0.0245       0.0092       0.0217       0.0053       0.0245
      3.9679       0.0055       0.0255       0.0104       0.0230       0.0055       0.0255
      3.9880       0.0058       0.0266       0.0120       0.0244       0.0058       0.0266
      4.0080       0.0061       0.0277       0.0139       0.0258       0.0061       0.0277
      4.0281       0.0065       0.0288       0.0164       0.0272       0.0065       0.0288
      4.0481       0.0069       0.0300       0.0195       0.0283       0.0069       0.0300
      4.0681       0.0075       0.0313       0.0234       0.0289       0.0075       0.0313
      4.0882       0.0081       0.0326       0.0281       0.0286       0.0081       0.0327
      4.1082       0.0089       0.0341       0.0335       0.0267       0.0089       0.0341
      4.1283       0.0098       0.0356       0.0387       0.0226       0.0098       0.0356
     4.14830      0.01091      0.03718      0.04260      0.01627      0.01092      0.03719
      4.1683       0.0123       0.0389       0.0437       0.0084       0.0123       0.0389
    4.188       0.1399E-1    0.4066E-1    0.4164E-1    0.8626E-3    0.1401E-1    0.4068E-1
      4.2084       0.0161       0.0425       0.0372      -0.0048       0.0162       0.0425
      4.2285       0.0188       0.0443       0.0318      -0.0081       0.0189       0.0444
      4.2485       0.0222       0.0461       0.0266      -0.0095       0.0223       0.0461
      4.2685       0.0265       0.0475       0.0221      -0.0094       0.0266       0.0475
      4.2886       0.0319       0.0481       0.0185      -0.0086       0.0320       0.0481
      4.3086       0.0383       0.0474       0.0156      -0.0074       0.0384       0.0474
      4.3287       0.0455       0.0445       0.0133      -0.0060       0.0455       0.0444
      4.3487       0.0523       0.0387       0.0114      -0.0046       0.0523       0.0385
    4.369       0.5697E-1    0.2982E-1    0.1000E-1    -.3242E-2    0.5692E-1    0.2963E-1
    4.389       0.5782E-1    0.1933E-1    0.8841E-2    -.1905E-2    0.5768E-1    0.1918E-1
    4.409       0.5450E-1    0.9636E-2    0.7901E-2    -.6366E-3    0.5429E-1    0.9556E-2
    4.429       0.4835E-1    0.2609E-2    0.7132E-2    0.5612E-3    0.4813E-1    0.2628E-2
    4.449       0.4127E-1    -.1302E-2    0.6498E-2    0.1690E-2    0.4109E-1    -.1200E-2
    4.469       0.3463E-1    -.2710E-2    0.5969E-2    0.2756E-2    0.3450E-1    -.2555E-2
    4.489       0.2901E-1    -.2495E-2    0.5525E-2    0.3762E-2    0.2895E-1    -.2316E-2
    4.509       0.2450E-1    -.1385E-2    0.5149E-2    0.4716E-2    0.2450E-1    -.1206E-2
    4.529       0.2094E-1    0.1352E-3    0.4829E-2    0.5623E-2    0.2101E-1    0.2916E-3
    4.549       0.1815E-1    0.1780E-2    0.4555E-2    0.6487E-2    0.1825E-1    0.1897E-2
    4.569       0.1589E-1    0.3414E-2    0.4318E-2    0.7313E-2    0.1601E-1    0.3482E-2
    4.589       0.1401E-1    0.5004E-2    0.4112E-2    0.8106E-2    0.1414E-1    0.5027E-2
    4.609       0.1243E-1    0.6562E-2    0.3933E-2    0.8869E-2    0.1254E-1    0.6549E-2
    4.629       0.1109E-1    0.8094E-2    0.3776E-2    0.9604E-2    0.1118E-1    0.8058E-2
    4.649       0.9964E-2    0.9593E-2    0.3638E-2    0.1032E-1    0.1003E-1    0.9544E-2
    4.669       0.9032E-2    0.1104E-1    0.3516E-2    0.1101E-1    0.9084E-2    0.1099E-1
    4.689       0.8260E-2    0.1244E-1    0.3408E-2    0.1168E-1    0.8297E-2    0.1238E-1
    4.709       0.7621E-2    0.1377E-1    0.3312E-2    0.1233E-1    0.7644E-2    0.1371E-1
    4.729       0.7090E-2    0.1504E-1    0.3227E-2    0.1297E-1    0.7103E-2    0.1498E-1
    4.749       0.6650E-2    0.1625E-1    0.3150E-2    0.1359E-1    0.6652E-2    0.1619E-1
    4.770       0.6286E-2    0.1741E-1    0.3082E-2    0.1420E-1    0.6277E-2    0.1735E-1
    4.790       0.5987E-2    0.1851E-1    0.3020E-2    0.1480E-1    0.5966E-2    0.1846E-1
    4.810       0.5745E-2    0.1957E-1    0.2965E-2    0.1539E-1    0.5712E-2    0.1952E-1
    4.830       0.5555E-2    0.2057E-1    0.2916E-2    0.1597E-1    0.5508E-2    0.2053E-1
    4.850       0.5409E-2    0.2153E-1    0.2871E-2    0.1655E-1    0.5349E-2    0.2149E-1
    4.870       0.5300E-2    0.2242E-1    0.2831E-2    0.1711E-1    0.5228E-2    0.2241E-1
    4.890       0.5208E-2    0.2325E-1    0.2794E-2    0.1767E-1    0.5135E-2    0.2326E-1
    4.910       0.5111E-2    0.2401E-1    0.2761E-2    0.1822E-1    0.5050E-2    0.2406E-1
    4.930       0.4984E-2    0.2474E-1    0.2732E-2    0.1876E-1    0.4950E-2    0.2480E-1
    4.950       0.4824E-2    0.2545E-1    0.2705E-2    0.1930E-1    0.4818E-2    0.2551E-1
    4.970       0.4645E-2    0.2618E-1    0.2681E-2    0.1984E-1    0.4659E-2    0.2623E-1
    4.990       0.4466E-2    0.2693E-1    0.2659E-2    0.2037E-1    0.4489E-2    0.2696E-1
    5.010       0.4303E-2    0.2769E-1    0.2639E-2    0.2090E-1    0.4326E-2    0.2770E-1
    5.030       0.4160E-2    0.2845E-1    0.2621E-2    0.2142E-1    0.4180E-2    0.2846E-1
    5.050       0.4038E-2    0.2921E-1    0.2605E-2    0.2194E-1    0.4054E-2    0.2922E-1
    5.070       0.3934E-2    0.2997E-1    0.2591E-2    0.2246E-1    0.3947E-2    0.2997E-1
    5.090       0.3845E-2    0.3072E-1    0.2578E-2    0.2298E-1    0.3855E-2    0.3072E-1
    5.110       0.3768E-2    0.3146E-1    0.2567E-2    0.2349E-1    0.3776E-2    0.3145E-1
    5.130       0.3702E-2    0.3219E-1    0.2557E-2    0.2400E-1    0.3708E-2    0.3218E-1
    5.150       0.3645E-2    0.3291E-1    0.2548E-2    0.2451E-1    0.3649E-2    0.3290E-1
    5.170       0.3595E-2    0.3362E-1    0.2540E-2    0.2502E-1    0.3598E-2    0.3362E-1
    5.190       0.3551E-2    0.3433E-1    0.2533E-2    0.2553E-1    0.3553E-2    0.3432E-1
    5.210       0.3512E-2    0.3502E-1    0.2528E-2    0.2603E-1    0.3514E-2    0.3502E-1
    5.230       0.3478E-2    0.3572E-1    0.2523E-2    0.2654E-1    0.3479E-2    0.3572E-1
    5.251       0.3447E-2    0.3640E-1    0.2518E-2    0.2704E-1    0.3449E-2    0.3640E-1
    5.271       0.3421E-2    0.3709E-1    0.2515E-2    0.2754E-1    0.3422E-2    0.3708E-1
    5.291       0.3397E-2    0.3776E-1    0.2512E-2    0.2804E-1    0.3398E-2    0.3776E-1
    5.311       0.3376E-2    0.3844E-1    0.2510E-2    0.2855E-1    0.3377E-2    0.3844E-1
    5.331       0.3358E-2    0.3911E-1    0.2509E-2    0.2905E-1    0.3359E-2    0.3911E-1
    5.351       0.3343E-2    0.3978E-1    0.2508E-2    0.2955E-1    0.3343E-2    0.3978E-1
    5.371       0.3329E-2    0.4044E-1    0.2508E-2    0.3005E-1    0.3329E-2    0.4044E-1
    5.391       0.3317E-2    0.4110E-1    0.2508E-2    0.3055E-1    0.3318E-2    0.4110E-1
    5.411       0.3308E-2    0.4176E-1    0.2509E-2    0.3106E-1    0.3308E-2    0.4176E-1
    5.431       0.3299E-2    0.4242E-1    0.2510E-2    0.3156E-1    0.3300E-2    0.4242E-1
    5.451       0.3293E-2    0.4308E-1    0.2512E-2    0.3206E-1    0.3293E-2    0.4308E-1
    5.471       0.3288E-2    0.4374E-1    0.2514E-2    0.3256E-1    0.3288E-2    0.4374E-1
    5.491       0.3284E-2    0.4439E-1    0.2517E-2    0.3307E-1    0.3285E-2    0.4439E-1
    5.511       0.3282E-2    0.4505E-1    0.2519E-2    0.3357E-1    0.3283E-2    0.4505E-1
    5.531       0.3282E-2    0.4571E-1    0.2523E-2    0.3408E-1    0.3282E-2    0.4571E-1
    5.551       0.3283E-2    0.4636E-1    0.2526E-2    0.3458E-1    0.3283E-2    0.4636E-1
    5.571       0.3285E-2    0.4702E-1    0.2530E-2    0.3509E-1    0.3285E-2    0.4702E-1
    5.591       0.3288E-2    0.4767E-1    0.2534E-2    0.3559E-1    0.3288E-2    0.4767E-1
    5.611       0.3293E-2    0.4833E-1    0.2539E-2    0.3610E-1    0.3293E-2    0.4833E-1
    5.631       0.3300E-2    0.4899E-1    0.2543E-2    0.3661E-1    0.3300E-2    0.4899E-1
    5.651       0.3309E-2    0.4965E-1    0.2548E-2    0.3712E-1    0.3309E-2    0.4965E-1
    5.671       0.3319E-2    0.5031E-1    0.2554E-2    0.3763E-1    0.3319E-2    0.5031E-1
    5.691       0.3332E-2    0.5097E-1    0.2559E-2    0.3814E-1    0.3332E-2    0.5097E-1
    5.711       0.3347E-2    0.5163E-1    0.2565E-2    0.3866E-1    0.3347E-2    0.5163E-1
    5.731       0.3366E-2    0.5230E-1    0.2571E-2    0.3917E-1    0.3366E-2    0.5230E-1
    5.752       0.3388E-2    0.5297E-1    0.2577E-2    0.3969E-1    0.3388E-2    0.5296E-1
    5.772       0.3416E-2    0.5364E-1    0.2583E-2    0.4020E-1    0.3415E-2    0.5363E-1
    5.792       0.3449E-2    0.5431E-1    0.2590E-2    0.4072E-1    0.3448E-2    0.5431E-1
    5.812       0.3490E-2    0.5498E-1    0.2597E-2    0.4124E-1    0.3489E-2    0.5498E-1
    5.832       0.3540E-2    0.5566E-1    0.2604E-2    0.4176E-1    0.3539E-2    0.5565E-1
    5.852       0.3603E-2    0.5633E-1    0.2611E-2    0.4228E-1    0.3602E-2    0.5633E-1
    5.872       0.3681E-2    0.5699E-1    0.2618E-2    0.4281E-1    0.3679E-2    0.5699E-1
    5.892       0.3774E-2    0.5764E-1    0.2626E-2    0.4333E-1    0.3772E-2    0.5764E-1
    5.912       0.3882E-2    0.5827E-1    0.2633E-2    0.4386E-1    0.3879E-2    0.5827E-1
    5.932       0.3992E-2    0.5886E-1    0.2641E-2    0.4439E-1    0.3990E-2    0.5886E-1
    5.952       0.4083E-2    0.5941E-1    0.2649E-2    0.4492E-1    0.4081E-2    0.5941E-1
    5.972       0.4128E-2    0.5992E-1    0.2657E-2    0.4545E-1    0.4127E-2    0.5992E-1
    5.992       0.4111E-2    0.6043E-1    0.2666E-2    0.4598E-1    0.4111E-2    0.6043E-1
    6.012       0.4044E-2    0.6097E-1    0.2674E-2    0.4652E-1    0.4045E-2    0.6098E-1
    6.032       0.3953E-2    0.6156E-1    0.2683E-2    0.4705E-1    0.3954E-2    0.6157E-1
    6.052       0.3862E-2    0.6220E-1    0.2691E-2    0.4759E-1    0.3863E-2    0.6220E-1
    6.072       0.3783E-2    0.6286E-1    0.2700E-2    0.4813E-1    0.3784E-2    0.6286E-1
    6.092       0.3720E-2    0.6354E-1    0.2709E-2    0.4867E-1    0.3721E-2    0.6354E-1
    6.112       0.3672E-2    0.6424E-1    0.2718E-2    0.4922E-1    0.3673E-2    0.6424E-1
    6.132       0.3637E-2    0.6494E-1    0.2727E-2    0.4976E-1    0.3637E-2    0.6494E-1
    6.152       0.3611E-2    0.6564E-1    0.2737E-2    0.5031E-1    0.3612E-2    0.6564E-1
    6.172       0.3594E-2    0.6635E-1    0.2746E-2    0.5086E-1    0.3594E-2    0.6635E-1
    6.192       0.3582E-2    0.6706E-1    0.2756E-2    0.5141E-1    0.3583E-2    0.6706E-1
    6.212       0.3575E-2    0.6776E-1    0.2766E-2    0.5196E-1    0.3576E-2    0.6776E-1
    6.232       0.3572E-2    0.6847E-1    0.2776E-2    0.5252E-1    0.3573E-2    0.6847E-1
    6.253       0.3572E-2    0.6918E-1    0.2786E-2    0.5307E-1    0.3572E-2    0.6918E-1
    6.273       0.3575E-2    0.6990E-1    0.2796E-2    0.5363E-1    0.3575E-2    0.6990E-1
    6.293       0.3579E-2    0.7061E-1    0.2806E-2    0.5419E-1    0.3579E-2    0.7061E-1
    6.313       0.3585E-2    0.7132E-1    0.2816E-2    0.5476E-1    0.3585E-2    0.7132E-1
    6.333       0.3592E-2    0.7204E-1    0.2827E-2    0.5532E-1    0.3592E-2    0.7204E-1
    6.353       0.3600E-2    0.7276E-1    0.2837E-2    0.5589E-1    0.3600E-2    0.7276E-1
    6.373       0.3609E-2    0.7348E-1    0.2848E-2    0.5646E-1    0.3609E-2    0.7348E-1
    6.393       0.3620E-2    0.7420E-1    0.2859E-2    0.5703E-1    0.3620E-2    0.7420E-1
    6.413       0.3630E-2    0.7493E-1    0.2870E-2    0.5760E-1    0.3631E-2    0.7493E-1
    6.433       0.3642E-2    0.7566E-1    0.2881E-2    0.5818E-1    0.3642E-2    0.7566E-1
    6.453       0.3654E-2    0.7639E-1    0.2892E-2    0.5876E-1    0.3654E-2    0.7639E-1
    6.473       0.3667E-2    0.7712E-1    0.2904E-2    0.5934E-1    0.3667E-2    0.7712E-1
    6.493       0.3680E-2    0.7785E-1    0.2915E-2    0.5992E-1    0.3680E-2    0.7785E-1
    6.513       0.3694E-2    0.7859E-1    0.2927E-2    0.6051E-1    0.3694E-2    0.7859E-1
    6.533       0.3709E-2    0.7933E-1    0.2938E-2    0.6110E-1    0.3709E-2    0.7933E-1
    6.553       0.3723E-2    0.8008E-1    0.2950E-2    0.6169E-1    0.3723E-2    0.8008E-1
    6.573       0.3738E-2    0.8082E-1    0.2962E-2    0.6228E-1    0.3738E-2    0.8082E-1
    6.593       0.3754E-2    0.8157E-1    0.2974E-2    0.6287E-1    0.3754E-2    0.8157E-1
    6.613       0.3770E-2    0.8233E-1    0.2987E-2    0.6347E-1    0.3770E-2    0.8233E-1
    6.633       0.3786E-2    0.8308E-1    0.2999E-2    0.6407E-1    0.3786E-2    0.8308E-1
    6.653       0.3803E-2    0.8384E-1    0.3012E-2    0.6467E-1    0.3803E-2    0.8384E-1
    6.673       0.3820E-2    0.8461E-1    0.3024E-2    0.6528E-1    0.3820E-2    0.8461E-1
    6.693       0.3837E-2    0.8537E-1    0.3037E-2    0.6588E-1    0.3837E-2    0.8537E-1
    6.713       0.3855E-2    0.8614E-1    0.3050E-2    0.6649E-1    0.3855E-2    0.8614E-1
    6.733       0.3873E-2    0.8692E-1    0.3063E-2    0.6710E-1    0.3873E-2    0.8692E-1
    6.754       0.3892E-2    0.8770E-1    0.3076E-2    0.6772E-1    0.3892E-2    0.8770E-1
    6.774       0.3911E-2    0.8848E-1    0.3090E-2    0.6834E-1    0.3911E-2    0.8848E-1
    6.794       0.3930E-2    0.8926E-1    0.3104E-2    0.6896E-1    0.3930E-2    0.8926E-1
    6.814       0.3950E-2    0.9005E-1    0.3117E-2    0.6958E-1    0.3950E-2    0.9005E-1
    6.834       0.3970E-2    0.9084E-1    0.3131E-2    0.7021E-1    0.3970E-2    0.9084E-1
    6.854       0.3991E-2    0.9164E-1    0.3145E-2    0.7083E-1    0.3991E-2    0.9164E-1
    6.874       0.4012E-2    0.9244E-1    0.3160E-2    0.7147E-1    0.4012E-2    0.9244E-1
    6.894       0.4033E-2    0.9325E-1    0.3174E-2    0.7210E-1    0.4033E-2    0.9325E-1
    6.914       0.4055E-2    0.9406E-1    0.3189E-2    0.7274E-1    0.4055E-2    0.9406E-1
    6.934       0.4077E-2    0.9487E-1    0.3204E-2    0.7338E-1    0.4077E-2    0.9487E-1
    6.954       0.4100E-2    0.9569E-1    0.3219E-2    0.7402E-1    0.4100E-2    0.9569E-1
    6.974       0.4123E-2    0.9651E-1    0.3235E-2    0.7467E-1    0.4123E-2    0.9651E-1
    6.994       0.4147E-2    0.9734E-1    0.3250E-2    0.7532E-1    0.4147E-2    0.9734E-1
    7.014       0.4171E-2    0.9817E-1    0.3266E-2    0.7597E-1    0.4171E-2    0.9817E-1
    7.034       0.4196E-2    0.9901E-1    0.3283E-2    0.7663E-1    0.4196E-2    0.9901E-1
    7.054       0.4222E-2    0.9985E-1    0.3299E-2    0.7728E-1    0.4222E-2    0.9985E-1
    7.074       0.4248E-2    0.1007       0.3316E-2    0.7795E-1    0.4248E-2    0.1007   
    7.094       0.4275E-2    0.1016       0.3333E-2    0.7861E-1    0.4275E-2    0.1016   
    7.114       0.4302E-2    0.1024       0.3350E-2    0.7928E-1    0.4302E-2    0.1024   
    7.134       0.4330E-2    0.1033       0.3368E-2    0.7995E-1    0.4330E-2    0.1033   
    7.154       0.4359E-2    0.1041       0.3386E-2    0.8063E-1    0.4359E-2    0.1041   
    7.174       0.4389E-2    0.1050       0.3405E-2    0.8131E-1    0.4389E-2    0.1050   
    7.194       0.4419E-2    0.1059       0.3424E-2    0.8199E-1    0.4419E-2    0.1059   
    7.214       0.4451E-2    0.1068       0.3443E-2    0.8268E-1    0.4451E-2    0.1068   
    7.234       0.4483E-2    0.1077       0.3463E-2    0.8337E-1    0.4483E-2    0.1077   
    7.255       0.4517E-2    0.1086       0.3484E-2    0.8407E-1    0.4517E-2    0.1086   
    7.275       0.4551E-2    0.1095       0.3504E-2    0.8477E-1    0.4551E-2    0.1095   
    7.295       0.4587E-2    0.1104       0.3526E-2    0.8547E-1    0.4587E-2    0.1104   
    7.315       0.4623E-2    0.1113       0.3548E-2    0.8618E-1    0.4623E-2    0.1113   
    7.335       0.4662E-2    0.1122       0.3571E-2    0.8689E-1    0.4662E-2    0.1122   
    7.355       0.4701E-2    0.1132       0.3594E-2    0.8761E-1    0.4701E-2    0.1132   
    7.375       0.4742E-2    0.1141       0.3619E-2    0.8833E-1    0.4742E-2    0.1141   
    7.395       0.4785E-2    0.1151       0.3644E-2    0.8905E-1    0.4785E-2    0.1151   
    7.415       0.4829E-2    0.1160       0.3670E-2    0.8979E-1    0.4829E-2    0.1160   
    7.435       0.4876E-2    0.1170       0.3697E-2    0.9052E-1    0.4875E-2    0.1170   
    7.455       0.4924E-2    0.1180       0.3725E-2    0.9126E-1    0.4924E-2    0.1180   
    7.475       0.4974E-2    0.1190       0.3754E-2    0.9201E-1    0.4974E-2    0.1190   
    7.495       0.5027E-2    0.1200       0.3784E-2    0.9276E-1    0.5027E-2    0.1200   
    7.515       0.5083E-2    0.1210       0.3816E-2    0.9352E-1    0.5083E-2    0.1210   
    7.535       0.5141E-2    0.1220       0.3849E-2    0.9429E-1    0.5141E-2    0.1220   
    7.555       0.5202E-2    0.1230       0.3885E-2    0.9506E-1    0.5202E-2    0.1230   
    7.575       0.5267E-2    0.1241       0.3921E-2    0.9584E-1    0.5267E-2    0.1241   
    7.595       0.5335E-2    0.1251       0.3960E-2    0.9662E-1    0.5335E-2    0.1251   
    7.615       0.5408E-2    0.1262       0.4002E-2    0.9742E-1    0.5408E-2    0.1262   
    7.635       0.5485E-2    0.1273       0.4045E-2    0.9822E-1    0.5485E-2    0.1273   
    7.655       0.5567E-2    0.1284       0.4092E-2    0.9903E-1    0.5567E-2    0.1284   
    7.675       0.5654E-2    0.1295       0.4142E-2    0.9985E-1    0.5654E-2    0.1295   
    7.695       0.5747E-2    0.1306       0.4195E-2    0.1007       0.5747E-2    0.1306   
    7.715       0.5848E-2    0.1318       0.4252E-2    0.1015       0.5848E-2    0.1318   
    7.735       0.5956E-2    0.1329       0.4314E-2    0.1024       0.5956E-2    0.1329   
    7.756       0.6072E-2    0.1341       0.4381E-2    0.1032       0.6072E-2    0.1341   
    7.776       0.6198E-2    0.1353       0.4454E-2    0.1041       0.6198E-2    0.1353   
    7.796       0.6335E-2    0.1366       0.4534E-2    0.1050       0.6335E-2    0.1366   
    7.816       0.6484E-2    0.1378       0.4622E-2    0.1059       0.6484E-2    0.1378   
    7.836       0.6647E-2    0.1391       0.4718E-2    0.1068       0.6647E-2    0.1391   
    7.856       0.6826E-2    0.1405       0.4826E-2    0.1077       0.6826E-2    0.1405   
    7.876       0.7023E-2    0.1418       0.4945E-2    0.1087       0.7023E-2    0.1418   
    7.896       0.7242E-2    0.1432       0.5080E-2    0.1097       0.7242E-2    0.1432   
    7.916       0.7486E-2    0.1446       0.5232E-2    0.1107       0.7485E-2    0.1446   
    7.936       0.7758E-2    0.1461       0.5404E-2    0.1117       0.7758E-2    0.1461   
    7.956       0.8063E-2    0.1476       0.5602E-2    0.1128       0.8063E-2    0.1476   
    7.976       0.8409E-2    0.1492       0.5829E-2    0.1138       0.8409E-2    0.1492   
    7.996       0.8802E-2    0.1508       0.6094E-2    0.1150       0.8802E-2    0.1508   
    8.016       0.9251E-2    0.1525       0.6405E-2    0.1161       0.9251E-2    0.1525   
    8.036       0.9769E-2    0.1543       0.6773E-2    0.1173       0.9769E-2    0.1543   
    8.056       0.1037E-1    0.1561       0.7212E-2    0.1185       0.1037E-1    0.1561   
    8.076       0.1107E-1    0.1581       0.7743E-2    0.1198       0.1107E-1    0.1581   
      8.0962       0.0119       0.1601       0.0084       0.1212       0.0119       0.1601
      8.1162       0.0129       0.1622       0.0092       0.1225       0.0129       0.1622
     8.13627      0.01406      0.16449      0.01018      0.12395      0.01406      0.16449
     8.15631      0.01550      0.16686      0.01142      0.12536      0.01549      0.16686
     8.17635      0.01725      0.16935      0.01300      0.12672      0.01725      0.16935
     8.19639      0.01942      0.17195      0.01498      0.12794      0.01941      0.17195
     8.21643      0.02212      0.17463      0.01745      0.12884      0.02212      0.17463
     8.23647      0.02553      0.17729      0.02043      0.12913      0.02553      0.17729
     8.25651      0.02984      0.17979      0.02376      0.12844      0.02983      0.17979
     8.27655      0.03527      0.18183      0.02698      0.12638      0.03526      0.18184
     8.29659      0.04200      0.18292      0.02927      0.12291      0.04200      0.18292
     8.31663      0.05004      0.18225      0.02982      0.11860      0.05003      0.18225
     8.33667      0.05886      0.17878      0.02839      0.11457      0.05885      0.17879
     8.35671      0.06706      0.17159      0.02557      0.11175      0.06706      0.17161
     8.37675      0.07240      0.16081      0.02224      0.11039      0.07241      0.16082
     8.39679      0.07287      0.14831      0.01908      0.11025      0.07288      0.14832
     8.41683      0.06828      0.13708      0.01637      0.11090      0.06830      0.13709
     8.43687      0.06044      0.12929      0.01417      0.11201      0.06046      0.12929
     8.45691      0.05166      0.12530      0.01242      0.11336      0.05168      0.12529
     8.47695      0.04352      0.12430      0.01104      0.11480      0.04353      0.12429
      8.4970       0.0366       0.1252       0.0100       0.1163       0.0366       0.1252
      8.5170       0.0311       0.1272       0.0091       0.1177       0.0311       0.1272
    8.537       0.2668E-1    0.1298       0.8398E-2    0.1191       0.2669E-1    0.1297   
    8.557       0.2323E-1    0.1325       0.7840E-2    0.1205       0.2323E-1    0.1325   
    8.577       0.2051E-1    0.1353       0.7386E-2    0.1219       0.2051E-1    0.1353   
    8.597       0.1836E-1    0.1381       0.7012E-2    0.1232       0.1836E-1    0.1380   
    8.617       0.1666E-1    0.1407       0.6703E-2    0.1244       0.1666E-1    0.1407   
    8.637       0.1531E-1    0.1433       0.6445E-2    0.1257       0.1531E-1    0.1432   
    8.657       0.1424E-1    0.1457       0.6228E-2    0.1269       0.1423E-1    0.1457   
    8.677       0.1340E-1    0.1480       0.6045E-2    0.1280       0.1339E-1    0.1480   
    8.697       0.1276E-1    0.1503       0.5890E-2    0.1292       0.1274E-1    0.1503   
    8.717       0.1229E-1    0.1524       0.5758E-2    0.1303       0.1227E-1    0.1524   
    8.737       0.1197E-1    0.1544       0.5644E-2    0.1314       0.1195E-1    0.1544   
    8.758       0.1180E-1    0.1564       0.5547E-2    0.1325       0.1177E-1    0.1564   
    8.778       0.1176E-1    0.1581       0.5463E-2    0.1336       0.1173E-1    0.1581   
    8.798       0.1181E-1    0.1597       0.5391E-2    0.1347       0.1177E-1    0.1597   
    8.818       0.1186E-1    0.1610       0.5329E-2    0.1357       0.1183E-1    0.1611   
    8.838       0.1179E-1    0.1622       0.5275E-2    0.1368       0.1178E-1    0.1622   
    8.858       0.1153E-1    0.1632       0.5228E-2    0.1378       0.1154E-1    0.1632   
    8.878       0.1108E-1    0.1643       0.5188E-2    0.1388       0.1110E-1    0.1643   
    8.898       0.1053E-1    0.1655       0.5153E-2    0.1399       0.1056E-1    0.1655   
    8.918       0.9974E-2    0.1669       0.5123E-2    0.1409       0.1000E-1    0.1669   
    8.938       0.9473E-2    0.1684       0.5098E-2    0.1419       0.9496E-2    0.1684   
    8.958       0.9048E-2    0.1699       0.5076E-2    0.1429       0.9067E-2    0.1699   
    8.978       0.8698E-2    0.1714       0.5058E-2    0.1439       0.8712E-2    0.1714   
    8.998       0.8410E-2    0.1730       0.5043E-2    0.1449       0.8422E-2    0.1730   
    9.018       0.8175E-2    0.1746       0.5030E-2    0.1459       0.8184E-2    0.1745   
    9.038       0.7982E-2    0.1761       0.5020E-2    0.1469       0.7989E-2    0.1761   
    9.058       0.7822E-2    0.1776       0.5012E-2    0.1479       0.7828E-2    0.1776   
    9.078       0.7689E-2    0.1791       0.5006E-2    0.1489       0.7694E-2    0.1791   
    9.098       0.7579E-2    0.1806       0.5002E-2    0.1499       0.7582E-2    0.1806   
    9.118       0.7486E-2    0.1821       0.5000E-2    0.1509       0.7489E-2    0.1821   
    9.138       0.7408E-2    0.1836       0.4999E-2    0.1519       0.7410E-2    0.1835   
    9.158       0.7343E-2    0.1850       0.4999E-2    0.1529       0.7345E-2    0.1850   
    9.178       0.7289E-2    0.1865       0.5000E-2    0.1539       0.7291E-2    0.1864   
    9.198       0.7245E-2    0.1879       0.5003E-2    0.1549       0.7246E-2    0.1879   
    9.218       0.7209E-2    0.1893       0.5007E-2    0.1559       0.7210E-2    0.1893   
    9.238       0.7181E-2    0.1908       0.5011E-2    0.1569       0.7182E-2    0.1908   
    9.259       0.7160E-2    0.1922       0.5017E-2    0.1580       0.7161E-2    0.1922   
    9.279       0.7146E-2    0.1936       0.5023E-2    0.1590       0.7147E-2    0.1936   
    9.299       0.7138E-2    0.1950       0.5030E-2    0.1600       0.7139E-2    0.1950   
    9.319       0.7137E-2    0.1964       0.5038E-2    0.1610       0.7137E-2    0.1964   
    9.339       0.7141E-2    0.1979       0.5047E-2    0.1620       0.7141E-2    0.1979   
    9.359       0.7152E-2    0.1993       0.5056E-2    0.1630       0.7152E-2    0.1993   
    9.379       0.7169E-2    0.2007       0.5065E-2    0.1640       0.7169E-2    0.2007   
    9.399       0.7194E-2    0.2021       0.5076E-2    0.1650       0.7193E-2    0.2021   
    9.419       0.7226E-2    0.2036       0.5086E-2    0.1660       0.7225E-2    0.2036   
    9.439       0.7267E-2    0.2050       0.5098E-2    0.1671       0.7266E-2    0.2050   
    9.459       0.7318E-2    0.2064       0.5109E-2    0.1681       0.7317E-2    0.2064   
    9.479       0.7382E-2    0.2079       0.5122E-2    0.1691       0.7380E-2    0.2079   
    9.499       0.7459E-2    0.2093       0.5134E-2    0.1701       0.7457E-2    0.2093   
    9.519       0.7555E-2    0.2108       0.5147E-2    0.1712       0.7552E-2    0.2108   
    9.539       0.7672E-2    0.2123       0.5160E-2    0.1722       0.7669E-2    0.2123   
    9.559       0.7818E-2    0.2138       0.5174E-2    0.1732       0.7813E-2    0.2138   
    9.579       0.7999E-2    0.2153       0.5188E-2    0.1743       0.7993E-2    0.2152   
    9.599       0.8226E-2    0.2167       0.5202E-2    0.1753       0.8219E-2    0.2167   
    9.619       0.8513E-2    0.2182       0.5217E-2    0.1763       0.8503E-2    0.2182   
    9.639       0.8873E-2    0.2197       0.5232E-2    0.1774       0.8861E-2    0.2197   
    9.659       0.9324E-2    0.2211       0.5247E-2    0.1784       0.9309E-2    0.2211   
    9.679       0.9870E-2    0.2224       0.5263E-2    0.1795       0.9852E-2    0.2224   
    9.699       0.1049E-1    0.2236       0.5278E-2    0.1806       0.1047E-1    0.2236   
    9.719       0.1112E-1    0.2245       0.5294E-2    0.1816       0.1110E-1    0.2245   
    9.739       0.1161E-1    0.2251       0.5311E-2    0.1827       0.1160E-1    0.2252   
    9.760       0.1180E-1    0.2256       0.5327E-2    0.1837       0.1180E-1    0.2256   
    9.780       0.1162E-1    0.2261       0.5344E-2    0.1848       0.1163E-1    0.2261   
    9.800       0.1115E-1    0.2267       0.5361E-2    0.1859       0.1116E-1    0.2268   
    9.820       0.1055E-1    0.2277       0.5378E-2    0.1870       0.1057E-1    0.2277   
    9.840       0.9960E-2    0.2289       0.5395E-2    0.1880       0.9977E-2    0.2289   
    9.860       0.9451E-2    0.2302       0.5413E-2    0.1891       0.9465E-2    0.2302   
    9.880       0.9038E-2    0.2317       0.5431E-2    0.1902       0.9049E-2    0.2317   
    9.900       0.8713E-2    0.2332       0.5449E-2    0.1913       0.8722E-2    0.2332   
    9.920       0.8461E-2    0.2347       0.5467E-2    0.1924       0.8468E-2    0.2347   
    9.940       0.8267E-2    0.2363       0.5485E-2    0.1935       0.8272E-2    0.2363   
    9.960       0.8117E-2    0.2378       0.5504E-2    0.1946       0.8122E-2    0.2378   
    9.980       0.8002E-2    0.2394       0.5523E-2    0.1957       0.8005E-2    0.2394   
    10.00       0.7914E-2    0.2409       0.5541E-2    0.1968       0.7916E-2    0.2409   
# 
# 01/04/2018 at 13:46 YAMBO_RT @ narro [start]
# 01/04/2018 at 13:46                  [end]
#  
# Timing   [Min/Max/Average]: 02s/02s/02s
#
# .-Input file : yambo.in
# | optics                         # [R OPT] Optics
# | bse                            # [R BSE] Bethe Salpeter Equation.
# | bsk                            # [R BSK] Bethe Salpeter Equation kernel
# | bss                            # [R BSS] Bethe Salpeter Equation solver
# | em1s                           # [R Xs] Static Inverse Dielectric Matrix
# | BoseTemp= 0.000000     eV      # Bosonic Temperature
# | FFTGvecs=  387         RL      # [FFT] Plane-waves
# | Chimod= "hartree"              # [X] IP/Hartree/ALDA/LRC/BSfxc
# | BSEmod= "retarded"             # [BSE] resonant/retarded/coupling
# | BSKmod= "SEX"                  # [BSE] IP/Hartree/HF/ALDA/SEX/BSfxc
# | BSSmod= "h"                    # [BSS] (h)aydock/(d)iagonalization/(i)nversion/(t)ddft`
# | BSENGexx=  531         RL      # [BSK] Exchange components
# | BSENGBlk=  59          RL      # [BSK] Screened interaction block size
# | #WehCpl                        # [BSK] eh interaction included also in coupling
# | KfnQPdb= "E < 08_ypp_gw_10fs_Gonly_part2/ndb.QP_merged_1_gw_ppa_gw_ppa" # [EXTQP BSK BSS] Database
# | KfnRTdb= "f @ 0.1 ps < 04_elel+elph_0K/ndb.RT_carriers" # [EXTRT BSK BSS] Database
# | % BEnRange
# |   0.00000 | 10.00000 | eV      # [BSS] Energy range
# | %
# | % BDmRange
# |   0.10000 |  0.10000 | eV      # [BSS] Damping range
# | %
# | BEnSteps=  500                 # [BSS] Energy steps
# | % BLongDir
# | 0.1000E-4 | 0.000    | 0.000    |        # [BSS] [cc] Electric Field
# | %
# | % BSEBands
# |   2 |  7 |                     # [BSK] Bands range
# | %
# | BSHayTrs=  0.02000             # [BSS] Relative [o/o] Haydock treshold. Strict(>0)/Average(<0)
# | % BndsRnXs
# |   1 |  8 |                     # [Xs] Polarization function bands
# | %
# | NGsBlkXs=  59          RL      # [Xs] Response block size
# | GrFnTpXs= "R"                  # [Xs] Green`s function (T)ordered,(R)etarded,(r)senant,(a)ntiresonant [T, R, r, Ta, Ra]
# | % DmRngeXs
# |   0.10000 |  0.10000 | eV      # [Xs] Damping range
# | %
# | % LongDrXs
# | 0.1000E-4 | 0.000    | 0.000    |        # [Xs] [cc] Electric Field
# | %
