#                                                           
#  __  __   ________   ___ __ __    _______   ______        
# /_/\/_/\ /_______/\ /__//_//_/\ /_______/\ /_____/\       
# \ \ \ \ \\::: _  \ \\::\| \| \ \\::: _  \ \\:::_ \ \      
#  \:\_\ \ \\::(_)  \ \\:.      \ \\::(_)  \/_\:\ \ \ \     
#   \::::_\/ \:: __  \ \\:.\-/\  \ \\::  _  \ \\:\ \ \ \    
#     \::\ \  \:.\ \  \ \\. \  \  \ \\::(_)  \ \\:\_\ \ \   
#      \__\/   \__\/\__\/ \__\/ \__\/ \_______\/ \_____\/   
#                                                           
#                                                           
#        Version 4.3.0 Revision 15201 Hash 76636f9          
#                      MPI+SLK Build                        
#                http://www.yambo-code.org                  
#
# Absorption @ Q(1) [q->0 direction] :0.1000E-4  0.000     0.000   
#
#
# - Energies      are  E < 08_ypp_gw_10fs_part2/ndb.QP_merged_1_gw_ppa_gw_ppa + E Fit
# - Wavefunctions are Slater exchange(X)+Perdew & Zunger(C)
#
# - The Green`s function is Retarded -
# - Using the Length Gauge -
# - [r,Vnl] *is* included -
#
#   BSK|Identifier              :1999
#      |Dimension               :100
#      |Bands                   :2 - 7
#      |Exchange           [res]: yes
#      |Correlation        [res]: yes
#      |Kernel`s coupling       : no
#      |Exchange           [cpl]: no
#      |Correlation        [cpl]: no
#      |W interaction is bare   : no
#      |ALDA kernel in R-space  : no
#      |RL vectors    [exchange]:531
#      |RL vectors [correlation]:59
#      |E/h energy range    [ev]:-1.000000 - -1.000000
#      |Coupling range     [o/o]: 100.0000 -  100.0000
#    W |Interaction is diagonal : no
#      |Matrix size             :59
#      |Bands                   :1 - 8
#      |e/h energy range    [ev]:-1.000000 - -1.000000
#      |Poles              [o/o]: 100.0000
#      |RL vectors in the sum   :387
#      |[r,Vnl] included        : yes
#      |Field direction         :0.1000E-4  0.000000  0.000000
#      |Coulomb Cutoff          :none
#      |xc-Kernel               :none
#   RIM|RL components      [col]:0
#      |Random points      [col]:0
#  
#   Haydock|Accuracy (requested) [o/o]:  0.02000
#          |Accuracy (reached)   [o/o]:0.7529E-3
#          |Iteration                 :17
#
#    E/ev[1]      EPS-Im[2]    EPS-Re[3]    EPSo-Im[4]   EPSo-Re[5]   EPS`-Im[6]   EPS`-Re[7]
#
     0.00000      0.00000     35.18193      0.00000     33.16925      0.00000     35.18193
   0.2004E-1    0.1586E-1     35.18       0.1319E-1     33.17       0.1586E-1     35.18   
   0.4008E-1    0.3172E-1     35.19       0.2640E-1     33.17       0.3172E-1     35.19   
     0.06012      0.04761     35.19616      0.03961     33.18110      0.04761     35.19616
     0.08016      0.06352     35.20723      0.05285     33.19032      0.06352     35.20723
     0.10020      0.07948     35.22148      0.06612     33.20218      0.07948     35.22148
     0.12024      0.09548     35.23892      0.07943     33.21671      0.09548     35.23892
     0.14028      0.11155     35.25955      0.09279     33.23388      0.11155     35.25955
     0.16032      0.12769     35.28340      0.10619     33.25371      0.12769     35.28340
     0.18036      0.14390     35.31046      0.11966     33.27625      0.14390     35.31046
     0.20040      0.16021     35.34077      0.13319     33.30145      0.16021     35.34077
     0.22044      0.17663     35.37434      0.14681     33.32937      0.17663     35.37434
     0.24048      0.19315     35.41120      0.16050     33.36001      0.19315     35.41120
     0.26052      0.20980     35.45135      0.17429     33.39340      0.20980     35.45135
     0.28056      0.22658     35.49484      0.18819     33.42953      0.22658     35.49484
     0.30060      0.24352     35.54169      0.20219     33.46845      0.24352     35.54169
     0.32064      0.26061     35.59192      0.21631     33.51018      0.26061     35.59192
     0.34068      0.27787     35.64558      0.23056     33.55472      0.27787     35.64558
     0.36072      0.29532     35.70269      0.24495     33.60214      0.29532     35.70269
     0.38076      0.31296     35.76330      0.25948     33.65244      0.31296     35.76330
     0.40080      0.33081     35.82744      0.27417     33.70563      0.33081     35.82744
     0.42084      0.34889     35.89516      0.28903     33.76178      0.34889     35.89516
     0.44088      0.36720     35.96650      0.30406     33.82090      0.36720     35.96650
     0.46092      0.38576     36.04151      0.31928     33.88305      0.38576     36.04151
     0.48096      0.40459     36.12024      0.33470     33.94821      0.40459     36.12024
     0.50100      0.42370     36.20275      0.35033     34.01650      0.42370     36.20275
     0.52104      0.44311     36.28909      0.36617     34.08791      0.44311     36.28909
     0.54108      0.46283     36.37932      0.38226     34.16251      0.46283     36.37932
     0.56112      0.48288     36.47351      0.39858     34.24031      0.48288     36.47351
     0.58116      0.50329     36.57172      0.41517     34.32141      0.50329     36.57172
     0.60120      0.52406     36.67402      0.43202     34.40583      0.52406     36.67402
     0.62124      0.54522     36.78049      0.44917     34.49363      0.54522     36.78049
     0.64128      0.56678     36.89121      0.46661     34.58487      0.56678     36.89121
     0.66132      0.58877     37.00626      0.48437     34.67962      0.58877     37.00626
     0.68136      0.61122     37.12572      0.50245     34.77792      0.61122     37.12572
     0.70140      0.63413     37.24969      0.52089     34.87986      0.63413     37.24969
     0.72144      0.65755     37.37825      0.53969     34.98550      0.65755     37.37825
     0.74148      0.68149     37.51152      0.55888     35.09491      0.68149     37.51152
     0.76152      0.70597     37.64960      0.57846     35.20819      0.70597     37.64960
     0.78156      0.73104     37.79258      0.59847     35.32538      0.73104     37.79258
     0.80160      0.75671     37.94061      0.61892     35.44660      0.75671     37.94061
     0.82164      0.78301     38.09379      0.63983     35.57194      0.78301     38.09379
     0.84168      0.80999     38.25225      0.66123     35.70145      0.80999     38.25225
     0.86172      0.83767     38.41613      0.68314     35.83529      0.83767     38.41613
     0.88176      0.86610     38.58556      0.70559     35.97351      0.86610     38.58556
     0.90180      0.89530     38.76071      0.72860     36.11624      0.89530     38.76071
     0.92184      0.92532     38.94172      0.75220     36.26360      0.92532     38.94172
     0.94188      0.95620     39.12875      0.77641     36.41568      0.95620     39.12875
     0.96192      0.98799     39.32199      0.80129     36.57265      0.98799     39.32199
     0.98196      1.02074     39.52161      0.82684     36.73461      1.02074     39.52161
     1.00200      1.05449     39.72781      0.85311     36.90170      1.05449     39.72781
     1.02204      1.08930     39.94077      0.88015     37.07406      1.08930     39.94077
     1.04208      1.12523     40.16073      0.90797     37.25185      1.12523     40.16073
     1.06212      1.16234     40.38790      0.93664     37.43523      1.16234     40.38790
     1.08216      1.20069     40.62251      0.96619     37.62437      1.20069     40.62251
     1.10220      1.24036     40.86483      0.99666     37.81942      1.24036     40.86483
     1.12224      1.28141     41.11509      1.02812     38.02063      1.28141     41.11509
     1.14228      1.32394     41.37360      1.06061     38.22810      1.32394     41.37360
     1.16232      1.36802     41.64062      1.09419     38.44213      1.36802     41.64062
     1.18236      1.41375     41.91650      1.12892     38.66288      1.41375     41.91650
     1.20240      1.46122     42.20153      1.16488     38.89060      1.46122     42.20153
     1.22244      1.51054     42.49607      1.20211     39.12553      1.51054     42.49607
     1.24248      1.56183     42.80050      1.24072     39.36795      1.56183     42.80050
     1.26252      1.61520     43.11520      1.28077     39.61806      1.61520     43.11520
     1.28257      1.67079     43.44057      1.32234     39.87623      1.67079     43.44057
     1.30261      1.72874     43.77709      1.36555     40.14275      1.72874     43.77709
     1.32265      1.78921     44.12518      1.41048     40.41788      1.78921     44.12518
     1.34269      1.85236     44.48537      1.45725     40.70201      1.85236     44.48537
     1.36273      1.91838     44.85817      1.50596     40.99550      1.91838     44.85817
     1.38277      1.98746     45.24417      1.55677     41.29876      1.98746     45.24417
     1.40281      2.05982     45.64395      1.60979     41.61215      2.05982     45.64395
     1.42285      2.13569     46.05817      1.66518     41.93615      2.13569     46.05817
     1.44289      2.21533     46.48751      1.72311     42.27118      2.21533     46.48751
     1.46293      2.29902     46.93271      1.78375     42.61782      2.29902     46.93271
     1.48297      2.38707     47.39457      1.84730     42.97656      2.38707     47.39457
     1.50301      2.47982     47.87394      1.91397     43.34792      2.47982     47.87394
     1.52305      2.57763     48.37173      1.98400     43.73259      2.57763     48.37173
     1.54309      2.68092     48.88893      2.05764     44.13116      2.68092     48.88893
     1.56313      2.79015     49.42660      2.13518     44.54441      2.79015     49.42660
     1.58317      2.90582     49.98589      2.21693     44.97304      2.90582     49.98589
     1.60321      3.02848     50.56805      2.30324     45.41785      3.02848     50.56805
     1.62325      3.15877     51.17440      2.39449     45.87985      3.15877     51.17440
     1.64329      3.29738     51.80643      2.49110     46.35979      3.29737     51.80643
     1.66333      3.44508     52.46569      2.59356     46.85885      3.44508     52.46569
     1.68337      3.60276     53.15395      2.70238     47.37814      3.60276     53.15395
     1.70341      3.77140     53.87305      2.81818     47.91882      3.77140     53.87305
     1.72345      3.95210     54.62508      2.94160     48.48226      3.95210     54.62508
     1.74349      4.14612     55.41230      3.07341     49.06987      4.14612     55.41230
     1.76353      4.35488     56.23718      3.21445     49.68324      4.35489     56.23718
     1.78357      4.58004     57.10250      3.36570     50.32415      4.58005     57.10250
     1.80361      4.82350     58.01124      3.52825     50.99442      4.82350     58.01124
     1.82365      5.08742     58.96675      3.70335     51.69614      5.08742     58.96675
     1.84369      5.37431     59.97271      3.89247     52.43169      5.37432     59.97271
     1.86373      5.68710     61.03321      4.09724     53.20354      5.68710     61.03321
     1.88377      6.02918     62.15280      4.31960     54.01451      6.02918     62.15279
     1.90381      6.40452     63.33656      4.56179     54.86774      6.40452     63.33655
     1.92385      6.81784     64.59018      4.82642     55.76674      6.81783     64.59016
     1.94389      7.27469     65.92001      5.11657     56.71535      7.27469     65.92001
     1.96393      7.78173     67.33323      5.43586     57.71791      7.78173     67.33323
     1.98397      8.34694     68.83788      5.78861     58.77930      8.34693     68.83787
     2.00401      8.97995     70.44298      6.17998     59.90502      8.97995     70.44298
     2.02405      9.69252     72.15876      6.61615     61.10112      9.69252     72.15876
     2.04409     10.49903     73.99671      7.10465     62.37455     10.49903     73.99670
     2.06413     11.41730     75.96973      7.65465     63.73309     11.41730     75.96972
     2.08417     12.46951     78.09225      8.27741     65.18551     12.46950     78.09225
     2.10421     13.68355     80.38029      8.98691     66.74160     13.68354     80.38028
     2.12425     15.09481     82.85132      9.80062     68.41237     15.09480     82.85131
     2.14429     16.74859     85.52394     10.74055     70.20982     16.74857     85.52393
     2.16433     18.70347     88.41710     11.83474     72.14714     18.70345     88.41708
     2.18437     21.03578     91.54830     13.11918     74.23804     21.03576     91.54830
     2.20441     23.84587     94.93034     14.64054     76.49632     23.84584     94.93032
     2.22445     27.26635     98.56496     16.45979     78.93401     27.26634     98.56497
      2.2445      31.4731     102.4317      18.6574      81.5585      31.4731     102.4317
      2.2645      36.6981     106.4668      21.3396      84.3670      36.6980     106.4668
      2.2846      43.2423     110.5270      24.6475      87.3364      43.2422     110.5270
      2.3046      51.4794     114.3252      28.7666      90.4051      51.4792     114.3252
      2.3246      61.8282     117.3276      33.9349      93.4406      61.8280     117.3276
      2.3447      74.6411     118.6047      40.4417      96.1847      74.6409     118.6048
      2.3647      89.9112     116.6888      48.5928      98.1663      89.9109     116.6891
      2.3848     106.6998     109.6354      58.5966      98.5866     106.6997     109.6356
      2.4048     122.4318      95.7324      70.2893      96.2361     122.4318      95.7329
      2.4248     132.9313      75.1445      82.6537      89.6476     132.9314      75.1449
      2.4449     134.4185      51.3573      93.3698      77.8360     134.4190      51.3578
      2.4649     126.4893      29.9427      99.2216      61.6267     126.4898      29.9429
      2.4850     112.4894      14.9972      98.0009      44.2816     112.4900      14.9972
     2.50501     96.75740      7.26827     90.37974     29.84671     96.75797      7.26803
     2.52505     82.24441      5.26080     79.30549     20.59578     82.24507      5.26043
     2.54509     70.17415      6.99893     67.76618     16.41458     70.17449      6.99854
     2.56513     60.70054     10.91576     57.50599     15.97490     60.70081     10.91529
     2.58517     53.53523     16.00000     49.11698     17.87730     53.53546     15.99947
     2.60521     48.28910     21.66952     42.56682     21.09698     48.28918     21.66905
     2.62525     44.61163     27.61779     37.59552     24.99823     44.61165     27.61730
     2.64529     42.23189     33.70077     33.91111     29.22386     42.23188     33.70024
     2.66533     40.96046     39.86743     31.26199     33.58958     40.96039     39.86688
     2.68537     40.68140     46.11779     29.45393     38.01188     40.68123     46.11720
     2.70541     41.34369     52.47845     28.34695     42.46428     41.34346     52.47791
     2.72545     42.95677     58.98912     27.84700     46.95181     42.95646     58.98852
     2.74549     45.59069     65.68963     27.89835     51.49741     45.59027     65.68896
     2.76553     49.38218     72.61037     28.47809     56.13361     49.38163     72.60973
     2.78557     54.54605     79.75471     29.59362     60.89814     54.54535     79.75408
     2.80561     61.39316     87.07365     31.28246     65.83075     61.39228     87.07305
     2.82565     70.35094     94.41742     33.61524     70.97015     70.34974     94.41673
      2.8457      81.9813     101.4549      36.7014      76.3495      81.9798     101.4544
      2.8657      96.9704     107.5342      40.6987      81.9894      96.9684     107.5339
      2.8858     116.0344     111.4656      45.8266      87.8838     116.0320     111.4657
      2.9058     139.6175     111.2411      52.3846      93.9773     139.6147     111.2420
      2.9259     167.1854     103.8578      60.7712     100.1208     167.1821     103.8599
      2.9459     196.0276      85.7737      71.4990     105.9962     196.0249      85.7773
      2.9659     220.2534      54.8468      85.1814     110.9889     220.2519      54.8521
      2.9860     232.0637      13.5756     102.4362     113.9902     232.0647      13.5817
      3.0060     226.5846     -29.7623     123.5898     113.1535     226.5880     -29.7572
      3.0261     206.0557     -65.5519     148.0116     105.7771     206.0607     -65.5486
      3.0461     177.8080     -88.8335     173.0416      88.8189     177.8133     -88.8323
      3.0661     148.8530    -100.2819     193.2483      60.7703     148.8579    -100.2823
      3.0862     123.1115    -103.2193     201.9219      24.4570     123.1156    -103.2207
      3.1062     101.8159    -100.9863     195.5041     -12.5020     101.8192    -100.9883
      3.1263      84.7889     -95.9903     176.7069     -42.0559      84.7914     -95.9926
      3.1463      71.3569     -89.7191     152.0936     -60.5845      71.3588     -89.7215
      3.1663      60.7879     -83.0156     127.4615     -69.1246      60.7894     -83.0181
      3.1864      52.4482     -76.3263     105.8628     -70.6478      52.4492     -76.3288
     3.20641     45.83528    -69.86998     88.15575    -67.96358     45.83599    -69.87238
     3.22645     40.56549    -63.73848     74.10311    -63.04423     40.56596    -63.74091
     3.24649     36.35115    -57.95608     63.10546    -57.09147     36.35137    -57.95845
     3.26653     32.97792    -52.51091     54.54053    -50.77778     32.97793    -52.51331
     3.28657     30.28717    -47.37386     47.87962    -44.45429     30.28698    -47.37630
     3.30661     28.16216    -42.50741     42.70895    -38.28769     28.16174    -42.50988
     3.32665     26.51840    -37.87148     38.71684    -32.34250     26.51774    -37.87400
     3.34669     25.29680    -33.42534     35.67408    -26.62779     25.29589    -33.42795
     3.36673     24.45920    -29.12947     33.41581    -21.12344     24.45797    -29.13218
     3.38677     23.98566    -24.94589     31.82706    -15.79445     23.98407    -24.94870
     3.40681     23.87346    -20.83862     30.83265    -10.59877     23.87141    -20.84154
     3.42685     24.13730    -16.77424     30.39071     -5.49155     24.13466    -16.77731
     3.44689     24.81132    -12.72342     30.48919     -0.42769     24.80794    -12.72654
     3.46693     25.95261     -8.66301     31.14502      4.63590     25.94825     -8.66617
     3.48697     27.64671     -4.58140     32.40612      9.73796     27.64108     -4.58439
     3.50701     30.01509     -0.48745     34.35601     14.90866     30.00781     -0.48995
     3.52705     33.22426      3.57260     37.12162     20.16210     33.21495      3.57120
     3.54709     37.49409      7.48537     40.88428     25.48241     37.48230      7.48609
     3.56713     43.09724     11.01879     45.89326     30.79909     43.08291     11.02340
     3.58717     50.33018     13.74001     52.47823     35.94222     50.31443     13.75114
     3.60721     59.41192     14.90387     61.04945     40.56660     59.39805     14.92432
     3.62725     70.23396     13.36197     72.05659     44.02872     70.22883     13.39261
     3.64729     81.90575      7.67265     85.84012     45.21838     81.91812      7.70781
      3.6673      92.2807      -3.2515     102.2638      42.4163      92.3132      -3.2256
      3.6874      98.2050     -18.8656     120.0315      33.4421      98.2468     -18.8625
      3.7074      97.2459     -36.1897     135.9545      16.6068      97.2788     -36.2084
      3.7275      89.6955     -51.1659     145.2788      -7.3628      89.7107     -51.1933
      3.7475      78.3083     -61.2498     144.2503     -34.0485      78.3089     -61.2738
      3.7675      66.1338     -66.3166     133.1929     -57.3097      66.1272     -66.3331
      3.7876      55.0567     -67.6148     116.2111     -73.2135      55.0482     -67.6246
     3.80762     45.76641    -66.56512     97.93622    -81.49416     45.75849    -66.57030
     3.82766     38.27044    -64.24137     81.26489    -84.01116     38.26384    -64.24374
     3.84770     32.31296    -61.32370     67.27452    -82.91708     32.30780    -61.32452
     3.86774     27.58904    -58.20338     55.99374    -79.84896     27.58503    -58.20333
     3.88778     23.82642    -55.09077     47.04200    -75.84725     23.82335    -55.09031
     3.90782     20.80579    -52.09116     39.95931    -71.51183     20.80344    -52.09053
     3.92786     18.35827    -49.25140     34.33343    -67.16603     18.35645    -49.25070
     3.94790     16.35592    -46.58677     29.83196    -62.97227     16.35449    -46.58606
     3.96794     14.70224    -44.09599     26.19864    -59.00331     14.70113    -44.09534
     3.98798     13.32439    -41.76976     23.23941    -55.28344     13.32351    -41.76916
     4.00802     12.16703    -39.59522     20.80812    -51.81153     12.16631    -39.59465
     4.02806     11.18779    -37.55841     18.79450    -48.57402     11.18722    -37.55790
     4.04810     10.35398    -35.64547     17.11487    -45.55177     10.35352    -35.64501
     4.06814      9.64017    -33.84335     15.70537    -42.72382      9.63978    -33.84294
     4.08818      9.02637    -32.13995     14.51678    -40.06923      9.02605    -32.13957
     4.10822      8.49683    -30.52430     13.51103    -37.56822      8.49656    -30.52395
     4.12826      8.03899    -28.98642     12.65840    -35.20242      8.03876    -28.98611
     4.14830      7.64282    -27.51735     11.93558    -32.95494      7.64262    -27.51707
     4.16834      7.30026    -26.10893     11.32423    -30.81038      7.30010    -26.10868
     4.18838      7.00484    -24.75376     10.80994    -28.75469      7.00470    -24.75354
     4.20842      6.75134    -23.44506     10.38141    -26.77493      6.75122    -23.44486
     4.22846      6.53560    -22.17665     10.02988    -24.85918      6.53549    -22.17645
     4.24850      6.35431    -20.94274      9.74869    -22.99632      6.35421    -20.94256
     4.26854      6.20490    -19.73793      9.53297    -21.17587      6.20481    -19.73776
     4.28858      6.08545    -18.55711      9.37945    -19.38782      6.08537    -18.55695
     4.30862      5.99459    -17.39539      9.28630    -17.62248      5.99452    -17.39526
     4.32866      5.93148    -16.24806      9.25308    -15.87032      5.93141    -16.24793
     4.34870      5.89575    -15.11044      9.28071    -14.12185      5.89569    -15.11034
     4.36874      5.88756    -13.97791      9.37159    -12.36742      5.88750    -13.97781
     4.38878      5.90751    -12.84582      9.52969    -10.59713      5.90745    -12.84573
     4.40882      5.95676    -11.70941      9.76077     -8.80062      5.95671    -11.70932
     4.42886      6.03703    -10.56372     10.07274     -6.96701      6.03698    -10.56364
     4.44890      6.15070     -9.40355     10.47608     -5.08463      6.15064     -9.40349
     4.46894      6.30087     -8.22346     10.98448     -3.14100      6.30081     -8.22340
     4.48898      6.49155     -7.01754     11.61565     -1.12265      6.49149     -7.01749
     4.50902      6.72782     -5.77943     12.39254      0.98477      6.72775     -5.77939
     4.52906      7.01609     -4.50214     13.34492      3.19668      7.01601     -4.50211
     4.54910      7.36438     -3.17808     14.51147      5.52878      7.36430     -3.17806
     4.56914      7.78284     -1.79884     15.94287      7.99648      7.78274     -1.79885
     4.58918      8.28423     -0.35518     17.70586     10.61304      8.28412     -0.35519
     4.60922      8.88477      1.16304     19.88878     13.38622      8.88465      1.16301
     4.62926      9.60515      2.76681     22.60911     16.31210      9.60500      2.76677
     4.64930     10.47198      4.46790     26.02289     19.36362     10.47180      4.46784
     4.66934     11.51974      6.27835     30.33575     22.47018     11.51952      6.27827
     4.68938     12.79342      8.20959     35.81200     25.48137     12.79316      8.20952
     4.70942     14.35225     10.27077     42.77234     28.10538     14.35191     10.27067
     4.72946     16.27457     12.46531     51.55510     29.81136     16.27414     12.46518
     4.74950     18.66451     14.78497     62.38680     29.70133     18.66397     14.78486
     4.76954     21.66000     17.19862     75.07339     26.41971     21.65931     17.19853
     4.78958     25.44175     19.63246     88.46174     18.32956     25.44083     19.63240
     4.80962     30.23877     21.93517     99.94477      4.34766     30.23759     21.93523
      4.8297      36.3206      23.8199     105.9361     -14.5729      36.3191      23.8202
      4.8497      43.9486      24.7756     104.0076     -34.7734      43.9468      24.7763
     4.86974     53.23480     23.96303     94.95181    -51.76476     53.23259     23.96452
     4.88978     63.83196     20.18143     82.06306    -63.06152     63.82984     20.18402
     4.90982     74.46418     12.14378     68.64801    -68.82806     74.46267     12.14776
     4.92986     82.67076     -0.64051     56.62020    -70.55950     82.67075     -0.63539
     4.94990     85.61525    -16.68725     46.61585    -69.81883     85.61746    -16.68197
     4.96994     82.05655    -32.57173     38.58284    -67.75062     82.06080    -32.56760
     4.98998     73.45313    -44.98042     32.21794    -65.06882     73.45836    -44.97828
     5.01002     62.67918    -52.63263     27.18155    -62.18087     62.68440    -52.63227
     5.03006     52.10133    -56.14040     23.17652    -59.30484     52.10593    -56.14135
     5.05010     42.89508    -56.80861     19.96561    -56.54948     42.89885    -56.81039
     5.07014     35.34900    -55.81046     17.36670    -53.96284     35.35205    -55.81268
     5.09018     29.32863    -53.95282     15.24209    -51.56051     29.33098    -53.95521
     5.11022     24.56771    -51.72267     13.48807    -49.34098     24.56953    -51.72512
     5.13026     20.79924    -49.39200     12.02622    -47.29459     20.80063    -49.39445
     5.15030     17.79836    -47.10349     10.79701    -45.40801     17.79942    -47.10591
     5.17034     15.38847    -44.92623      9.75481    -43.66701     15.38925    -44.92860
     5.19038     13.43489    -42.88888      8.86438    -42.05743     13.43545    -42.89121
     5.21042     11.83614    -40.99856      8.09828    -40.56620     11.83649    -41.00085
     5.23046     10.51578    -39.25134      7.43494    -39.18117     10.51595    -39.25362
     5.25050      9.41612    -37.63810      6.85730    -37.89156      9.41612    -37.64037
     5.27054      8.49333    -36.14753      6.35178    -36.68770      8.49317    -36.14983
     5.29058      7.71395    -34.76796      5.90750    -35.56090      7.71362    -34.77029
     5.31062      7.05231    -33.48805      5.51576    -34.50360      7.05180    -33.49041
     5.33066      6.48864    -32.29726      5.16956    -33.50903      6.48792    -32.29969
     5.35070      6.00781    -31.18607      4.86337    -32.57127      6.00685    -31.18858
     5.37074      5.59829    -30.14591      4.59286    -31.68506      5.59705    -30.14851
     5.39078      5.25164    -29.16936      4.35482    -30.84595      5.25004    -29.17205
     5.41082      4.96199    -28.25013      4.14701    -30.05026      4.95995    -28.25290
     5.43086      4.72584    -27.38329      3.96815    -29.29523      4.72324    -27.38610
     5.45090      4.54197    -26.56569      3.81781    -28.57940      4.53864    -26.56847
     5.47094      4.41121    -25.79681      3.69612    -27.90314      4.40696    -25.79940
     5.49098      4.33597    -25.08013      3.60297    -27.26948      4.33059    -25.08223
     5.51102      4.31864    -24.42524      3.53606    -26.68480      4.31198    -24.42635
     5.53106      4.35753    -23.85009      3.48747    -26.15805      4.34965    -23.84943
     5.55110      4.43866    -23.38074      3.43983    -25.69584      4.43018    -23.37734
     5.57114      4.52488    -23.04241      3.36804    -25.29279      4.51724    -23.03558
     5.59118      4.55344    -22.83617      3.25220    -24.92490      4.54869    -22.82634
     5.61122      4.46175    -22.71437      3.09322    -24.55968      4.46134    -22.70356
     5.63126      4.23344    -22.59221      2.91120    -24.17596      4.23701    -22.58292
     5.65130      3.91203    -22.40004      2.72896    -23.77131      3.91780    -22.39367
     5.67134      3.56299    -22.11834      2.56056    -23.35404      3.56919    -22.11485
     5.69138      3.23395    -21.76568      2.41094    -22.93406      3.23955    -21.76429
     5.71142      2.94570    -21.37112      2.27979    -22.51874      2.95036    -21.37103
     5.73146      2.70131    -20.95871      2.16479    -22.11249      2.70503    -20.95933
     5.75150      2.49604    -20.54412      2.06325    -21.71755      2.49897    -20.54509
     5.77154      2.32316    -20.13630      1.97279    -21.33486      2.32545    -20.13741
     5.79158      2.17627    -19.73983      1.89143    -20.96456      2.17808    -19.74096
     5.81162      2.05009    -19.35673      1.81762    -20.60640      2.05152    -19.35783
     5.83166      1.94045    -18.98761      1.75015    -20.25996      1.94160    -18.98866
     5.85170      1.84416    -18.63234      1.68807    -19.92468      1.84509    -18.63332
     5.87174      1.75875    -18.29039      1.63063    -19.59999      1.75951    -18.29129
     5.89178      1.68234    -17.96106      1.57725    -19.28533      1.68295    -17.96190
     5.91182      1.61344    -17.64360      1.52743    -18.98019      1.61395    -17.64438
     5.93186      1.55093    -17.33727      1.48079    -18.68404      1.55135    -17.33799
     5.95190      1.49389    -17.04133      1.43700    -18.39639      1.49424    -17.04200
     5.97194      1.44159    -16.75509      1.39580    -18.11681      1.44189    -16.75573
     5.99198      1.39346    -16.47794      1.35696    -17.84489      1.39372    -16.47853
     6.01202      1.34903    -16.20926      1.32028    -17.58022      1.34924    -16.20982
     6.03206      1.30789    -15.94851      1.28562    -17.32242      1.30808    -15.94904
     6.05210      1.26975    -15.69518      1.25281    -17.07115      1.26990    -15.69568
     6.07214      1.23433    -15.44879      1.22176    -16.82611      1.23446    -15.44927
     6.09218      1.20142    -15.20890      1.19236    -16.58695      1.20152    -15.20937
     6.11222      1.17084    -14.97509      1.16452    -16.35340      1.17093    -14.97554
     6.13226      1.14245    -14.74697      1.13818    -16.12517      1.14252    -14.74740
     6.15230      1.11614    -14.52415      1.11328    -15.90200      1.11620    -14.52458
     6.17234      1.09183    -14.30630      1.08977    -15.68362      1.09187    -14.30671
     6.19238      1.06945    -14.09305      1.06764    -15.46978      1.06948    -14.09346
     6.21242      1.04899    -13.88407      1.04686    -15.26025      1.04901    -13.88448
     6.23246      1.03044    -13.67903      1.02745    -15.05476      1.03044    -13.67943
     6.25250      1.01382    -13.47760      1.00942    -14.85310      1.01381    -13.47801
     6.27254      0.99920    -13.27946      0.99282    -14.65500      0.99918    -13.27987
     6.29258      0.98667    -13.08428      0.97771    -14.46025      0.98664    -13.08469
     6.31262      0.97639    -12.89171      0.96419    -14.26861      0.97634    -12.89213
     6.33266      0.96856    -12.70142      0.95239    -14.07983      0.96849    -12.70184
     6.35271      0.96343    -12.51304      0.94252    -13.89364      0.96335    -12.51347
     6.37275      0.96139    -12.32620      0.93481    -13.70982      0.96128    -12.32665
     6.39279      0.96289    -12.14051      0.92960    -13.52810      0.96275    -12.14097
     6.41283      0.96856    -11.95559      0.92733    -13.34823      0.96840    -11.95607
     6.43287      0.97923    -11.77103      0.92860    -13.17000      0.97903    -11.77153
     6.45291      0.99599    -11.58648      0.93420    -12.99322      0.99574    -11.58700
     6.47295      1.02027    -11.40163      0.94519    -12.81784      1.01997    -11.40218
     6.49299      1.05401    -11.21635      0.96299    -12.64399      1.05363    -11.21692
     6.51303      1.09977    -11.03082      0.98947    -12.47220      1.09929    -11.03141
     6.53307      1.16095    -10.84583      1.02706    -12.30371      1.16036    -10.84644
     6.55311      1.24201    -10.66331      1.07873    -12.14102      1.24126    -10.66392
     6.57315      1.34854    -10.48723      1.14771    -11.98879      1.34759    -10.48781
     6.59319      1.48698    -10.32509      1.23636    -11.85499      1.48578    -10.32558
     6.61323      1.66316    -10.19015      1.34350    -11.75196      1.66169    -10.19042
     6.63327      1.87839    -10.10378      1.45952    -11.69509      1.87664    -10.10369
     6.65331      2.12127    -10.09549      1.56129    -11.69588      2.11937    -10.09481
     6.67335      2.35646    -10.19412      1.61506    -11.74809      2.35472    -10.19272
     6.69339      2.52172    -10.40438      1.59523    -11.81947      2.52057    -10.40232
     6.71343      2.55331    -10.68102      1.50557    -11.86673      2.55307    -10.67871
     6.73347      2.43349    -10.93906      1.37578    -11.86323      2.43410    -10.93704
     6.75351      2.20658    -11.10703      1.23823    -11.80807      2.20768    -11.10561
     6.77355      1.94099    -11.16464      1.11272    -11.71468      1.94220    -11.16381
     6.79359      1.68753    -11.13150      1.00640    -11.59814      1.68864    -11.13111
     6.81363      1.46915    -11.03875      0.91924    -11.46977      1.47007    -11.03864
     6.83367      1.29006    -10.91255      0.84851    -11.33672      1.29079    -10.91259
     6.85371      1.14609    -10.77031      0.79095    -11.20309      1.14667    -10.77044
     6.87375      1.03081    -10.62236      0.74368    -11.07106      1.03126    -10.62252
     6.89379      0.93805    -10.47437      0.70438    -10.94171      0.93840    -10.47453
     6.91383      0.86271    -10.32926      0.67125    -10.81553      0.86299    -10.32943
     6.93387      0.80081    -10.18841      0.64293    -10.69262      0.80103    -10.18857
     6.95391      0.74934    -10.05235      0.61841    -10.57298      0.74951    -10.05250
     6.97395      0.70599     -9.92114      0.59691    -10.45647      0.70614     -9.92127
     6.99399      0.66906     -9.79464      0.57784    -10.34294      0.66918     -9.79476
     7.01403      0.63724     -9.67258      0.56075    -10.23221      0.63733     -9.67268
     7.03407      0.60952     -9.55467      0.54529    -10.12414      0.60960     -9.55477
     7.05411      0.58514     -9.44062      0.53118    -10.01854      0.58521     -9.44070
    7.074148     0.563506    -9.330126     0.518216    -9.915285     0.563563    -9.330205
    7.094188     0.544141    -9.222929     0.506214    -9.814238     0.544190    -9.223001
    7.114228     0.526677    -9.118790     0.495042    -9.715283     0.526719    -9.118856
    7.134268     0.510816    -9.017487     0.484585    -9.618307     0.510851    -9.017545
    7.154308     0.496318    -8.918821     0.474752    -9.523206     0.496349    -8.918878
    7.174349     0.482989    -8.822618     0.465467    -9.429902     0.483016    -8.822670
    7.194388     0.470670    -8.728724     0.456668    -9.338305     0.470693    -8.728769
    7.214429     0.459228    -8.636986     0.448301    -9.248334     0.459249    -8.637029
    7.234468     0.448555    -8.547290     0.440322    -9.159931     0.448573    -8.547328
    7.254509     0.438559    -8.459509     0.432693    -9.073030     0.438575    -8.459544
    7.274549     0.429162    -8.373546     0.425381    -8.987573     0.429177    -8.373582
    7.294589     0.420301    -8.289308     0.418361    -8.903506     0.420313    -8.289338
    7.314629     0.411918    -8.206700     0.411605    -8.820778     0.411929    -8.206733
    7.334669     0.403966    -8.125659     0.405095    -8.739348     0.403976    -8.125688
    7.354709     0.396404    -8.046099     0.398811    -8.659172     0.396413    -8.046125
    7.374749     0.389197    -7.967963     0.392738    -8.580201     0.389205    -7.967988
    7.394789     0.382313    -7.891188     0.386862    -8.502407     0.382320    -7.891211
    7.414829     0.375726    -7.815718     0.381169    -8.425753     0.375732    -7.815742
    7.434869     0.369411    -7.741502     0.375648    -8.350203     0.369417    -7.741523
    7.454909     0.363348    -7.668493     0.370290    -8.275729     0.363354    -7.668514
    7.474950     0.357518    -7.596644     0.365086    -8.202299     0.357523    -7.596664
    7.494989     0.351906    -7.525918     0.360027    -8.129885     0.351910    -7.525935
    7.515030     0.346495    -7.456269     0.355105    -8.058451     0.346499    -7.456286
    7.535069     0.341273    -7.387667     0.350315    -7.987985     0.341277    -7.387683
    7.555110     0.336229    -7.320071     0.345649    -7.918452     0.336232    -7.320086
    7.575150     0.331351    -7.253456     0.341103    -7.849837     0.331354    -7.253470
    7.595191     0.326630    -7.187782     0.336671    -7.782112     0.326633    -7.187799
    7.615230     0.322058    -7.123029     0.332349    -7.715260     0.322061    -7.123044
    7.635271     0.317626    -7.059162     0.328131    -7.649256     0.317629    -7.059176
    7.655310     0.313328    -6.996163     0.324015    -7.584075     0.313330    -6.996177
    7.675351     0.309157    -6.933999     0.319997    -7.519702     0.309159    -6.934012
    7.695390     0.305107    -6.872651     0.316072    -7.456132     0.305109    -6.872663
    7.715430     0.301173    -6.812094     0.312239    -7.393326     0.301174    -6.812106
    7.735471     0.297349    -6.752302     0.308493    -7.331272     0.297350    -6.752315
    7.755510     0.293631    -6.693263     0.304832    -7.269958     0.293633    -6.693275
    7.775551     0.290016    -6.634951     0.301254    -7.209365     0.290017    -6.634962
    7.795590     0.286498    -6.577345     0.297757    -7.149476     0.286500    -6.577357
    7.815631     0.283075    -6.520430     0.294337    -7.090278     0.283077    -6.520441
    7.835670     0.279744    -6.464189     0.290994    -7.031756     0.279745    -6.464200
    7.855711     0.276501    -6.408599     0.287724    -6.973893     0.276502    -6.408608
    7.875751     0.273343    -6.353647     0.284527    -6.916673     0.273344    -6.353657
    7.895792     0.270269    -6.299314     0.281401    -6.860083     0.270270    -6.299325
    7.915831     0.267275    -6.245588     0.278343    -6.804111     0.267276    -6.245598
    7.935872     0.264360    -6.192449     0.275354    -6.748745     0.264361    -6.192458
    7.955911     0.261523    -6.139883     0.272431    -6.693964     0.261523    -6.139894
    7.975952     0.258760    -6.087874     0.269573    -6.639766     0.258760    -6.087885
    7.995991     0.256070    -6.036412     0.266780    -6.586134     0.256070    -6.036421
    8.016032     0.253453    -5.985476     0.264050    -6.533051     0.253453    -5.985487
    8.036072     0.250906    -5.935060     0.261383    -6.480507     0.250906    -5.935069
    8.056112     0.248430    -5.885142     0.258778    -6.428491     0.248430    -5.885152
    8.076152     0.246022    -5.835714     0.256234    -6.376990     0.246022    -5.835724
    8.096192     0.243682    -5.786758     0.253750    -6.325987     0.243682    -5.786768
    8.116232     0.241410    -5.738266     0.251327    -6.275484     0.241410    -5.738277
    8.136271     0.239205    -5.690221     0.248964    -6.225452     0.239205    -5.690232
    8.156312     0.237066    -5.642611     0.246661    -6.175892     0.237066    -5.642620
    8.176352     0.234994    -5.595422     0.244418    -6.126787     0.234994    -5.595432
    8.196392     0.232988    -5.548641     0.242235    -6.078124     0.232988    -5.548652
    8.216433     0.231049    -5.502260     0.240113    -6.029898     0.231049    -5.502270
    8.236473     0.229177    -5.456257     0.238051    -5.982085     0.229176    -5.456267
    8.256513     0.227373    -5.410625     0.236050    -5.934687     0.227372    -5.410636
    8.276553     0.225636    -5.365348     0.234112    -5.887679     0.225635    -5.365359
    8.296593     0.223969    -5.320415     0.232236    -5.841059     0.223968    -5.320428
    8.316633     0.222372    -5.275813     0.230425    -5.794811     0.222371    -5.275824
    8.336673     0.220847    -5.231525     0.228680    -5.748925     0.220846    -5.231536
    8.356713     0.219395    -5.187537     0.227002    -5.703376     0.219394    -5.187549
    8.376753     0.218019    -5.143838     0.225393    -5.658166     0.218017    -5.143851
    8.396793     0.216720    -5.100410     0.223856    -5.613275     0.216718    -5.100422
    8.416833     0.215501    -5.057241     0.222393    -5.568689     0.215499    -5.057253
    8.436873     0.214366    -5.014310     0.221007    -5.524393     0.214364    -5.014323
    8.456913     0.213317    -4.971607     0.219703    -5.480375     0.213315    -4.971622
    8.476954     0.212359    -4.929112     0.218482    -5.436616     0.212356    -4.929125
    8.496993     0.211495    -4.886807     0.217351    -5.393101     0.211493    -4.886821
    8.517034     0.210732    -4.844674     0.216315    -5.349812     0.210729    -4.844689
    8.537074     0.210075    -4.802695     0.215379    -5.306735     0.210072    -4.802711
    8.557114     0.209530    -4.760849     0.214550    -5.263847     0.209526    -4.760865
    8.577154     0.209104    -4.719111     0.213836    -5.221125     0.209100    -4.719128
    8.597194     0.208807    -4.677463     0.213247    -5.178556     0.208803    -4.677481
    8.617234     0.208647    -4.635876     0.212793    -5.136106     0.208642    -4.635895
    8.637274     0.208635    -4.594330     0.212485    -5.093759     0.208630    -4.594349
    8.657314     0.208784    -4.552791     0.212337    -5.051480     0.208779    -4.552811
    8.677354     0.209108    -4.511232     0.212366    -5.009243     0.209102    -4.511253
    8.697394     0.209623    -4.469616     0.212590    -4.967015     0.209616    -4.469639
    8.717434     0.210347    -4.427914     0.213031    -4.924768     0.210340    -4.427938
    8.737474     0.211302    -4.386082     0.213715    -4.882456     0.211294    -4.386108
    8.757514     0.212513    -4.344082     0.214670    -4.840034     0.212503    -4.344109
    8.777555     0.214007    -4.301862     0.215934    -4.797460     0.213997    -4.301891
    8.797595     0.215819    -4.259377     0.217546    -4.754678     0.215807    -4.259408
    8.817636     0.217986    -4.216565     0.219558    -4.711636     0.217973    -4.216599
    8.837675     0.220555    -4.173369     0.222030    -4.668262     0.220540    -4.173404
    8.857716     0.223579    -4.129713     0.225034    -4.624484     0.223562    -4.129751
    8.877755     0.227122    -4.085527     0.228656    -4.580223     0.227102    -4.085567
    8.897796     0.231258    -4.040717     0.233005    -4.535387     0.231235    -4.040761
    8.917835     0.236077    -3.995190     0.238213    -4.489859     0.236052    -3.995239
    8.937876     0.241689    -3.948835     0.244442    -4.443535     0.241660    -3.948887
    8.957915     0.248224    -3.901531     0.251896    -4.396290     0.248191    -3.901588
    8.977956     0.255843    -3.853135     0.260833    -4.347961     0.255804    -3.853198
    8.997995     0.264741    -3.803495     0.271579    -4.298405     0.264696    -3.803564
    9.018035     0.275161    -3.752433     0.284551    -4.247435     0.275108    -3.752508
    9.038075     0.287407    -3.699746     0.300292    -4.194891     0.287343    -3.699829
    9.058115     0.301856    -3.645221     0.319507    -4.140606     0.301781    -3.645313
    9.078156     0.318991    -3.588609     0.343124    -4.084457     0.318901    -3.588710
    9.098196     0.339427    -3.529653     0.372370    -4.026417     0.339318    -3.529765
    9.118237     0.363958    -3.468074     0.408878    -3.966647     0.363825    -3.468198
    9.138276     0.393616    -3.403617     0.454802    -3.905701     0.393452    -3.403754
    9.158317     0.429757    -3.336061     0.512962    -3.844809     0.429553    -3.336210
    9.178356     0.474169    -3.265316     0.586894    -3.786494     0.473914    -3.265477
    9.198397     0.529231    -3.191535     0.680696    -3.735455     0.528910    -3.191703
    9.218436     0.598088    -3.115381     0.798128    -3.700000     0.597678    -3.115548
    9.238477     0.684876    -3.038437     0.940215    -3.693544     0.684350    -3.038587
    9.258516     0.794852    -2.964004     1.100135    -3.734727     0.794178    -2.964104
    9.278557     0.934296    -2.898362     1.256132    -3.842142     0.933436    -2.898356
    9.298596     1.109498    -2.852801     1.369152    -4.019705     1.108426    -2.852590
    9.318637     1.323820    -2.846061     1.398232    -4.239988     1.322549    -2.845491
    9.338676     1.570894    -2.905541     1.330632    -4.449450     1.569547    -2.904412
    9.358717     1.823858    -3.062098     1.193330    -4.601834     1.822730    -3.060247
    9.378757     2.027734    -3.331057     1.029807    -4.683032     2.027295    -3.328542
    9.398798     2.114621    -3.683918     0.872975    -4.704945     2.115268    -3.681181
    9.418838     2.048455    -4.043594     0.738010    -4.687361     2.050169    -4.041295
    9.438877     1.856654    -4.328627     0.627884    -4.647120     1.858983    -4.327208
    9.458918     1.605630    -4.502392     0.540072    -4.595486     1.608048    -4.501876
    9.478957     1.354094    -4.575395     0.470512    -4.539193     1.356269    -4.575559
    9.498998     1.132924    -4.577772     0.415269    -4.481943     1.134736    -4.578361
    9.519037     0.950809    -4.538018     0.371088    -4.425679     0.952259    -4.538836
    9.539078     0.805302    -4.476166     0.335419    -4.371310     0.806445    -4.477091
    9.559117     0.690307    -4.404449     0.306330    -4.319207     0.691200    -4.405410
    9.579158     0.599460    -4.329739     0.282361    -4.269444     0.600156    -4.330701
    9.599197     0.527349    -4.255675     0.262414    -4.221953     0.527888    -4.256619
    9.619238     0.469694    -4.184021     0.245657    -4.176576     0.470109    -4.184942
    9.639277     0.423240    -4.115529     0.231458    -4.133154     0.423554    -4.116426
    9.659318     0.385534    -4.050387     0.219333    -4.091506     0.385764    -4.051264
    9.679358     0.354744    -3.988512     0.208907    -4.051464     0.354903    -3.989372
    9.699399     0.329499    -3.929669     0.199889    -4.012872     0.329594    -3.930518
    9.719439     0.308778    -3.873577     0.192056    -3.975588     0.308814    -3.874419
    9.739479     0.291821    -3.819925     0.185230    -3.939484     0.291799    -3.820767
    9.759519     0.278073    -3.768418     0.179278    -3.904443     0.277992    -3.769266
    9.779559     0.267141    -3.718768     0.174097    -3.870360     0.266999    -3.719626
    9.799599     0.258773    -3.670712     0.169615    -3.837154     0.258562    -3.671589
    9.819639     0.252836    -3.624014     0.165785    -3.804738     0.252546    -3.624912
    9.839679     0.249319    -3.578472     0.162585    -3.773052     0.248936    -3.579395
    9.859718     0.248335    -3.533928     0.160021    -3.742041     0.247837    -3.534879
    9.879759     0.250139    -3.490294     0.158127    -3.711695     0.249498    -3.491270
    9.899798     0.255151    -3.447607     0.156967    -3.682015     0.254329    -3.448598
    9.919839     0.263979    -3.406100     0.156630    -3.653090     0.262927    -3.407084
    9.939879     0.277428    -3.366369     0.157214    -3.625102     0.276086    -3.367293
    9.959920     0.296437    -3.329601     0.158766    -3.598373     0.294740    -3.330377
    9.979959     0.321809    -3.297948     0.161153    -3.573413     0.319709    -3.298416
    10.00000      0.35353     -3.27486      0.16385     -3.55081      0.35105     -3.27479
# 
# 01/04/2018 at 13:46 YAMBO_RT @ narro [start]
# 01/04/2018 at 13:46                  [end]
#  
# Timing   [Min/Max/Average]: 02s/02s/02s
#
# .-Input file : yambo.in
# | optics                         # [R OPT] Optics
# | bse                            # [R BSE] Bethe Salpeter Equation.
# | bsk                            # [R BSK] Bethe Salpeter Equation kernel
# | bss                            # [R BSS] Bethe Salpeter Equation solver
# | em1s                           # [R Xs] Static Inverse Dielectric Matrix
# | BoseTemp= 0.000000     eV      # Bosonic Temperature
# | FFTGvecs=  387         RL      # [FFT] Plane-waves
# | Chimod= "hartree"              # [X] IP/Hartree/ALDA/LRC/BSfxc
# | BSEmod= "retarded"             # [BSE] resonant/retarded/coupling
# | BSKmod= "SEX"                  # [BSE] IP/Hartree/HF/ALDA/SEX/BSfxc
# | BSSmod= "h"                    # [BSS] (h)aydock/(d)iagonalization/(i)nversion/(t)ddft`
# | BSENGexx=  531         RL      # [BSK] Exchange components
# | BSENGBlk=  59          RL      # [BSK] Screened interaction block size
# | #WehCpl                        # [BSK] eh interaction included also in coupling
# | KfnQPdb= "E < 08_ypp_gw_10fs_part2/ndb.QP_merged_1_gw_ppa_gw_ppa" # [EXTQP BSK BSS] Database
# | KfnRTdb= "f @ 0.1 ps < 04_elel+elph_0K/ndb.RT_carriers" # [EXTRT BSK BSS] Database
# | RfnRTdb= "f @ 0.1 ps < 04_elel+elph_0K/ndb.RT_carriers" # [EXTRT R] Database
# | % BEnRange
# |   0.00000 | 10.00000 | eV      # [BSS] Energy range
# | %
# | % BDmRange
# |   0.10000 |  0.10000 | eV      # [BSS] Damping range
# | %
# | BEnSteps=  500                 # [BSS] Energy steps
# | % BLongDir
# | 0.1000E-4 | 0.000    | 0.000    |        # [BSS] [cc] Electric Field
# | %
# | % BSEBands
# |   2 |  7 |                     # [BSK] Bands range
# | %
# | BSHayTrs=  0.02000             # [BSS] Relative [o/o] Haydock treshold. Strict(>0)/Average(<0)
# | XfnRTdb= "f @ 0.1 ps < 04_elel+elph_0K/ndb.RT_carriers" # [EXTRT Xd] Database
# | % BndsRnXs
# |   1 |  8 |                     # [Xs] Polarization function bands
# | %
# | NGsBlkXs=  59          RL      # [Xs] Response block size
# | GrFnTpXs= "R"                  # [Xs] Green`s function (T)ordered,(R)etarded,(r)senant,(a)ntiresonant [T, R, r, Ta, Ra]
# | % DmRngeXs
# |   0.10000 |  0.10000 | eV      # [Xs] Damping range
# | %
# | % LongDrXs
# | 0.1000E-4 | 0.000    | 0.000    |        # [Xs] [cc] Electric Field
# | %
