#  __      __   ______   __       __  _______    ______     
# |  \    /  \ /      \ |  \     /  \|       \  /      \    
#  \$$\  /  $$|  $$$$$$\| $$\   /  $$| $$$$$$$\|  $$$$$$\   
#   \$$\/  $$ | $$__| $$| $$$\ /  $$$| $$__/ $$| $$  | $$   
#    \$$  $$  | $$    $$| $$$$\  $$$$| $$    $$| $$  | $$   
#     \$$$$   | $$$$$$$$| $$\$$ $$ $$| $$$$$$$\| $$  | $$   
#     | $$    | $$  | $$| $$ \$$$| $$| $$__/ $$| $$__/ $$   
#     | $$    | $$  | $$| $$  \$ | $$| $$    $$ \$$    $$   
#      \$$     \$$   \$$ \$$      \$$ \$$$$$$$   \$$$$$$    
#                                                           
#        Version 4.3.0 Revision 15201 Hash 76636f9          
#                      MPI+SLK Build                        
#                http://www.yambo-code.org                  
#
# EELS @ Q(1)  [q->0 direction]:0.1000E-4  0.000     0.000   
#
#
# - Energies      are  E < 08_gw_eq/ndb.QP + E Fit
# - Wavefunctions are Slater exchange(X)+Perdew & Zunger(C)
#
# - The Green`s function is Retarded -
# - Using the Length Gauge -
# - [r,Vnl] *is* included -
#
#   BSK|Identifier              :8030
#      |Dimension               :100
#      |Bands                   :2 - 7
#      |Exchange           [res]: yes
#      |Correlation        [res]: yes
#      |Kernel`s coupling       : no
#      |Exchange           [cpl]: no
#      |Correlation        [cpl]: no
#      |W interaction is bare   : no
#      |ALDA kernel in R-space  : no
#      |RL vectors    [exchange]:531
#      |RL vectors [correlation]:59
#      |E/h energy range    [ev]:-1.000000 - -1.000000
#      |Coupling range     [o/o]: 100.0000 -  100.0000
#    W |Interaction is diagonal : no
#      |Matrix size             :59
#      |Bands                   :1 - 8
#      |e/h energy range    [ev]:-1.000000 - -1.000000
#      |Poles              [o/o]: 100.0000
#      |RL vectors in the sum   :387
#      |[r,Vnl] included        : yes
#      |Field direction         :0.1000E-4  0.000000  0.000000
#      |Coulomb Cutoff          :none
#      |xc-Kernel               :none
#   RIM|RL components      [col]:0
#      |Random points      [col]:0
#  
#   Haydock|Accuracy (requested) [o/o]:  0.02000
#          |Accuracy (reached)   [o/o]:   0.0037
#          |Iteration                 :24
#
#    E/ev[1]      EEL-Im[2]    EEL-Re[3]    EELo-Im[4]   EELo-Re[5]   EEL`-Im[6]   EEL`-Re[7]
#
     0.00000     -0.00000     -0.03440     -0.00000     -0.04064     -0.00000     -0.03440
   0.2004E-1    0.9637E-5    -.3439E-1    0.8029E-5    -.4064E-1    0.9637E-5    -.3439E-1
   0.4008E-1    0.1927E-4    -.3439E-1    0.1606E-4    -.4064E-1    0.1927E-4    -.3439E-1
   0.6012E-1    0.2891E-4    -.3439E-1    0.2409E-4    -.4064E-1    0.2891E-4    -.3439E-1
   0.8016E-1    0.3855E-4    -.3438E-1    0.3212E-4    -.4063E-1    0.3855E-4    -.3438E-1
   0.1002       0.4819E-4    -.3437E-1    0.4015E-4    -.4062E-1    0.4819E-4    -.3437E-1
   0.1202       0.5783E-4    -.3436E-1    0.4818E-4    -.4062E-1    0.5783E-4    -.3436E-1
   0.1403       0.6747E-4    -.3435E-1    0.5622E-4    -.4060E-1    0.6747E-4    -.3435E-1
   0.1603       0.7711E-4    -.3433E-1    0.6425E-4    -.4059E-1    0.7711E-4    -.3433E-1
   0.1804       0.8676E-4    -.3432E-1    0.7229E-4    -.4058E-1    0.8676E-4    -.3432E-1
   0.2004       0.9641E-4    -.3430E-1    0.8033E-4    -.4056E-1    0.9641E-4    -.3430E-1
   0.2204       0.1061E-3    -.3428E-1    0.8837E-4    -.4055E-1    0.1061E-3    -.3428E-1
   0.2405       0.1157E-3    -.3426E-1    0.9641E-4    -.4053E-1    0.1157E-3    -.3426E-1
   0.2605       0.1254E-3    -.3423E-1    0.1045E-3    -.4051E-1    0.1254E-3    -.3423E-1
   0.2806       0.1350E-3    -.3421E-1    0.1125E-3    -.4049E-1    0.1350E-3    -.3421E-1
   0.3006       0.1447E-3    -.3418E-1    0.1206E-3    -.4046E-1    0.1447E-3    -.3418E-1
   0.3206       0.1544E-3    -.3415E-1    0.1286E-3    -.4044E-1    0.1544E-3    -.3415E-1
   0.3407       0.1640E-3    -.3412E-1    0.1367E-3    -.4041E-1    0.1640E-3    -.3412E-1
   0.3607       0.1737E-3    -.3408E-1    0.1447E-3    -.4038E-1    0.1737E-3    -.3408E-1
   0.3808       0.1834E-3    -.3405E-1    0.1528E-3    -.4035E-1    0.1834E-3    -.3405E-1
   0.4008       0.1931E-3    -.3401E-1    0.1609E-3    -.4032E-1    0.1931E-3    -.3401E-1
   0.4208       0.2028E-3    -.3397E-1    0.1689E-3    -.4029E-1    0.2028E-3    -.3397E-1
   0.4409       0.2125E-3    -.3393E-1    0.1770E-3    -.4025E-1    0.2125E-3    -.3393E-1
   0.4609       0.2222E-3    -.3388E-1    0.1851E-3    -.4022E-1    0.2222E-3    -.3388E-1
   0.4810       0.2319E-3    -.3384E-1    0.1932E-3    -.4018E-1    0.2319E-3    -.3384E-1
   0.5010       0.2416E-3    -.3379E-1    0.2013E-3    -.4014E-1    0.2416E-3    -.3379E-1
   0.5210       0.2513E-3    -.3374E-1    0.2094E-3    -.4010E-1    0.2513E-3    -.3374E-1
   0.5411       0.2610E-3    -.3369E-1    0.2175E-3    -.4006E-1    0.2610E-3    -.3369E-1
   0.5611       0.2708E-3    -.3364E-1    0.2256E-3    -.4001E-1    0.2708E-3    -.3364E-1
   0.5812       0.2805E-3    -.3358E-1    0.2337E-3    -.3997E-1    0.2805E-3    -.3358E-1
   0.6012       0.2903E-3    -.3352E-1    0.2418E-3    -.3992E-1    0.2903E-3    -.3352E-1
   0.6212       0.3000E-3    -.3347E-1    0.2500E-3    -.3987E-1    0.3000E-3    -.3347E-1
   0.6413       0.3098E-3    -.3340E-1    0.2581E-3    -.3982E-1    0.3098E-3    -.3340E-1
   0.6613       0.3195E-3    -.3334E-1    0.2663E-3    -.3977E-1    0.3195E-3    -.3334E-1
   0.6814       0.3293E-3    -.3328E-1    0.2744E-3    -.3971E-1    0.3293E-3    -.3328E-1
   0.7014       0.3391E-3    -.3321E-1    0.2826E-3    -.3966E-1    0.3391E-3    -.3321E-1
   0.7214       0.3489E-3    -.3314E-1    0.2907E-3    -.3960E-1    0.3489E-3    -.3314E-1
   0.7415       0.3587E-3    -.3307E-1    0.2989E-3    -.3954E-1    0.3587E-3    -.3307E-1
   0.7615       0.3686E-3    -.3300E-1    0.3071E-3    -.3948E-1    0.3686E-3    -.3300E-1
   0.7816       0.3784E-3    -.3292E-1    0.3153E-3    -.3942E-1    0.3784E-3    -.3292E-1
   0.8016       0.3882E-3    -.3285E-1    0.3235E-3    -.3935E-1    0.3882E-3    -.3285E-1
   0.8216       0.3981E-3    -.3277E-1    0.3317E-3    -.3929E-1    0.3981E-3    -.3277E-1
   0.8417       0.4079E-3    -.3269E-1    0.3399E-3    -.3922E-1    0.4079E-3    -.3269E-1
   0.8617       0.4178E-3    -.3260E-1    0.3482E-3    -.3915E-1    0.4178E-3    -.3260E-1
   0.8818       0.4277E-3    -.3252E-1    0.3564E-3    -.3908E-1    0.4277E-3    -.3252E-1
   0.9018       0.4376E-3    -.3243E-1    0.3647E-3    -.3901E-1    0.4376E-3    -.3243E-1
   0.9218       0.4475E-3    -.3234E-1    0.3729E-3    -.3893E-1    0.4475E-3    -.3234E-1
   0.9419       0.4574E-3    -.3225E-1    0.3812E-3    -.3886E-1    0.4574E-3    -.3225E-1
   0.9619       0.4674E-3    -.3216E-1    0.3895E-3    -.3878E-1    0.4674E-3    -.3216E-1
   0.9820       0.4773E-3    -.3206E-1    0.3978E-3    -.3870E-1    0.4773E-3    -.3206E-1
    1.002       0.4873E-3    -.3197E-1    0.4061E-3    -.3862E-1    0.4873E-3    -.3197E-1
    1.022       0.4973E-3    -.3187E-1    0.4144E-3    -.3854E-1    0.4973E-3    -.3187E-1
    1.042       0.5073E-3    -.3177E-1    0.4228E-3    -.3846E-1    0.5073E-3    -.3177E-1
    1.062       0.5173E-3    -.3167E-1    0.4311E-3    -.3837E-1    0.5173E-3    -.3167E-1
    1.082       0.5273E-3    -.3156E-1    0.4395E-3    -.3828E-1    0.5273E-3    -.3156E-1
    1.102       0.5374E-3    -.3145E-1    0.4478E-3    -.3819E-1    0.5374E-3    -.3145E-1
    1.122       0.5474E-3    -.3135E-1    0.4562E-3    -.3810E-1    0.5474E-3    -.3135E-1
    1.142       0.5575E-3    -.3124E-1    0.4646E-3    -.3801E-1    0.5575E-3    -.3124E-1
    1.162       0.5676E-3    -.3112E-1    0.4731E-3    -.3792E-1    0.5676E-3    -.3112E-1
    1.182       0.5777E-3    -.3101E-1    0.4815E-3    -.3782E-1    0.5777E-3    -.3101E-1
    1.202       0.5878E-3    -.3089E-1    0.4900E-3    -.3772E-1    0.5878E-3    -.3089E-1
    1.222       0.5980E-3    -.3077E-1    0.4984E-3    -.3763E-1    0.5980E-3    -.3077E-1
    1.242       0.6081E-3    -.3065E-1    0.5069E-3    -.3752E-1    0.6081E-3    -.3065E-1
    1.263       0.6183E-3    -.3053E-1    0.5154E-3    -.3742E-1    0.6183E-3    -.3053E-1
    1.283       0.6285E-3    -.3040E-1    0.5239E-3    -.3732E-1    0.6285E-3    -.3040E-1
    1.303       0.6388E-3    -.3028E-1    0.5325E-3    -.3721E-1    0.6388E-3    -.3028E-1
    1.323       0.6490E-3    -.3015E-1    0.5410E-3    -.3710E-1    0.6490E-3    -.3015E-1
    1.343       0.6593E-3    -.3002E-1    0.5496E-3    -.3700E-1    0.6593E-3    -.3002E-1
    1.363       0.6696E-3    -.2988E-1    0.5582E-3    -.3688E-1    0.6696E-3    -.2988E-1
    1.383       0.6799E-3    -.2975E-1    0.5668E-3    -.3677E-1    0.6799E-3    -.2975E-1
    1.403       0.6902E-3    -.2961E-1    0.5754E-3    -.3666E-1    0.6902E-3    -.2961E-1
    1.423       0.7006E-3    -.2947E-1    0.5841E-3    -.3654E-1    0.7006E-3    -.2947E-1
    1.443       0.7109E-3    -.2933E-1    0.5928E-3    -.3642E-1    0.7109E-3    -.2933E-1
    1.463       0.7213E-3    -.2919E-1    0.6015E-3    -.3630E-1    0.7213E-3    -.2919E-1
    1.483       0.7318E-3    -.2904E-1    0.6102E-3    -.3618E-1    0.7318E-3    -.2904E-1
    1.503       0.7422E-3    -.2889E-1    0.6189E-3    -.3606E-1    0.7422E-3    -.2889E-1
    1.523       0.7527E-3    -.2874E-1    0.6277E-3    -.3593E-1    0.7527E-3    -.2874E-1
    1.543       0.7632E-3    -.2859E-1    0.6365E-3    -.3581E-1    0.7632E-3    -.2859E-1
    1.563       0.7737E-3    -.2844E-1    0.6453E-3    -.3568E-1    0.7737E-3    -.2844E-1
    1.583       0.7843E-3    -.2828E-1    0.6541E-3    -.3555E-1    0.7843E-3    -.2828E-1
    1.603       0.7949E-3    -.2812E-1    0.6630E-3    -.3542E-1    0.7949E-3    -.2812E-1
    1.623       0.8055E-3    -.2796E-1    0.6719E-3    -.3528E-1    0.8055E-3    -.2796E-1
    1.643       0.8162E-3    -.2780E-1    0.6808E-3    -.3515E-1    0.8162E-3    -.2780E-1
    1.663       0.8269E-3    -.2764E-1    0.6898E-3    -.3501E-1    0.8269E-3    -.2764E-1
    1.683       0.8376E-3    -.2747E-1    0.6988E-3    -.3487E-1    0.8376E-3    -.2747E-1
    1.703       0.8483E-3    -.2730E-1    0.7078E-3    -.3473E-1    0.8483E-3    -.2730E-1
    1.723       0.8591E-3    -.2713E-1    0.7168E-3    -.3459E-1    0.8591E-3    -.2713E-1
    1.743       0.8699E-3    -.2696E-1    0.7259E-3    -.3444E-1    0.8699E-3    -.2696E-1
    1.764       0.8807E-3    -.2678E-1    0.7350E-3    -.3430E-1    0.8807E-3    -.2678E-1
    1.784       0.8916E-3    -.2660E-1    0.7441E-3    -.3415E-1    0.8916E-3    -.2660E-1
    1.804       0.9025E-3    -.2642E-1    0.7533E-3    -.3400E-1    0.9025E-3    -.2642E-1
    1.824       0.9135E-3    -.2624E-1    0.7625E-3    -.3385E-1    0.9135E-3    -.2624E-1
    1.844       0.9245E-3    -.2606E-1    0.7717E-3    -.3369E-1    0.9245E-3    -.2606E-1
    1.864       0.9355E-3    -.2587E-1    0.7810E-3    -.3354E-1    0.9355E-3    -.2587E-1
    1.884       0.9466E-3    -.2568E-1    0.7903E-3    -.3338E-1    0.9466E-3    -.2568E-1
    1.904       0.9577E-3    -.2549E-1    0.7997E-3    -.3322E-1    0.9577E-3    -.2549E-1
    1.924       0.9688E-3    -.2530E-1    0.8091E-3    -.3306E-1    0.9688E-3    -.2530E-1
    1.944       0.9800E-3    -.2510E-1    0.8185E-3    -.3290E-1    0.9800E-3    -.2510E-1
    1.964       0.9913E-3    -.2491E-1    0.8280E-3    -.3273E-1    0.9913E-3    -.2491E-1
    1.984       0.1003E-2    -.2471E-1    0.8375E-3    -.3257E-1    0.1003E-2    -.2471E-1
    2.004       0.1014E-2    -.2451E-1    0.8471E-3    -.3240E-1    0.1014E-2    -.2451E-1
    2.024       0.1025E-2    -.2430E-1    0.8567E-3    -.3223E-1    0.1025E-2    -.2430E-1
    2.044       0.1037E-2    -.2409E-1    0.8664E-3    -.3205E-1    0.1037E-2    -.2409E-1
    2.064       0.1048E-2    -.2389E-1    0.8761E-3    -.3188E-1    0.1048E-2    -.2389E-1
    2.084       0.1060E-2    -.2368E-1    0.8858E-3    -.3170E-1    0.1060E-2    -.2368E-1
    2.104       0.1071E-2    -.2346E-1    0.8956E-3    -.3152E-1    0.1071E-2    -.2346E-1
    2.124       0.1083E-2    -.2325E-1    0.9055E-3    -.3134E-1    0.1083E-2    -.2325E-1
    2.144       0.1095E-2    -.2303E-1    0.9154E-3    -.3116E-1    0.1095E-2    -.2303E-1
    2.164       0.1106E-2    -.2281E-1    0.9254E-3    -.3098E-1    0.1106E-2    -.2281E-1
    2.184       0.1118E-2    -.2258E-1    0.9354E-3    -.3079E-1    0.1118E-2    -.2258E-1
    2.204       0.1130E-2    -.2236E-1    0.9455E-3    -.3060E-1    0.1130E-2    -.2236E-1
    2.224       0.1142E-2    -.2213E-1    0.9557E-3    -.3041E-1    0.1142E-2    -.2213E-1
    2.244       0.1154E-2    -.2190E-1    0.9659E-3    -.3022E-1    0.1154E-2    -.2190E-1
    2.265       0.1166E-2    -.2167E-1    0.9762E-3    -.3003E-1    0.1166E-2    -.2167E-1
    2.285       0.1178E-2    -.2143E-1    0.9866E-3    -.2983E-1    0.1178E-2    -.2143E-1
    2.305       0.1190E-2    -.2120E-1    0.9970E-3    -.2963E-1    0.1190E-2    -.2120E-1
    2.325       0.1203E-2    -.2096E-1    0.1008E-2    -.2943E-1    0.1203E-2    -.2096E-1
    2.345       0.1215E-2    -.2072E-1    0.1018E-2    -.2923E-1    0.1215E-2    -.2072E-1
    2.365       0.1227E-2    -.2047E-1    0.1029E-2    -.2902E-1    0.1227E-2    -.2047E-1
    2.385       0.1240E-2    -.2022E-1    0.1040E-2    -.2881E-1    0.1240E-2    -.2022E-1
    2.405       0.1252E-2    -.1997E-1    0.1050E-2    -.2861E-1    0.1252E-2    -.1997E-1
    2.425       0.1265E-2    -.1972E-1    0.1061E-2    -.2839E-1    0.1265E-2    -.1972E-1
    2.445       0.1278E-2    -.1947E-1    0.1072E-2    -.2818E-1    0.1278E-2    -.1947E-1
    2.465       0.1291E-2    -.1921E-1    0.1084E-2    -.2796E-1    0.1291E-2    -.1921E-1
    2.485       0.1304E-2    -.1895E-1    0.1095E-2    -.2775E-1    0.1304E-2    -.1895E-1
    2.505       0.1317E-2    -.1869E-1    0.1106E-2    -.2753E-1    0.1317E-2    -.1869E-1
    2.525       0.1330E-2    -.1842E-1    0.1118E-2    -.2730E-1    0.1330E-2    -.1842E-1
    2.545       0.1343E-2    -.1816E-1    0.1129E-2    -.2708E-1    0.1343E-2    -.1816E-1
    2.565       0.1356E-2    -.1789E-1    0.1141E-2    -.2685E-1    0.1356E-2    -.1789E-1
    2.585       0.1370E-2    -.1761E-1    0.1153E-2    -.2662E-1    0.1370E-2    -.1761E-1
    2.605       0.1383E-2    -.1734E-1    0.1164E-2    -.2639E-1    0.1383E-2    -.1734E-1
    2.625       0.1397E-2    -.1706E-1    0.1177E-2    -.2616E-1    0.1397E-2    -.1706E-1
    2.645       0.1411E-2    -.1678E-1    0.1189E-2    -.2592E-1    0.1411E-2    -.1678E-1
    2.665       0.1425E-2    -.1649E-1    0.1201E-2    -.2568E-1    0.1425E-2    -.1649E-1
    2.685       0.1439E-2    -.1621E-1    0.1214E-2    -.2544E-1    0.1439E-2    -.1621E-1
    2.705       0.1453E-2    -.1592E-1    0.1226E-2    -.2519E-1    0.1453E-2    -.1592E-1
    2.725       0.1467E-2    -.1563E-1    0.1239E-2    -.2495E-1    0.1467E-2    -.1563E-1
    2.745       0.1482E-2    -.1533E-1    0.1252E-2    -.2470E-1    0.1482E-2    -.1533E-1
    2.766       0.1496E-2    -.1503E-1    0.1265E-2    -.2445E-1    0.1496E-2    -.1503E-1
    2.786       0.1511E-2    -.1473E-1    0.1279E-2    -.2419E-1    0.1511E-2    -.1473E-1
    2.806       0.1526E-2    -.1443E-1    0.1292E-2    -.2393E-1    0.1526E-2    -.1443E-1
    2.826       0.1541E-2    -.1412E-1    0.1306E-2    -.2367E-1    0.1541E-2    -.1412E-1
    2.846       0.1557E-2    -.1381E-1    0.1320E-2    -.2341E-1    0.1557E-2    -.1381E-1
    2.866       0.1572E-2    -.1350E-1    0.1335E-2    -.2315E-1    0.1572E-2    -.1350E-1
    2.886       0.1588E-2    -.1318E-1    0.1349E-2    -.2288E-1    0.1588E-2    -.1318E-1
    2.906       0.1604E-2    -.1286E-1    0.1364E-2    -.2261E-1    0.1604E-2    -.1286E-1
    2.926       0.1620E-2    -.1254E-1    0.1379E-2    -.2233E-1    0.1620E-2    -.1254E-1
    2.946       0.1637E-2    -.1221E-1    0.1395E-2    -.2205E-1    0.1637E-2    -.1221E-1
    2.966       0.1654E-2    -.1188E-1    0.1411E-2    -.2177E-1    0.1654E-2    -.1188E-1
    2.986       0.1671E-2    -.1155E-1    0.1427E-2    -.2149E-1    0.1671E-2    -.1155E-1
    3.006       0.1688E-2    -.1121E-1    0.1443E-2    -.2120E-1    0.1688E-2    -.1121E-1
    3.026       0.1706E-2    -.1087E-1    0.1460E-2    -.2091E-1    0.1706E-2    -.1087E-1
    3.046       0.1724E-2    -.1053E-1    0.1478E-2    -.2062E-1    0.1724E-2    -.1053E-1
    3.066       0.1742E-2    -.1018E-1    0.1496E-2    -.2032E-1    0.1742E-2    -.1018E-1
    3.086       0.1761E-2    -.9835E-2    0.1514E-2    -.2002E-1    0.1761E-2    -.9835E-2
    3.106       0.1780E-2    -.9480E-2    0.1533E-2    -.1972E-1    0.1780E-2    -.9480E-2
    3.126       0.1799E-2    -.9123E-2    0.1552E-2    -.1941E-1    0.1799E-2    -.9123E-2
    3.146       0.1819E-2    -.8761E-2    0.1573E-2    -.1910E-1    0.1819E-2    -.8761E-2
    3.166       0.1840E-2    -.8395E-2    0.1594E-2    -.1878E-1    0.1840E-2    -.8395E-2
    3.186       0.1861E-2    -.8025E-2    0.1615E-2    -.1846E-1    0.1861E-2    -.8025E-2
    3.206       0.1882E-2    -.7651E-2    0.1638E-2    -.1814E-1    0.1882E-2    -.7651E-2
    3.226       0.1904E-2    -.7273E-2    0.1661E-2    -.1781E-1    0.1904E-2    -.7273E-2
    3.246       0.1927E-2    -.6890E-2    0.1685E-2    -.1747E-1    0.1927E-2    -.6890E-2
    3.267       0.1951E-2    -.6503E-2    0.1711E-2    -.1713E-1    0.1951E-2    -.6503E-2
    3.287       0.1975E-2    -.6111E-2    0.1737E-2    -.1679E-1    0.1975E-2    -.6111E-2
    3.307       0.2000E-2    -.5714E-2    0.1765E-2    -.1644E-1    0.2000E-2    -.5714E-2
    3.327       0.2026E-2    -.5313E-2    0.1795E-2    -.1609E-1    0.2026E-2    -.5313E-2
    3.347       0.2053E-2    -.4906E-2    0.1826E-2    -.1573E-1    0.2053E-2    -.4906E-2
    3.367       0.2082E-2    -.4494E-2    0.1859E-2    -.1536E-1    0.2082E-2    -.4494E-2
    3.387       0.2111E-2    -.4076E-2    0.1894E-2    -.1499E-1    0.2111E-2    -.4076E-2
    3.407       0.2142E-2    -.3652E-2    0.1932E-2    -.1461E-1    0.2142E-2    -.3652E-2
    3.427       0.2175E-2    -.3222E-2    0.1972E-2    -.1423E-1    0.2175E-2    -.3222E-2
    3.447       0.2209E-2    -.2786E-2    0.2015E-2    -.1383E-1    0.2209E-2    -.2786E-2
    3.467       0.2246E-2    -.2344E-2    0.2062E-2    -.1343E-1    0.2246E-2    -.2344E-2
    3.487       0.2284E-2    -.1894E-2    0.2113E-2    -.1302E-1    0.2284E-2    -.1894E-2
    3.507       0.2325E-2    -.1437E-2    0.2169E-2    -.1260E-1    0.2325E-2    -.1437E-2
    3.527       0.2369E-2    -.9722E-3    0.2231E-2    -.1217E-1    0.2369E-2    -.9722E-3
    3.547       0.2417E-2    -.4990E-3    0.2299E-2    -.1173E-1    0.2417E-2    -.4990E-3
    3.567       0.2468E-2    -.1705E-4    0.2375E-2    -.1128E-1    0.2468E-2    -.1705E-4
    3.587       0.2524E-2    0.4744E-3    0.2461E-2    -.1081E-1    0.2524E-2    0.4744E-3
    3.607       0.2585E-2    0.9759E-3    0.2559E-2    -.1033E-1    0.2585E-2    0.9759E-3
    3.627       0.2653E-2    0.1488E-2    0.2671E-2    -.9841E-2    0.2653E-2    0.1488E-2
    3.647       0.2728E-2    0.2013E-2    0.2801E-2    -.9331E-2    0.2728E-2    0.2013E-2
    3.667       0.2812E-2    0.2549E-2    0.2952E-2    -.8804E-2    0.2812E-2    0.2549E-2
    3.687       0.2907E-2    0.3100E-2    0.3132E-2    -.8259E-2    0.2907E-2    0.3100E-2
    3.707       0.3015E-2    0.3665E-2    0.3347E-2    -.7696E-2    0.3015E-2    0.3665E-2
    3.727       0.3140E-2    0.4247E-2    0.3608E-2    -.7115E-2    0.3140E-2    0.4247E-2
    3.747       0.3285E-2    0.4845E-2    0.3927E-2    -.6520E-2    0.3285E-2    0.4845E-2
    3.768       0.3455E-2    0.5462E-2    0.4323E-2    -.5919E-2    0.3455E-2    0.5462E-2
    3.788       0.3658E-2    0.6098E-2    0.4816E-2    -.5327E-2    0.3658E-2    0.6098E-2
      3.8076       0.0039       0.0068       0.0054      -0.0048       0.0039       0.0068
      3.8277       0.0042       0.0074       0.0062      -0.0043       0.0042       0.0074
      3.8477       0.0046       0.0081       0.0071      -0.0040       0.0046       0.0081
      3.8677       0.0050       0.0088       0.0081      -0.0040       0.0050       0.0088
      3.8878       0.0056       0.0094       0.0091      -0.0044       0.0056       0.0094
      3.9078       0.0063       0.0100       0.0097      -0.0052       0.0063       0.0100
      3.9279       0.0072       0.0105       0.0099      -0.0062       0.0072       0.0105
      3.9479       0.0082       0.0107       0.0095      -0.0071       0.0082       0.0107
      3.9679       0.0093       0.0106       0.0087      -0.0076       0.0093       0.0106
      3.9880       0.0102       0.0100       0.0078      -0.0077       0.0102       0.0100
      4.0080       0.0107       0.0090       0.0070      -0.0074       0.0107       0.0090
      4.0281       0.0106       0.0080       0.0063      -0.0069       0.0106       0.0080
      4.0481       0.0099       0.0072       0.0058      -0.0062       0.0099       0.0072
      4.0681       0.0090       0.0069       0.0054      -0.0055       0.0090       0.0069
      4.0882       0.0080       0.0070       0.0051      -0.0047       0.0080       0.0070
    4.108       0.7106E-2    0.7411E-2    0.4884E-2    -.3946E-2    0.7106E-2    0.7411E-2
    4.128       0.6395E-2    0.8028E-2    0.4769E-2    -.3134E-2    0.6395E-2    0.8028E-2
    4.148       0.5837E-2    0.8757E-2    0.4719E-2    -.2310E-2    0.5837E-2    0.8757E-2
    4.168       0.5409E-2    0.9543E-2    0.4727E-2    -.1473E-2    0.5409E-2    0.9543E-2
    4.188       0.5086E-2    0.1036E-1    0.4789E-2    -.6209E-3    0.5086E-2    0.1036E-1
    4.208       0.4845E-2    0.1118E-1    0.4902E-2    0.2501E-3    0.4845E-2    0.1118E-1
    4.228       0.4668E-2    0.1201E-1    0.5069E-2    0.1144E-2    0.4668E-2    0.1201E-1
    4.248       0.4543E-2    0.1283E-1    0.5294E-2    0.2064E-2    0.4543E-2    0.1283E-1
    4.269       0.4459E-2    0.1366E-1    0.5585E-2    0.3017E-2    0.4459E-2    0.1366E-1
    4.289       0.4409E-2    0.1449E-1    0.5954E-2    0.4005E-2    0.4409E-2    0.1449E-1
      4.3086       0.0044       0.0153       0.0064       0.0050       0.0044       0.0153
      4.3287       0.0044       0.0162       0.0070       0.0061       0.0044       0.0162
      4.3487       0.0044       0.0170       0.0077       0.0072       0.0044       0.0170
      4.3687       0.0045       0.0178       0.0086       0.0083       0.0045       0.0178
      4.3888       0.0045       0.0187       0.0098       0.0095       0.0045       0.0187
      4.4088       0.0046       0.0196       0.0112       0.0106       0.0046       0.0196
      4.4289       0.0047       0.0205       0.0131       0.0116       0.0047       0.0205
      4.4489       0.0049       0.0214       0.0154       0.0123       0.0049       0.0214
      4.4689       0.0050       0.0223       0.0182       0.0124       0.0050       0.0223
      4.4890       0.0052       0.0233       0.0215       0.0117       0.0052       0.0233
      4.5090       0.0054       0.0243       0.0247       0.0097       0.0054       0.0243
      4.5291       0.0057       0.0254       0.0271       0.0063       0.0057       0.0254
    4.549       0.5987E-2    0.2643E-1    0.2794E-1    0.1905E-2    0.5987E-2    0.2643E-1
    4.569       0.6345E-2    0.2755E-1    0.2684E-1    -.2361E-2    0.6346E-2    0.2755E-1
      4.5892       0.0068       0.0287       0.0243      -0.0056       0.0068       0.0287
      4.6092       0.0073       0.0299       0.0211      -0.0073       0.0073       0.0299
      4.6293       0.0079       0.0312       0.0179      -0.0078       0.0079       0.0312
      4.6493       0.0087       0.0326       0.0153      -0.0075       0.0087       0.0326
      4.6693       0.0096       0.0339       0.0131      -0.0067       0.0096       0.0339
      4.6894       0.0107       0.0354       0.0113      -0.0056       0.0107       0.0354
    4.709       0.1216E-1    0.3683E-1    0.9956E-2    -.4431E-2    0.1216E-1    0.3683E-1
    4.729       0.1397E-1    0.3825E-1    0.8890E-2    -.3202E-2    0.1397E-1    0.3825E-1
    4.749       0.1626E-1    0.3952E-1    0.8054E-2    -.1975E-2    0.1626E-1    0.3952E-1
    4.770       0.1911E-1    0.4047E-1    0.7396E-2    -.7718E-3    0.1911E-1    0.4047E-1
    4.790       0.2258E-1    0.4079E-1    0.6877E-2    0.4010E-3    0.2258E-1    0.4079E-1
    4.810       0.2653E-1    0.4003E-1    0.6466E-2    0.1542E-2    0.2653E-1    0.4003E-1
    4.830       0.3052E-1    0.3772E-1    0.6141E-2    0.2653E-2    0.3051E-1    0.3772E-1
    4.850       0.3362E-1    0.3368E-1    0.5885E-2    0.3738E-2    0.3362E-1    0.3368E-1
    4.870       0.3481E-1    0.2843E-1    0.5686E-2    0.4800E-2    0.3481E-1    0.2844E-1
      4.8898       0.0336       0.0232       0.0055       0.0058       0.0336       0.0232
      4.9098       0.0305       0.0193       0.0054       0.0069       0.0305       0.0193
      4.9299       0.0266       0.0172       0.0053       0.0079       0.0266       0.0172
      4.9499       0.0228       0.0165       0.0053       0.0089       0.0228       0.0165
      4.9699       0.0195       0.0170       0.0053       0.0099       0.0195       0.0170
      4.9900       0.0168       0.0181       0.0053       0.0109       0.0168       0.0181
      5.0100       0.0147       0.0195       0.0053       0.0120       0.0147       0.0195
      5.0301       0.0130       0.0211       0.0054       0.0130       0.0130       0.0211
      5.0501       0.0117       0.0228       0.0054       0.0140       0.0117       0.0228
      5.0701       0.0107       0.0244       0.0055       0.0151       0.0107       0.0244
      5.0902       0.0099       0.0260       0.0056       0.0162       0.0099       0.0260
      5.1102       0.0093       0.0276       0.0058       0.0173       0.0093       0.0276
      5.1303       0.0088       0.0292       0.0059       0.0184       0.0088       0.0292
      5.1503       0.0085       0.0307       0.0061       0.0196       0.0085       0.0307
      5.1703       0.0082       0.0322       0.0064       0.0208       0.0082       0.0322
      5.1904       0.0080       0.0337       0.0066       0.0220       0.0080       0.0337
      5.2104       0.0079       0.0352       0.0069       0.0233       0.0078       0.0352
      5.2305       0.0078       0.0367       0.0073       0.0246       0.0078       0.0367
      5.2505       0.0077       0.0382       0.0077       0.0260       0.0077       0.0382
      5.2705       0.0077       0.0396       0.0081       0.0275       0.0077       0.0396
      5.2906       0.0078       0.0411       0.0087       0.0290       0.0078       0.0411
      5.3106       0.0079       0.0426       0.0093       0.0306       0.0079       0.0426
      5.3307       0.0080       0.0441       0.0100       0.0324       0.0080       0.0441
      5.3507       0.0082       0.0457       0.0109       0.0342       0.0082       0.0457
      5.3707       0.0084       0.0473       0.0119       0.0361       0.0084       0.0473
      5.3908       0.0086       0.0489       0.0131       0.0382       0.0086       0.0489
      5.4108       0.0089       0.0506       0.0145       0.0405       0.0089       0.0506
      5.4309       0.0093       0.0523       0.0163       0.0428       0.0093       0.0523
      5.4509       0.0097       0.0541       0.0184       0.0454       0.0097       0.0541
     5.47094      0.01013      0.05594      0.02108      0.04809      0.01013      0.05595
     5.49098      0.01067      0.05788      0.02437      0.05091      0.01068      0.05789
     5.51102      0.01130      0.05990      0.02850      0.05377      0.01131      0.05991
     5.53106      0.01204      0.06202      0.03372      0.05653      0.01205      0.06202
     5.55110      0.01290      0.06424      0.04032      0.05887      0.01291      0.06425
     5.57114      0.01391      0.06657      0.04859      0.06026      0.01393      0.06658
     5.59118      0.01512      0.06903      0.05866      0.05983      0.01514      0.06903
     5.61122      0.01656      0.07160      0.07019      0.05632      0.01659      0.07159
     5.63126      0.01828      0.07426      0.08190      0.04834      0.01832      0.07425
     5.65130      0.02035      0.07699      0.09124      0.03532      0.02039      0.07696
     5.67134      0.02279      0.07972      0.09525      0.01871      0.02284      0.07966
    5.691       0.2563E-1    0.8234E-1    0.9258E-1    0.1995E-2    0.2565E-1    0.8225E-1
     5.71142      0.02876      0.08478      0.08463     -0.01147      0.02874      0.08466
     5.73146      0.03206      0.08708      0.07420     -0.02037      0.03196      0.08695
     5.75150      0.03542      0.08943      0.06353     -0.02525      0.03525      0.08936
     5.77154      0.03902      0.09216      0.05371     -0.02719      0.03881      0.09220
     5.79158      0.04327      0.09546      0.04514     -0.02712      0.04309      0.09559
     5.81162      0.04874      0.09923      0.03790     -0.02571      0.04863      0.09944
     5.83166      0.05596      0.10315      0.03196     -0.02351      0.05595      0.10340
     5.85170      0.06547      0.10662      0.02718     -0.02091      0.06556      0.10687
     5.87174      0.07771      0.10873      0.02334     -0.01818      0.07791      0.10894
     5.89178      0.09287      0.10802      0.02026     -0.01547      0.09317      0.10814
     5.91182      0.11039      0.10248      0.01778     -0.01286      0.11075      0.10245
     5.93186      0.12818      0.08993      0.01577     -0.01038      0.12851      0.08970
      5.9519       0.1422       0.0695       0.0141      -0.0081       0.1424       0.0691
    5.972       0.1477       0.4345E-1    0.1275E-1    -.5872E-2    0.1476       0.4300E-1
    5.992       0.1424       0.1751E-1    0.1162E-1    -.3825E-2    0.1421       0.1718E-1
    6.012       0.1288       -.2772E-2    0.1066E-1    -.1904E-2    0.1284       -.2886E-2
    6.032       0.1116       -.1519E-1    0.9845E-2    -.9807E-4    0.1112       -.1509E-1
    6.052       0.9483E-1    -.2076E-1    0.9151E-2    0.1605E-2    0.9460E-1    -.2053E-1
    6.072       0.8055E-1    -.2177E-1    0.8555E-2    0.3216E-2    0.8047E-1    -.2148E-1
    6.092       0.6919E-1    -.2032E-1    0.8040E-2    0.4745E-2    0.6925E-1    -.2006E-1
      6.1122       0.0604      -0.0180       0.0076       0.0062       0.0605      -0.0178
      6.1323       0.0533      -0.0155       0.0072       0.0076       0.0535      -0.0155
      6.1523       0.0473      -0.0133       0.0069       0.0089       0.0474      -0.0133
      6.1723       0.0417      -0.0110       0.0066       0.0102       0.0418      -0.0111
      6.1924       0.0366      -0.0085       0.0063       0.0114       0.0366      -0.0085
    6.212       0.3197E-1    -.5554E-2    0.6050E-2    0.1261E-1    0.3196E-1    -.5613E-2
    6.232       0.2801E-1    -.2395E-2    0.5840E-2    0.1376E-1    0.2799E-1    -.2431E-2
    6.253       0.2470E-1    0.8599E-3    0.5653E-2    0.1487E-1    0.2468E-1    0.8404E-3
    6.273       0.2196E-1    0.4087E-2    0.5486E-2    0.1595E-1    0.2195E-1    0.4077E-2
    6.293       0.1971E-1    0.7209E-2    0.5337E-2    0.1701E-1    0.1970E-1    0.7206E-2
    6.313       0.1784E-1    0.1019E-1    0.5205E-2    0.1804E-1    0.1783E-1    0.1019E-1
    6.333       0.1629E-1    0.1302E-1    0.5088E-2    0.1904E-1    0.1629E-1    0.1302E-1
    6.353       0.1500E-1    0.1570E-1    0.4985E-2    0.2003E-1    0.1499E-1    0.1570E-1
    6.373       0.1390E-1    0.1823E-1    0.4895E-2    0.2099E-1    0.1390E-1    0.1823E-1
    6.393       0.1298E-1    0.2063E-1    0.4818E-2    0.2194E-1    0.1298E-1    0.2063E-1
    6.413       0.1220E-1    0.2291E-1    0.4753E-2    0.2288E-1    0.1219E-1    0.2291E-1
    6.433       0.1153E-1    0.2508E-1    0.4702E-2    0.2380E-1    0.1153E-1    0.2508E-1
    6.453       0.1097E-1    0.2715E-1    0.4664E-2    0.2471E-1    0.1097E-1    0.2715E-1
    6.473       0.1050E-1    0.2913E-1    0.4641E-2    0.2561E-1    0.1050E-1    0.2913E-1
    6.493       0.1011E-1    0.3102E-1    0.4636E-2    0.2649E-1    0.1011E-1    0.3103E-1
    6.513       0.9810E-2    0.3284E-1    0.4650E-2    0.2736E-1    0.9810E-2    0.3284E-1
    6.533       0.9583E-2    0.3457E-1    0.4687E-2    0.2821E-1    0.9584E-2    0.3457E-1
    6.553       0.9431E-2    0.3620E-1    0.4749E-2    0.2903E-1    0.9432E-2    0.3621E-1
    6.573       0.9342E-2    0.3773E-1    0.4831E-2    0.2981E-1    0.9344E-2    0.3773E-1
    6.593       0.9290E-2    0.3912E-1    0.4921E-2    0.3053E-1    0.9291E-2    0.3912E-1
    6.613       0.9222E-2    0.4037E-1    0.4991E-2    0.3119E-1    0.9224E-2    0.4037E-1
    6.633       0.9079E-2    0.4151E-1    0.5007E-2    0.3180E-1    0.9080E-2    0.4151E-1
    6.653       0.8825E-2    0.4260E-1    0.4947E-2    0.3239E-1    0.8826E-2    0.4260E-1
    6.673       0.8481E-2    0.4372E-1    0.4824E-2    0.3302E-1    0.8481E-2    0.4372E-1
    6.693       0.8101E-2    0.4490E-1    0.4671E-2    0.3369E-1    0.8101E-2    0.4490E-1
    6.713       0.7735E-2    0.4615E-1    0.4519E-2    0.3442E-1    0.7734E-2    0.4615E-1
    6.733       0.7407E-2    0.4742E-1    0.4383E-2    0.3518E-1    0.7407E-2    0.4742E-1
    6.754       0.7125E-2    0.4872E-1    0.4270E-2    0.3595E-1    0.7125E-2    0.4872E-1
    6.774       0.6885E-2    0.5000E-1    0.4176E-2    0.3673E-1    0.6885E-2    0.5000E-1
    6.794       0.6680E-2    0.5128E-1    0.4100E-2    0.3752E-1    0.6680E-2    0.5128E-1
    6.814       0.6505E-2    0.5254E-1    0.4038E-2    0.3831E-1    0.6505E-2    0.5254E-1
    6.834       0.6355E-2    0.5378E-1    0.3987E-2    0.3909E-1    0.6354E-2    0.5378E-1
    6.854       0.6223E-2    0.5501E-1    0.3945E-2    0.3986E-1    0.6223E-2    0.5501E-1
    6.874       0.6108E-2    0.5621E-1    0.3910E-2    0.4064E-1    0.6108E-2    0.5621E-1
    6.894       0.6006E-2    0.5740E-1    0.3881E-2    0.4141E-1    0.6006E-2    0.5740E-1
    6.914       0.5915E-2    0.5858E-1    0.3856E-2    0.4218E-1    0.5915E-2    0.5858E-1
    6.934       0.5834E-2    0.5974E-1    0.3834E-2    0.4294E-1    0.5834E-2    0.5974E-1
    6.954       0.5762E-2    0.6089E-1    0.3816E-2    0.4370E-1    0.5762E-2    0.6089E-1
    6.974       0.5696E-2    0.6202E-1    0.3801E-2    0.4446E-1    0.5696E-2    0.6202E-1
    6.994       0.5637E-2    0.6315E-1    0.3788E-2    0.4522E-1    0.5637E-2    0.6315E-1
    7.014       0.5584E-2    0.6426E-1    0.3777E-2    0.4597E-1    0.5584E-2    0.6426E-1
    7.034       0.5535E-2    0.6537E-1    0.3767E-2    0.4673E-1    0.5535E-2    0.6537E-1
    7.054       0.5491E-2    0.6647E-1    0.3759E-2    0.4748E-1    0.5491E-2    0.6647E-1
    7.074       0.5451E-2    0.6756E-1    0.3753E-2    0.4823E-1    0.5451E-2    0.6756E-1
    7.094       0.5415E-2    0.6864E-1    0.3748E-2    0.4898E-1    0.5415E-2    0.6864E-1
    7.114       0.5382E-2    0.6972E-1    0.3744E-2    0.4973E-1    0.5382E-2    0.6972E-1
    7.134       0.5352E-2    0.7079E-1    0.3740E-2    0.5047E-1    0.5352E-2    0.7079E-1
    7.154       0.5325E-2    0.7185E-1    0.3738E-2    0.5122E-1    0.5325E-2    0.7185E-1
    7.174       0.5300E-2    0.7291E-1    0.3737E-2    0.5197E-1    0.5300E-2    0.7291E-1
    7.194       0.5278E-2    0.7397E-1    0.3736E-2    0.5272E-1    0.5278E-2    0.7397E-1
    7.214       0.5258E-2    0.7502E-1    0.3736E-2    0.5346E-1    0.5258E-2    0.7502E-1
    7.234       0.5240E-2    0.7607E-1    0.3737E-2    0.5421E-1    0.5240E-2    0.7607E-1
    7.255       0.5225E-2    0.7712E-1    0.3739E-2    0.5496E-1    0.5225E-2    0.7712E-1
    7.275       0.5211E-2    0.7816E-1    0.3741E-2    0.5571E-1    0.5211E-2    0.7816E-1
    7.295       0.5198E-2    0.7920E-1    0.3743E-2    0.5646E-1    0.5198E-2    0.7920E-1
    7.315       0.5187E-2    0.8024E-1    0.3746E-2    0.5721E-1    0.5187E-2    0.8024E-1
    7.335       0.5178E-2    0.8127E-1    0.3750E-2    0.5796E-1    0.5178E-2    0.8127E-1
    7.355       0.5170E-2    0.8231E-1    0.3754E-2    0.5871E-1    0.5170E-2    0.8231E-1
    7.375       0.5164E-2    0.8334E-1    0.3758E-2    0.5946E-1    0.5164E-2    0.8334E-1
    7.395       0.5158E-2    0.8437E-1    0.3763E-2    0.6021E-1    0.5158E-2    0.8437E-1
    7.415       0.5154E-2    0.8540E-1    0.3768E-2    0.6097E-1    0.5154E-2    0.8540E-1
    7.435       0.5151E-2    0.8643E-1    0.3774E-2    0.6172E-1    0.5151E-2    0.8643E-1
    7.455       0.5149E-2    0.8746E-1    0.3780E-2    0.6248E-1    0.5149E-2    0.8746E-1
    7.475       0.5148E-2    0.8849E-1    0.3786E-2    0.6324E-1    0.5148E-2    0.8849E-1
    7.495       0.5148E-2    0.8952E-1    0.3793E-2    0.6400E-1    0.5148E-2    0.8952E-1
    7.515       0.5149E-2    0.9055E-1    0.3800E-2    0.6476E-1    0.5149E-2    0.9055E-1
    7.535       0.5151E-2    0.9159E-1    0.3808E-2    0.6552E-1    0.5151E-2    0.9159E-1
    7.555       0.5153E-2    0.9262E-1    0.3815E-2    0.6628E-1    0.5153E-2    0.9262E-1
    7.575       0.5157E-2    0.9365E-1    0.3823E-2    0.6705E-1    0.5157E-2    0.9365E-1
    7.595       0.5161E-2    0.9468E-1    0.3831E-2    0.6781E-1    0.5161E-2    0.9468E-1
    7.615       0.5166E-2    0.9571E-1    0.3840E-2    0.6858E-1    0.5166E-2    0.9571E-1
    7.635       0.5172E-2    0.9675E-1    0.3849E-2    0.6935E-1    0.5172E-2    0.9675E-1
    7.655       0.5178E-2    0.9778E-1    0.3858E-2    0.7012E-1    0.5178E-2    0.9778E-1
    7.675       0.5185E-2    0.9882E-1    0.3867E-2    0.7090E-1    0.5185E-2    0.9882E-1
    7.695       0.5192E-2    0.9986E-1    0.3876E-2    0.7167E-1    0.5192E-2    0.9986E-1
    7.715       0.5201E-2    0.1009       0.3886E-2    0.7245E-1    0.5201E-2    0.1009   
    7.735       0.5210E-2    0.1019       0.3896E-2    0.7323E-1    0.5210E-2    0.1019   
    7.756       0.5219E-2    0.1030       0.3906E-2    0.7401E-1    0.5219E-2    0.1030   
    7.776       0.5229E-2    0.1040       0.3916E-2    0.7479E-1    0.5229E-2    0.1040   
    7.796       0.5239E-2    0.1051       0.3927E-2    0.7558E-1    0.5239E-2    0.1051   
    7.816       0.5250E-2    0.1061       0.3938E-2    0.7637E-1    0.5250E-2    0.1061   
    7.836       0.5262E-2    0.1072       0.3949E-2    0.7716E-1    0.5262E-2    0.1072   
    7.856       0.5274E-2    0.1082       0.3960E-2    0.7795E-1    0.5274E-2    0.1082   
    7.876       0.5286E-2    0.1093       0.3971E-2    0.7874E-1    0.5286E-2    0.1093   
    7.896       0.5299E-2    0.1104       0.3983E-2    0.7954E-1    0.5299E-2    0.1104   
    7.916       0.5313E-2    0.1114       0.3995E-2    0.8034E-1    0.5313E-2    0.1114   
    7.936       0.5327E-2    0.1125       0.4007E-2    0.8114E-1    0.5327E-2    0.1125   
    7.956       0.5341E-2    0.1136       0.4019E-2    0.8194E-1    0.5341E-2    0.1136   
    7.976       0.5356E-2    0.1146       0.4031E-2    0.8275E-1    0.5356E-2    0.1146   
    7.996       0.5371E-2    0.1157       0.4044E-2    0.8356E-1    0.5371E-2    0.1157   
    8.016       0.5387E-2    0.1168       0.4056E-2    0.8437E-1    0.5387E-2    0.1168   
    8.036       0.5403E-2    0.1179       0.4069E-2    0.8518E-1    0.5403E-2    0.1179   
    8.056       0.5419E-2    0.1189       0.4082E-2    0.8600E-1    0.5419E-2    0.1189   
    8.076       0.5436E-2    0.1200       0.4095E-2    0.8682E-1    0.5436E-2    0.1200   
    8.096       0.5453E-2    0.1211       0.4109E-2    0.8764E-1    0.5453E-2    0.1211   
    8.116       0.5471E-2    0.1222       0.4122E-2    0.8847E-1    0.5471E-2    0.1222   
    8.136       0.5489E-2    0.1233       0.4136E-2    0.8929E-1    0.5489E-2    0.1233   
    8.156       0.5507E-2    0.1244       0.4150E-2    0.9012E-1    0.5507E-2    0.1244   
    8.176       0.5526E-2    0.1255       0.4164E-2    0.9096E-1    0.5526E-2    0.1255   
    8.196       0.5545E-2    0.1266       0.4178E-2    0.9179E-1    0.5545E-2    0.1266   
    8.216       0.5565E-2    0.1277       0.4192E-2    0.9263E-1    0.5565E-2    0.1277   
    8.236       0.5585E-2    0.1289       0.4207E-2    0.9347E-1    0.5585E-2    0.1289   
    8.257       0.5605E-2    0.1300       0.4221E-2    0.9432E-1    0.5605E-2    0.1300   
    8.277       0.5626E-2    0.1311       0.4236E-2    0.9516E-1    0.5626E-2    0.1311   
    8.297       0.5647E-2    0.1322       0.4251E-2    0.9601E-1    0.5647E-2    0.1322   
    8.317       0.5669E-2    0.1334       0.4266E-2    0.9687E-1    0.5669E-2    0.1334   
    8.337       0.5691E-2    0.1345       0.4282E-2    0.9772E-1    0.5691E-2    0.1345   
    8.357       0.5713E-2    0.1356       0.4297E-2    0.9858E-1    0.5713E-2    0.1356   
    8.377       0.5736E-2    0.1368       0.4313E-2    0.9944E-1    0.5736E-2    0.1368   
    8.397       0.5759E-2    0.1379       0.4329E-2    0.1003       0.5759E-2    0.1379   
    8.417       0.5782E-2    0.1391       0.4345E-2    0.1012       0.5782E-2    0.1391   
    8.437       0.5806E-2    0.1403       0.4361E-2    0.1021       0.5806E-2    0.1403   
    8.457       0.5830E-2    0.1414       0.4377E-2    0.1029       0.5830E-2    0.1414   
    8.477       0.5855E-2    0.1426       0.4394E-2    0.1038       0.5855E-2    0.1426   
    8.497       0.5880E-2    0.1438       0.4411E-2    0.1047       0.5880E-2    0.1438   
    8.517       0.5905E-2    0.1449       0.4428E-2    0.1056       0.5905E-2    0.1449   
    8.537       0.5931E-2    0.1461       0.4445E-2    0.1065       0.5931E-2    0.1461   
    8.557       0.5957E-2    0.1473       0.4462E-2    0.1074       0.5957E-2    0.1473   
    8.577       0.5984E-2    0.1485       0.4479E-2    0.1082       0.5984E-2    0.1485   
    8.597       0.6011E-2    0.1497       0.4497E-2    0.1091       0.6011E-2    0.1497   
    8.617       0.6039E-2    0.1509       0.4515E-2    0.1100       0.6039E-2    0.1509   
    8.637       0.6067E-2    0.1521       0.4533E-2    0.1110       0.6067E-2    0.1521   
    8.657       0.6095E-2    0.1534       0.4551E-2    0.1119       0.6095E-2    0.1534   
    8.677       0.6125E-2    0.1546       0.4570E-2    0.1128       0.6125E-2    0.1546   
    8.697       0.6154E-2    0.1558       0.4588E-2    0.1137       0.6154E-2    0.1558   
    8.717       0.6184E-2    0.1570       0.4607E-2    0.1146       0.6184E-2    0.1570   
    8.737       0.6215E-2    0.1583       0.4626E-2    0.1155       0.6215E-2    0.1583   
    8.758       0.6246E-2    0.1595       0.4646E-2    0.1165       0.6246E-2    0.1595   
    8.778       0.6277E-2    0.1608       0.4665E-2    0.1174       0.6277E-2    0.1608   
    8.798       0.6309E-2    0.1620       0.4685E-2    0.1183       0.6309E-2    0.1620   
    8.818       0.6342E-2    0.1633       0.4705E-2    0.1193       0.6342E-2    0.1633   
    8.838       0.6375E-2    0.1646       0.4726E-2    0.1202       0.6375E-2    0.1646   
    8.858       0.6409E-2    0.1659       0.4746E-2    0.1212       0.6409E-2    0.1659   
    8.878       0.6444E-2    0.1672       0.4767E-2    0.1221       0.6444E-2    0.1672   
    8.898       0.6479E-2    0.1684       0.4788E-2    0.1231       0.6479E-2    0.1684   
    8.918       0.6515E-2    0.1697       0.4810E-2    0.1240       0.6515E-2    0.1697   
    8.938       0.6551E-2    0.1711       0.4831E-2    0.1250       0.6551E-2    0.1711   
    8.958       0.6588E-2    0.1724       0.4853E-2    0.1260       0.6588E-2    0.1724   
    8.978       0.6626E-2    0.1737       0.4876E-2    0.1270       0.6626E-2    0.1737   
    8.998       0.6665E-2    0.1750       0.4898E-2    0.1279       0.6665E-2    0.1750   
    9.018       0.6704E-2    0.1764       0.4921E-2    0.1289       0.6704E-2    0.1764   
    9.038       0.6745E-2    0.1777       0.4945E-2    0.1299       0.6745E-2    0.1777   
    9.058       0.6786E-2    0.1791       0.4968E-2    0.1309       0.6786E-2    0.1791   
    9.078       0.6828E-2    0.1804       0.4993E-2    0.1319       0.6828E-2    0.1804   
    9.098       0.6871E-2    0.1818       0.5017E-2    0.1329       0.6871E-2    0.1818   
    9.118       0.6915E-2    0.1832       0.5042E-2    0.1339       0.6915E-2    0.1832   
    9.138       0.6960E-2    0.1846       0.5067E-2    0.1349       0.6960E-2    0.1846   
    9.158       0.7006E-2    0.1860       0.5093E-2    0.1359       0.7006E-2    0.1860   
    9.178       0.7053E-2    0.1874       0.5120E-2    0.1370       0.7053E-2    0.1874   
    9.198       0.7102E-2    0.1888       0.5147E-2    0.1380       0.7102E-2    0.1888   
    9.218       0.7151E-2    0.1902       0.5174E-2    0.1390       0.7151E-2    0.1902   
    9.238       0.7202E-2    0.1916       0.5202E-2    0.1401       0.7202E-2    0.1916   
    9.259       0.7254E-2    0.1931       0.5230E-2    0.1411       0.7254E-2    0.1931   
    9.279       0.7308E-2    0.1945       0.5260E-2    0.1422       0.7308E-2    0.1945   
    9.299       0.7363E-2    0.1960       0.5289E-2    0.1432       0.7363E-2    0.1960   
    9.319       0.7420E-2    0.1975       0.5320E-2    0.1443       0.7420E-2    0.1975   
    9.339       0.7478E-2    0.1990       0.5351E-2    0.1453       0.7478E-2    0.1990   
    9.359       0.7539E-2    0.2005       0.5383E-2    0.1464       0.7539E-2    0.2005   
    9.379       0.7601E-2    0.2020       0.5416E-2    0.1475       0.7601E-2    0.2020   
    9.399       0.7665E-2    0.2035       0.5450E-2    0.1486       0.7665E-2    0.2035   
    9.419       0.7731E-2    0.2051       0.5485E-2    0.1497       0.7731E-2    0.2051   
    9.439       0.7799E-2    0.2066       0.5520E-2    0.1508       0.7799E-2    0.2066   
    9.459       0.7870E-2    0.2082       0.5557E-2    0.1519       0.7870E-2    0.2082   
    9.479       0.7944E-2    0.2098       0.5595E-2    0.1530       0.7944E-2    0.2098   
    9.499       0.8020E-2    0.2114       0.5635E-2    0.1541       0.8020E-2    0.2114   
    9.519       0.8099E-2    0.2130       0.5675E-2    0.1553       0.8099E-2    0.2130   
    9.539       0.8181E-2    0.2146       0.5717E-2    0.1564       0.8181E-2    0.2146   
    9.559       0.8267E-2    0.2162       0.5761E-2    0.1575       0.8267E-2    0.2162   
    9.579       0.8356E-2    0.2179       0.5806E-2    0.1587       0.8356E-2    0.2179   
    9.599       0.8449E-2    0.2196       0.5853E-2    0.1599       0.8449E-2    0.2196   
    9.619       0.8546E-2    0.2213       0.5902E-2    0.1610       0.8546E-2    0.2213   
    9.639       0.8648E-2    0.2230       0.5953E-2    0.1622       0.8648E-2    0.2230   
    9.659       0.8754E-2    0.2247       0.6007E-2    0.1634       0.8754E-2    0.2247   
    9.679       0.8866E-2    0.2265       0.6063E-2    0.1646       0.8866E-2    0.2265   
    9.699       0.8984E-2    0.2283       0.6121E-2    0.1658       0.8984E-2    0.2283   
    9.719       0.9108E-2    0.2301       0.6183E-2    0.1671       0.9108E-2    0.2301   
    9.739       0.9238E-2    0.2319       0.6249E-2    0.1683       0.9238E-2    0.2319   
    9.760       0.9377E-2    0.2337       0.6318E-2    0.1696       0.9377E-2    0.2337   
    9.780       0.9523E-2    0.2356       0.6391E-2    0.1708       0.9523E-2    0.2356   
    9.800       0.9678E-2    0.2375       0.6468E-2    0.1721       0.9678E-2    0.2375   
    9.820       0.9843E-2    0.2395       0.6551E-2    0.1734       0.9843E-2    0.2395   
    9.840       0.1002E-1    0.2414       0.6639E-2    0.1747       0.1002E-1    0.2414   
    9.860       0.1021E-1    0.2434       0.6734E-2    0.1760       0.1021E-1    0.2434   
    9.880       0.1041E-1    0.2455       0.6836E-2    0.1774       0.1041E-1    0.2455   
    9.900       0.1063E-1    0.2476       0.6945E-2    0.1787       0.1063E-1    0.2476   
    9.920       0.1086E-1    0.2497       0.7064E-2    0.1801       0.1086E-1    0.2497   
    9.940       0.1111E-1    0.2518       0.7193E-2    0.1815       0.1111E-1    0.2518   
    9.960       0.1138E-1    0.2541       0.7335E-2    0.1830       0.1138E-1    0.2541   
    9.980       0.1168E-1    0.2563       0.7489E-2    0.1844       0.1168E-1    0.2563   
    10.00       0.1200E-1    0.2586       0.7659E-2    0.1859       0.1200E-1    0.2586   
# 
# 01/04/2018 at 13:46 YAMBO_RT @ narro [start]
# 01/04/2018 at 13:46                  [end]
#  
# Timing   [Min/Max/Average]: 03s/03s/03s
#
# .-Input file : yambo.in
# | optics                         # [R OPT] Optics
# | bse                            # [R BSE] Bethe Salpeter Equation.
# | bsk                            # [R BSK] Bethe Salpeter Equation kernel
# | bss                            # [R BSS] Bethe Salpeter Equation solver
# | em1s                           # [R Xs] Static Inverse Dielectric Matrix
# | BoseTemp= 0.000000     eV      # Bosonic Temperature
# | FFTGvecs=  387         RL      # [FFT] Plane-waves
# | Chimod= "hartree"              # [X] IP/Hartree/ALDA/LRC/BSfxc
# | BSEmod= "retarded"             # [BSE] resonant/retarded/coupling
# | BSKmod= "SEX"                  # [BSE] IP/Hartree/HF/ALDA/SEX/BSfxc
# | BSSmod= "h"                    # [BSS] (h)aydock/(d)iagonalization/(i)nversion/(t)ddft`
# | BSENGexx=  531         RL      # [BSK] Exchange components
# | BSENGBlk=  59          RL      # [BSK] Screened interaction block size
# | #WehCpl                        # [BSK] eh interaction included also in coupling
# | KfnQPdb= "E < 08_gw_eq/ndb.QP" # [EXTQP BSK BSS] Database
# | RfnRTdb= "f @ 0.1 ps < 04_elel+elph_0K/ndb.RT_carriers" # [EXTRT R] Database
# | % BEnRange
# |   0.00000 | 10.00000 | eV      # [BSS] Energy range
# | %
# | % BDmRange
# |   0.10000 |  0.10000 | eV      # [BSS] Damping range
# | %
# | BEnSteps=  500                 # [BSS] Energy steps
# | % BLongDir
# | 0.1000E-4 | 0.000    | 0.000    |        # [BSS] [cc] Electric Field
# | %
# | % BSEBands
# |   2 |  7 |                     # [BSK] Bands range
# | %
# | BSHayTrs=  0.02000             # [BSS] Relative [o/o] Haydock treshold. Strict(>0)/Average(<0)
# | % BndsRnXs
# |   1 |  8 |                     # [Xs] Polarization function bands
# | %
# | NGsBlkXs=  59          RL      # [Xs] Response block size
# | GrFnTpXs= "R"                  # [Xs] Green`s function (T)ordered,(R)etarded,(r)senant,(a)ntiresonant [T, R, r, Ta, Ra]
# | % DmRngeXs
# |   0.10000 |  0.10000 | eV      # [Xs] Damping range
# | %
# | % LongDrXs
# | 0.1000E-4 | 0.000    | 0.000    |        # [Xs] [cc] Electric Field
# | %
