#                                                           
#  ____  ____     _       ____    ____  ______      ___     
# |_  _||_  _|   / \     |_   \  /   _||_   _ \   ."   `.   
#   \ \  / /    / _ \      |   \/   |    | |_) | /  .-.  \  
#    \ \/ /    / ___ \     | |\  /| |    |  __". | |   | |  
#    _|  |_  _/ /   \ \_  _| |_\/_| |_  _| |__) |\  `-"  /  
#   |______||____| |____||_____||_____||_______/  `.___."   
#                                                           
#                                                           
#                                                           
#        Version 4.3.0 Revision 15201 Hash 76636f9          
#                      MPI+SLK Build                        
#                http://www.yambo-code.org                  
#
# EELS @ Q(1)  [q->0 direction]:0.1000E-4  0.000     0.000   
#
#
# - Energies      are  E < 08_ypp_gw_10fs_Xonly_part2/ndb.QP_merged_1_gw_ppa_gw_ppa + E Fit
# - Wavefunctions are Slater exchange(X)+Perdew & Zunger(C)
#
# - The Green`s function is Retarded -
# - Using the Length Gauge -
# - [r,Vnl] *is* included -
#
#   BSK|Identifier              :2855
#      |Dimension               :72
#      |Bands                   :2 - 7
#      |Exchange           [res]: yes
#      |Correlation        [res]: yes
#      |Kernel`s coupling       : no
#      |Exchange           [cpl]: no
#      |Correlation        [cpl]: no
#      |W interaction is bare   : no
#      |ALDA kernel in R-space  : no
#      |RL vectors    [exchange]:531
#      |RL vectors [correlation]:59
#      |E/h energy range    [ev]:-1.000000 - -1.000000
#      |Coupling range     [o/o]: 100.0000 -  100.0000
#    W |Interaction is diagonal : no
#      |Matrix size             :59
#      |Bands                   :1 - 8
#      |e/h energy range    [ev]:-1.000000 - -1.000000
#      |Poles              [o/o]: 100.0000
#      |RL vectors in the sum   :387
#      |[r,Vnl] included        : yes
#      |Field direction         :0.1000E-4  0.000000  0.000000
#      |Coulomb Cutoff          :none
#      |xc-Kernel               :none
#   RIM|RL components      [col]:0
#      |Random points      [col]:0
#  
#   Haydock|Accuracy (requested) [o/o]:  0.02000
#          |Accuracy (reached)   [o/o]:   0.0023
#          |Iteration                 :11
#
#    E/ev[1]      EEL-Im[2]    EEL-Re[3]    EELo-Im[4]   EELo-Re[5]   EEL`-Im[6]   EEL`-Re[7]
#
     0.00000     -0.00000     -0.01813     -0.00000     -0.01987     -0.00000     -0.01813
   0.2004E-1    0.8344E-5    -.1813E-1    0.7572E-5    -.1987E-1    0.8344E-5    -.1813E-1
   0.4008E-1    0.1669E-4    -.1813E-1    0.1514E-4    -.1987E-1    0.1669E-4    -.1813E-1
   0.6012E-1    0.2503E-4    -.1813E-1    0.2272E-4    -.1986E-1    0.2503E-4    -.1813E-1
   0.8016E-1    0.3338E-4    -.1812E-1    0.3029E-4    -.1986E-1    0.3338E-4    -.1812E-1
   0.1002       0.4173E-4    -.1811E-1    0.3787E-4    -.1985E-1    0.4173E-4    -.1811E-1
   0.1202       0.5008E-4    -.1810E-1    0.4545E-4    -.1984E-1    0.5008E-4    -.1810E-1
   0.1403       0.5844E-4    -.1809E-1    0.5303E-4    -.1983E-1    0.5844E-4    -.1809E-1
   0.1603       0.6680E-4    -.1808E-1    0.6062E-4    -.1982E-1    0.6680E-4    -.1808E-1
   0.1804       0.7516E-4    -.1807E-1    0.6821E-4    -.1981E-1    0.7516E-4    -.1807E-1
   0.2004       0.8353E-4    -.1805E-1    0.7580E-4    -.1979E-1    0.8353E-4    -.1805E-1
   0.2204       0.9191E-4    -.1803E-1    0.8340E-4    -.1978E-1    0.9191E-4    -.1803E-1
   0.2405       0.1003E-3    -.1801E-1    0.9101E-4    -.1976E-1    0.1003E-3    -.1801E-1
   0.2605       0.1087E-3    -.1799E-1    0.9862E-4    -.1974E-1    0.1087E-3    -.1799E-1
   0.2806       0.1171E-3    -.1797E-1    0.1062E-3    -.1972E-1    0.1171E-3    -.1797E-1
   0.3006       0.1255E-3    -.1795E-1    0.1139E-3    -.1970E-1    0.1255E-3    -.1795E-1
   0.3206       0.1339E-3    -.1792E-1    0.1215E-3    -.1967E-1    0.1339E-3    -.1792E-1
   0.3407       0.1423E-3    -.1789E-1    0.1292E-3    -.1965E-1    0.1423E-3    -.1789E-1
   0.3607       0.1507E-3    -.1786E-1    0.1368E-3    -.1962E-1    0.1507E-3    -.1786E-1
   0.3808       0.1592E-3    -.1783E-1    0.1445E-3    -.1959E-1    0.1592E-3    -.1783E-1
   0.4008       0.1676E-3    -.1780E-1    0.1521E-3    -.1956E-1    0.1676E-3    -.1780E-1
   0.4208       0.1761E-3    -.1776E-1    0.1598E-3    -.1953E-1    0.1761E-3    -.1776E-1
   0.4409       0.1846E-3    -.1773E-1    0.1675E-3    -.1950E-1    0.1846E-3    -.1773E-1
   0.4609       0.1931E-3    -.1769E-1    0.1752E-3    -.1947E-1    0.1931E-3    -.1769E-1
   0.4810       0.2016E-3    -.1765E-1    0.1830E-3    -.1943E-1    0.2016E-3    -.1765E-1
   0.5010       0.2101E-3    -.1761E-1    0.1907E-3    -.1939E-1    0.2101E-3    -.1761E-1
   0.5210       0.2186E-3    -.1757E-1    0.1985E-3    -.1935E-1    0.2186E-3    -.1757E-1
   0.5411       0.2272E-3    -.1752E-1    0.2062E-3    -.1931E-1    0.2272E-3    -.1752E-1
   0.5611       0.2357E-3    -.1748E-1    0.2140E-3    -.1927E-1    0.2357E-3    -.1748E-1
   0.5812       0.2443E-3    -.1743E-1    0.2218E-3    -.1923E-1    0.2443E-3    -.1743E-1
   0.6012       0.2529E-3    -.1738E-1    0.2296E-3    -.1918E-1    0.2529E-3    -.1738E-1
   0.6212       0.2615E-3    -.1733E-1    0.2375E-3    -.1914E-1    0.2615E-3    -.1733E-1
   0.6413       0.2702E-3    -.1727E-1    0.2453E-3    -.1909E-1    0.2702E-3    -.1727E-1
   0.6613       0.2788E-3    -.1722E-1    0.2532E-3    -.1904E-1    0.2788E-3    -.1722E-1
   0.6814       0.2875E-3    -.1716E-1    0.2611E-3    -.1899E-1    0.2875E-3    -.1716E-1
   0.7014       0.2962E-3    -.1710E-1    0.2690E-3    -.1893E-1    0.2962E-3    -.1710E-1
   0.7214       0.3050E-3    -.1704E-1    0.2769E-3    -.1888E-1    0.3050E-3    -.1704E-1
   0.7415       0.3137E-3    -.1698E-1    0.2849E-3    -.1882E-1    0.3137E-3    -.1698E-1
   0.7615       0.3225E-3    -.1692E-1    0.2929E-3    -.1876E-1    0.3225E-3    -.1692E-1
   0.7816       0.3313E-3    -.1685E-1    0.3009E-3    -.1870E-1    0.3313E-3    -.1685E-1
   0.8016       0.3401E-3    -.1678E-1    0.3090E-3    -.1864E-1    0.3401E-3    -.1678E-1
   0.8216       0.3490E-3    -.1672E-1    0.3170E-3    -.1858E-1    0.3490E-3    -.1672E-1
   0.8417       0.3579E-3    -.1665E-1    0.3251E-3    -.1852E-1    0.3579E-3    -.1665E-1
   0.8617       0.3668E-3    -.1657E-1    0.3333E-3    -.1845E-1    0.3668E-3    -.1657E-1
   0.8818       0.3758E-3    -.1650E-1    0.3414E-3    -.1838E-1    0.3758E-3    -.1650E-1
   0.9018       0.3848E-3    -.1642E-1    0.3496E-3    -.1831E-1    0.3848E-3    -.1642E-1
   0.9218       0.3938E-3    -.1634E-1    0.3579E-3    -.1824E-1    0.3938E-3    -.1634E-1
   0.9419       0.4029E-3    -.1626E-1    0.3661E-3    -.1817E-1    0.4029E-3    -.1626E-1
   0.9619       0.4120E-3    -.1618E-1    0.3745E-3    -.1810E-1    0.4120E-3    -.1618E-1
   0.9820       0.4211E-3    -.1610E-1    0.3828E-3    -.1802E-1    0.4211E-3    -.1610E-1
    1.002       0.4303E-3    -.1601E-1    0.3912E-3    -.1794E-1    0.4303E-3    -.1601E-1
    1.022       0.4396E-3    -.1593E-1    0.3996E-3    -.1786E-1    0.4396E-3    -.1593E-1
    1.042       0.4488E-3    -.1584E-1    0.4081E-3    -.1778E-1    0.4488E-3    -.1584E-1
    1.062       0.4582E-3    -.1575E-1    0.4166E-3    -.1770E-1    0.4582E-3    -.1575E-1
    1.082       0.4675E-3    -.1565E-1    0.4252E-3    -.1762E-1    0.4675E-3    -.1565E-1
    1.102       0.4770E-3    -.1556E-1    0.4338E-3    -.1753E-1    0.4770E-3    -.1556E-1
    1.122       0.4864E-3    -.1546E-1    0.4425E-3    -.1744E-1    0.4864E-3    -.1546E-1
    1.142       0.4960E-3    -.1537E-1    0.4512E-3    -.1735E-1    0.4960E-3    -.1537E-1
    1.162       0.5056E-3    -.1526E-1    0.4600E-3    -.1726E-1    0.5056E-3    -.1526E-1
    1.182       0.5152E-3    -.1516E-1    0.4689E-3    -.1717E-1    0.5152E-3    -.1516E-1
    1.202       0.5249E-3    -.1506E-1    0.4778E-3    -.1707E-1    0.5249E-3    -.1506E-1
    1.222       0.5347E-3    -.1495E-1    0.4867E-3    -.1698E-1    0.5347E-3    -.1495E-1
    1.242       0.5446E-3    -.1484E-1    0.4958E-3    -.1688E-1    0.5446E-3    -.1484E-1
    1.263       0.5545E-3    -.1473E-1    0.5049E-3    -.1678E-1    0.5545E-3    -.1473E-1
    1.283       0.5645E-3    -.1462E-1    0.5141E-3    -.1668E-1    0.5645E-3    -.1462E-1
    1.303       0.5746E-3    -.1451E-1    0.5234E-3    -.1657E-1    0.5746E-3    -.1451E-1
    1.323       0.5847E-3    -.1439E-1    0.5327E-3    -.1647E-1    0.5847E-3    -.1439E-1
    1.343       0.5950E-3    -.1427E-1    0.5422E-3    -.1636E-1    0.5950E-3    -.1427E-1
    1.363       0.6053E-3    -.1415E-1    0.5517E-3    -.1625E-1    0.6053E-3    -.1415E-1
    1.383       0.6158E-3    -.1403E-1    0.5613E-3    -.1614E-1    0.6158E-3    -.1403E-1
    1.403       0.6263E-3    -.1391E-1    0.5711E-3    -.1603E-1    0.6263E-3    -.1391E-1
    1.423       0.6369E-3    -.1378E-1    0.5809E-3    -.1591E-1    0.6369E-3    -.1378E-1
    1.443       0.6477E-3    -.1365E-1    0.5908E-3    -.1579E-1    0.6477E-3    -.1365E-1
    1.463       0.6585E-3    -.1352E-1    0.6009E-3    -.1567E-1    0.6585E-3    -.1352E-1
    1.483       0.6695E-3    -.1339E-1    0.6111E-3    -.1555E-1    0.6695E-3    -.1339E-1
    1.503       0.6806E-3    -.1325E-1    0.6214E-3    -.1543E-1    0.6806E-3    -.1325E-1
    1.523       0.6919E-3    -.1312E-1    0.6319E-3    -.1530E-1    0.6919E-3    -.1312E-1
    1.543       0.7033E-3    -.1298E-1    0.6425E-3    -.1518E-1    0.7033E-3    -.1298E-1
    1.563       0.7148E-3    -.1284E-1    0.6532E-3    -.1505E-1    0.7148E-3    -.1284E-1
    1.583       0.7265E-3    -.1269E-1    0.6641E-3    -.1492E-1    0.7265E-3    -.1269E-1
    1.603       0.7384E-3    -.1255E-1    0.6752E-3    -.1478E-1    0.7384E-3    -.1255E-1
    1.623       0.7504E-3    -.1240E-1    0.6865E-3    -.1465E-1    0.7504E-3    -.1240E-1
    1.643       0.7627E-3    -.1224E-1    0.6980E-3    -.1451E-1    0.7627E-3    -.1224E-1
    1.663       0.7751E-3    -.1209E-1    0.7097E-3    -.1437E-1    0.7751E-3    -.1209E-1
    1.683       0.7878E-3    -.1194E-1    0.7215E-3    -.1422E-1    0.7878E-3    -.1194E-1
    1.703       0.8007E-3    -.1178E-1    0.7337E-3    -.1408E-1    0.8007E-3    -.1178E-1
    1.723       0.8138E-3    -.1161E-1    0.7461E-3    -.1393E-1    0.8138E-3    -.1161E-1
    1.743       0.8272E-3    -.1145E-1    0.7587E-3    -.1378E-1    0.8272E-3    -.1145E-1
    1.764       0.8408E-3    -.1128E-1    0.7716E-3    -.1363E-1    0.8408E-3    -.1128E-1
    1.784       0.8548E-3    -.1111E-1    0.7849E-3    -.1347E-1    0.8548E-3    -.1111E-1
    1.804       0.8691E-3    -.1094E-1    0.7984E-3    -.1331E-1    0.8691E-3    -.1094E-1
    1.824       0.8837E-3    -.1077E-1    0.8123E-3    -.1315E-1    0.8837E-3    -.1077E-1
    1.844       0.8987E-3    -.1059E-1    0.8266E-3    -.1299E-1    0.8987E-3    -.1059E-1
    1.864       0.9141E-3    -.1041E-1    0.8413E-3    -.1282E-1    0.9141E-3    -.1041E-1
    1.884       0.9299E-3    -.1022E-1    0.8565E-3    -.1265E-1    0.9299E-3    -.1022E-1
    1.904       0.9462E-3    -.1004E-1    0.8721E-3    -.1248E-1    0.9462E-3    -.1004E-1
    1.924       0.9630E-3    -.9847E-2    0.8883E-3    -.1231E-1    0.9630E-3    -.9847E-2
    1.944       0.9803E-3    -.9653E-2    0.9050E-3    -.1213E-1    0.9803E-3    -.9653E-2
    1.964       0.9983E-3    -.9456E-2    0.9223E-3    -.1195E-1    0.9983E-3    -.9456E-2
    1.984       0.1017E-2    -.9256E-2    0.9403E-3    -.1176E-1    0.1017E-2    -.9256E-2
    2.004       0.1036E-2    -.9051E-2    0.9590E-3    -.1157E-1    0.1036E-2    -.9051E-2
    2.024       0.1056E-2    -.8843E-2    0.9785E-3    -.1138E-1    0.1056E-2    -.8843E-2
    2.044       0.1077E-2    -.8631E-2    0.9989E-3    -.1118E-1    0.1077E-2    -.8631E-2
    2.064       0.1099E-2    -.8414E-2    0.1020E-2    -.1098E-1    0.1099E-2    -.8414E-2
    2.084       0.1122E-2    -.8194E-2    0.1043E-2    -.1078E-1    0.1122E-2    -.8194E-2
    2.104       0.1146E-2    -.7969E-2    0.1066E-2    -.1057E-1    0.1146E-2    -.7969E-2
    2.124       0.1171E-2    -.7739E-2    0.1091E-2    -.1035E-1    0.1171E-2    -.7739E-2
    2.144       0.1198E-2    -.7504E-2    0.1118E-2    -.1013E-1    0.1198E-2    -.7504E-2
    2.164       0.1227E-2    -.7264E-2    0.1146E-2    -.9911E-2    0.1227E-2    -.7264E-2
    2.184       0.1257E-2    -.7018E-2    0.1176E-2    -.9682E-2    0.1257E-2    -.7018E-2
    2.204       0.1289E-2    -.6767E-2    0.1208E-2    -.9447E-2    0.1289E-2    -.6767E-2
    2.224       0.1324E-2    -.6510E-2    0.1242E-2    -.9206E-2    0.1324E-2    -.6510E-2
    2.244       0.1361E-2    -.6246E-2    0.1279E-2    -.8958E-2    0.1361E-2    -.6246E-2
    2.265       0.1402E-2    -.5974E-2    0.1319E-2    -.8704E-2    0.1402E-2    -.5975E-2
    2.285       0.1446E-2    -.5696E-2    0.1362E-2    -.8442E-2    0.1446E-2    -.5696E-2
    2.305       0.1494E-2    -.5409E-2    0.1410E-2    -.8171E-2    0.1494E-2    -.5409E-2
    2.325       0.1546E-2    -.5114E-2    0.1462E-2    -.7893E-2    0.1546E-2    -.5114E-2
    2.345       0.1605E-2    -.4809E-2    0.1520E-2    -.7604E-2    0.1605E-2    -.4809E-2
    2.365       0.1670E-2    -.4494E-2    0.1584E-2    -.7306E-2    0.1670E-2    -.4494E-2
    2.385       0.1742E-2    -.4167E-2    0.1656E-2    -.6996E-2    0.1742E-2    -.4167E-2
    2.405       0.1824E-2    -.3829E-2    0.1736E-2    -.6674E-2    0.1824E-2    -.3829E-2
    2.425       0.1918E-2    -.3477E-2    0.1827E-2    -.6338E-2    0.1918E-2    -.3477E-2
    2.445       0.2025E-2    -.3110E-2    0.1931E-2    -.5988E-2    0.2025E-2    -.3110E-2
    2.465       0.2149E-2    -.2728E-2    0.2051E-2    -.5622E-2    0.2149E-2    -.2728E-2
    2.485       0.2293E-2    -.2328E-2    0.2190E-2    -.5237E-2    0.2293E-2    -.2328E-2
    2.505       0.2464E-2    -.1909E-2    0.2353E-2    -.4834E-2    0.2464E-2    -.1909E-2
    2.525       0.2668E-2    -.1471E-2    0.2545E-2    -.4409E-2    0.2668E-2    -.1471E-2
    2.545       0.2913E-2    -.1011E-2    0.2775E-2    -.3962E-2    0.2913E-2    -.1011E-2
    2.565       0.3213E-2    -.5325E-3    0.3053E-2    -.3492E-2    0.3212E-2    -.5326E-3
    2.585       0.3582E-2    -.3704E-4    0.3393E-2    -.2999E-2    0.3581E-2    -.3710E-4
    2.605       0.4041E-2    0.4673E-3    0.3812E-2    -.2488E-2    0.4041E-2    0.4672E-3
    2.625       0.4618E-2    0.9641E-3    0.4334E-2    -.1966E-2    0.4617E-2    0.9641E-3
    2.645       0.5344E-2    0.1422E-2    0.4990E-2    -.1452E-2    0.5343E-2    0.1422E-2
    2.665       0.6250E-2    0.1785E-2    0.5816E-2    -.9795E-3    0.6249E-2    0.1786E-2
    2.685       0.7355E-2    0.1960E-2    0.6849E-2    -.6125E-3    0.7354E-2    0.1961E-2
    2.705       0.8629E-2    0.1809E-2    0.8114E-2    -.4557E-3    0.8627E-2    0.1811E-2
    2.725       0.9939E-2    0.1174E-2    0.9581E-2    -.6657E-3    0.9938E-2    0.1177E-2
    2.745       0.1101E-1    -.2487E-4    0.1111E-1    -.1426E-2    0.1101E-1    -.2087E-4
    2.766       0.1150E-1    -.1653E-2    0.1238E-1    -.2844E-2    0.1150E-1    -.1649E-2
      2.7856       0.0112      -0.0033       0.0130      -0.0048       0.0112      -0.0033
      2.8056       0.0103      -0.0046       0.0127      -0.0068       0.0103      -0.0046
      2.8257       0.0090      -0.0053       0.0117      -0.0084       0.0091      -0.0053
      2.8457       0.0078      -0.0056       0.0103      -0.0094       0.0078      -0.0056
      2.8657       0.0067      -0.0054       0.0088      -0.0098       0.0067      -0.0054
      2.8858       0.0058      -0.0050       0.0075      -0.0097       0.0058      -0.0050
      2.9058       0.0051      -0.0045       0.0064      -0.0093       0.0051      -0.0045
      2.9259       0.0045      -0.0039       0.0056      -0.0088       0.0045      -0.0039
      2.9459       0.0041      -0.0034       0.0049      -0.0082       0.0041      -0.0034
    2.966       0.3791E-2    -.2766E-2    0.4440E-2    -.7633E-2    0.3792E-2    -.2769E-2
    2.986       0.3537E-2    -.2180E-2    0.4047E-2    -.7024E-2    0.3538E-2    -.2182E-2
    3.006       0.3343E-2    -.1602E-2    0.3744E-2    -.6420E-2    0.3343E-2    -.1604E-2
    3.026       0.3196E-2    -.1032E-2    0.3512E-2    -.5826E-2    0.3196E-2    -.1035E-2
    3.046       0.3086E-2    -.4704E-3    0.3336E-2    -.5242E-2    0.3086E-2    -.4727E-3
    3.066       0.3008E-2    0.8528E-4    0.3206E-2    -.4669E-2    0.3008E-2    0.8294E-4
    3.086       0.2957E-2    0.6368E-3    0.3114E-2    -.4102E-2    0.2957E-2    0.6345E-3
    3.106       0.2928E-2    0.1186E-2    0.3055E-2    -.3541E-2    0.2928E-2    0.1184E-2
    3.126       0.2920E-2    0.1736E-2    0.3023E-2    -.2983E-2    0.2920E-2    0.1734E-2
    3.146       0.2931E-2    0.2289E-2    0.3018E-2    -.2424E-2    0.2930E-2    0.2286E-2
    3.166       0.2960E-2    0.2846E-2    0.3038E-2    -.1862E-2    0.2960E-2    0.2844E-2
    3.186       0.3008E-2    0.3411E-2    0.3083E-2    -.1295E-2    0.3007E-2    0.3408E-2
    3.206       0.3074E-2    0.3985E-2    0.3153E-2    -.7181E-3    0.3073E-2    0.3982E-2
    3.226       0.3160E-2    0.4572E-2    0.3251E-2    -.1299E-3    0.3159E-2    0.4569E-2
    3.246       0.3269E-2    0.5173E-2    0.3379E-2    0.4732E-3    0.3268E-2    0.5169E-2
    3.267       0.3403E-2    0.5791E-2    0.3542E-2    0.1094E-2    0.3402E-2    0.5788E-2
    3.287       0.3567E-2    0.6430E-2    0.3747E-2    0.1736E-2    0.3565E-2    0.6426E-2
    3.307       0.3765E-2    0.7091E-2    0.4003E-2    0.2402E-2    0.3762E-2    0.7088E-2
    3.327       0.4005E-2    0.7779E-2    0.4320E-2    0.3093E-2    0.4002E-2    0.7775E-2
      3.3467       0.0043       0.0085       0.0047       0.0038       0.0043       0.0085
      3.3667       0.0047       0.0092       0.0052       0.0046       0.0047       0.0092
      3.3868       0.0051       0.0100       0.0058       0.0053       0.0051       0.0100
      3.4068       0.0056       0.0108       0.0066       0.0061       0.0056       0.0108
      3.4269       0.0063       0.0117       0.0076       0.0068       0.0063       0.0117
      3.4469       0.0072       0.0125       0.0089       0.0074       0.0072       0.0125
      3.4669       0.0083       0.0133       0.0105       0.0079       0.0082       0.0133
      3.4870       0.0096       0.0140       0.0124       0.0079       0.0096       0.0140
      3.5070       0.0113       0.0145       0.0145       0.0073       0.0113       0.0146
      3.5271       0.0134       0.0147       0.0166       0.0059       0.0134       0.0147
    3.547       0.1572E-1    0.1412E-1    0.1809E-1    0.3492E-2    0.1569E-1    0.1413E-1
    3.567       0.1803E-1    0.1263E-1    0.1846E-1    0.5702E-3    0.1801E-1    0.1266E-1
    3.587       0.1977E-1    0.1013E-1    0.1757E-1    -.2181E-2    0.1976E-1    0.1017E-1
      3.6072       0.0203       0.0070       0.0158      -0.0042       0.0203       0.0070
      3.6273       0.0195       0.0039       0.0136      -0.0052       0.0195       0.0040
    3.647       0.1759E-1    0.1683E-2    0.1160E-1    -.5444E-2    0.1762E-1    0.1708E-2
    3.667       0.1527E-1    0.4747E-3    0.9865E-2    -.5173E-2    0.1530E-1    0.4866E-3
    3.687       0.1303E-1    0.1507E-3    0.8456E-2    -.4602E-2    0.1306E-1    0.1528E-3
    3.707       0.1110E-1    0.4263E-3    0.7342E-2    -.3876E-2    0.1112E-1    0.4225E-3
    3.727       0.9526E-2    0.1053E-2    0.6470E-2    -.3083E-2    0.9546E-2    0.1046E-2
    3.747       0.8284E-2    0.1863E-2    0.5787E-2    -.2270E-2    0.8300E-2    0.1855E-2
    3.768       0.7311E-2    0.2755E-2    0.5251E-2    -.1462E-2    0.7324E-2    0.2747E-2
    3.788       0.6551E-2    0.3674E-2    0.4828E-2    -.6708E-3    0.6561E-2    0.3665E-2
    3.808       0.5956E-2    0.4591E-2    0.4494E-2    0.9944E-4    0.5964E-2    0.4582E-2
    3.828       0.5489E-2    0.5491E-2    0.4230E-2    0.8482E-3    0.5495E-2    0.5483E-2
    3.848       0.5121E-2    0.6370E-2    0.4021E-2    0.1577E-2    0.5126E-2    0.6362E-2
    3.868       0.4830E-2    0.7227E-2    0.3856E-2    0.2289E-2    0.4834E-2    0.7219E-2
    3.888       0.4601E-2    0.8063E-2    0.3728E-2    0.2985E-2    0.4605E-2    0.8056E-2
    3.908       0.4422E-2    0.8880E-2    0.3630E-2    0.3671E-2    0.4425E-2    0.8874E-2
    3.928       0.4284E-2    0.9683E-2    0.3559E-2    0.4347E-2    0.4287E-2    0.9677E-2
    3.948       0.4180E-2    0.1047E-1    0.3510E-2    0.5017E-2    0.4182E-2    0.1047E-1
    3.968       0.4104E-2    0.1125E-1    0.3480E-2    0.5683E-2    0.4105E-2    0.1125E-1
    3.988       0.4052E-2    0.1203E-1    0.3469E-2    0.6348E-2    0.4054E-2    0.1203E-1
    4.008       0.4023E-2    0.1280E-1    0.3475E-2    0.7015E-2    0.4024E-2    0.1280E-1
    4.028       0.4012E-2    0.1358E-1    0.3496E-2    0.7686E-2    0.4013E-2    0.1357E-1
    4.048       0.4020E-2    0.1435E-1    0.3533E-2    0.8363E-2    0.4020E-2    0.1434E-1
    4.068       0.4044E-2    0.1513E-1    0.3586E-2    0.9049E-2    0.4044E-2    0.1512E-1
    4.088       0.4084E-2    0.1592E-1    0.3655E-2    0.9746E-2    0.4084E-2    0.1591E-1
    4.108       0.4139E-2    0.1671E-1    0.3740E-2    0.1046E-1    0.4140E-2    0.1671E-1
    4.128       0.4211E-2    0.1752E-1    0.3844E-2    0.1118E-1    0.4211E-2    0.1752E-1
    4.148       0.4298E-2    0.1835E-1    0.3967E-2    0.1193E-1    0.4298E-2    0.1834E-1
    4.168       0.4402E-2    0.1919E-1    0.4112E-2    0.1270E-1    0.4402E-2    0.1918E-1
      4.1884       0.0045       0.0200       0.0043       0.0135       0.0045       0.0200
      4.2084       0.0047       0.0209       0.0045       0.0143       0.0047       0.0209
      4.2285       0.0048       0.0218       0.0047       0.0152       0.0048       0.0218
      4.2485       0.0050       0.0228       0.0050       0.0161       0.0050       0.0228
      4.2685       0.0052       0.0238       0.0053       0.0170       0.0052       0.0238
      4.2886       0.0055       0.0248       0.0056       0.0180       0.0055       0.0248
      4.3086       0.0057       0.0258       0.0061       0.0190       0.0057       0.0258
      4.3287       0.0061       0.0269       0.0066       0.0201       0.0061       0.0269
      4.3487       0.0064       0.0281       0.0072       0.0213       0.0064       0.0281
      4.3687       0.0068       0.0293       0.0079       0.0226       0.0068       0.0293
      4.3888       0.0073       0.0306       0.0088       0.0239       0.0073       0.0306
      4.4088       0.0079       0.0320       0.0099       0.0253       0.0078       0.0320
      4.4289       0.0085       0.0334       0.0112       0.0268       0.0085       0.0334
      4.4489       0.0092       0.0350       0.0128       0.0284       0.0092       0.0350
     4.46894      0.01012      0.03665      0.01483      0.03001      0.01012      0.03664
     4.48898      0.01118      0.03842      0.01740      0.03162      0.01117      0.03842
     4.50902      0.01243      0.04033      0.02066      0.03308      0.01243      0.04032
     4.52906      0.01395      0.04237      0.02478      0.03418      0.01395      0.04236
     4.54910      0.01581      0.04456      0.02987      0.03451      0.01580      0.04455
     4.56914      0.01809      0.04689      0.03592      0.03347      0.01808      0.04688
     4.58918      0.02093      0.04934      0.04250      0.03026      0.02092      0.04933
     4.60922      0.02449      0.05186      0.04848      0.02425      0.02448      0.05185
     4.62926      0.02899      0.05432      0.05218      0.01561      0.02897      0.05431
      4.6493       0.0347       0.0565       0.0522       0.0059       0.0347       0.0565
    4.669       0.4185E-1    0.5794E-1    0.4843E-1    -.2756E-2    0.4182E-1    0.5793E-1
      4.6894       0.0507       0.0580       0.0424      -0.0087       0.0506       0.0580
     4.70942      0.06103      0.05545      0.03586     -0.01191      0.06099      0.05546
     4.72946      0.07201      0.04909      0.02983     -0.01293      0.07197      0.04911
     4.74950      0.08153      0.03794      0.02475     -0.01258      0.08150      0.03799
     4.76954      0.08668      0.02272      0.02065     -0.01147      0.08667      0.02277
      4.7896       0.0854       0.0063       0.0174      -0.0100       0.0854       0.0064
      4.8096       0.0783      -0.0076       0.0148      -0.0084       0.0783      -0.0075
      4.8297       0.0679      -0.0169       0.0128      -0.0068       0.0679      -0.0168
      4.8497       0.0570      -0.0216       0.0112      -0.0052       0.0570      -0.0216
    4.870       0.4714E-1    -.2297E-1    0.9873E-2    -.3668E-2    0.4717E-1    -.2297E-1
    4.890       0.3897E-1    -.2229E-1    0.8811E-2    -.2244E-2    0.3899E-1    -.2229E-1
    4.910       0.3240E-1    -.2048E-1    0.7938E-2    -.9064E-3    0.3242E-1    -.2049E-1
    4.930       0.2721E-1    -.1816E-1    0.7216E-2    0.3498E-3    0.2722E-1    -.1816E-1
    4.950       0.2311E-1    -.1564E-1    0.6612E-2    0.1531E-2    0.2312E-1    -.1565E-1
    4.970       0.1985E-1    -.1313E-1    0.6103E-2    0.2642E-2    0.1986E-1    -.1313E-1
    4.990       0.1725E-1    -.1070E-1    0.5671E-2    0.3692E-2    0.1725E-1    -.1071E-1
    5.010       0.1515E-1    -.8405E-2    0.5302E-2    0.4687E-2    0.1515E-1    -.8410E-2
    5.030       0.1344E-1    -.6252E-2    0.4984E-2    0.5631E-2    0.1344E-1    -.6256E-2
    5.050       0.1203E-1    -.4241E-2    0.4709E-2    0.6532E-2    0.1203E-1    -.4245E-2
    5.070       0.1086E-1    -.2366E-2    0.4470E-2    0.7392E-2    0.1086E-1    -.2369E-2
    5.090       0.9880E-2    -.6148E-3    0.4261E-2    0.8218E-2    0.9883E-2    -.6181E-3
    5.110       0.9054E-2    0.1023E-2    0.4077E-2    0.9011E-2    0.9056E-2    0.1020E-2
    5.130       0.8351E-2    0.2559E-2    0.3915E-2    0.9776E-2    0.8353E-2    0.2556E-2
    5.150       0.7750E-2    0.4003E-2    0.3771E-2    0.1052E-1    0.7751E-2    0.4000E-2
    5.170       0.7231E-2    0.5366E-2    0.3644E-2    0.1123E-1    0.7232E-2    0.5363E-2
    5.190       0.6781E-2    0.6655E-2    0.3530E-2    0.1193E-1    0.6782E-2    0.6653E-2
    5.210       0.6389E-2    0.7880E-2    0.3428E-2    0.1261E-1    0.6390E-2    0.7878E-2
    5.230       0.6045E-2    0.9046E-2    0.3337E-2    0.1327E-1    0.6046E-2    0.9044E-2
    5.251       0.5743E-2    0.1016E-1    0.3255E-2    0.1391E-1    0.5744E-2    0.1016E-1
    5.271       0.5475E-2    0.1123E-1    0.3181E-2    0.1454E-1    0.5476E-2    0.1122E-1
    5.291       0.5238E-2    0.1225E-1    0.3114E-2    0.1516E-1    0.5239E-2    0.1225E-1
    5.311       0.5027E-2    0.1324E-1    0.3054E-2    0.1577E-1    0.5027E-2    0.1323E-1
    5.331       0.4838E-2    0.1419E-1    0.2999E-2    0.1637E-1    0.4838E-2    0.1419E-1
    5.351       0.4668E-2    0.1511E-1    0.2950E-2    0.1696E-1    0.4669E-2    0.1511E-1
    5.371       0.4516E-2    0.1600E-1    0.2905E-2    0.1754E-1    0.4516E-2    0.1600E-1
    5.391       0.4378E-2    0.1687E-1    0.2864E-2    0.1811E-1    0.4379E-2    0.1687E-1
    5.411       0.4254E-2    0.1771E-1    0.2827E-2    0.1867E-1    0.4254E-2    0.1771E-1
    5.431       0.4142E-2    0.1853E-1    0.2793E-2    0.1923E-1    0.4142E-2    0.1853E-1
    5.451       0.4040E-2    0.1934E-1    0.2762E-2    0.1978E-1    0.4040E-2    0.1933E-1
    5.471       0.3947E-2    0.2012E-1    0.2734E-2    0.2033E-1    0.3947E-2    0.2012E-1
    5.491       0.3862E-2    0.2089E-1    0.2708E-2    0.2087E-1    0.3862E-2    0.2089E-1
    5.511       0.3785E-2    0.2164E-1    0.2685E-2    0.2140E-1    0.3785E-2    0.2164E-1
    5.531       0.3715E-2    0.2238E-1    0.2664E-2    0.2194E-1    0.3715E-2    0.2238E-1
    5.551       0.3650E-2    0.2311E-1    0.2644E-2    0.2246E-1    0.3650E-2    0.2311E-1
    5.571       0.3591E-2    0.2383E-1    0.2627E-2    0.2299E-1    0.3591E-2    0.2383E-1
    5.591       0.3537E-2    0.2454E-1    0.2611E-2    0.2351E-1    0.3537E-2    0.2453E-1
    5.611       0.3488E-2    0.2523E-1    0.2596E-2    0.2403E-1    0.3488E-2    0.2523E-1
    5.631       0.3442E-2    0.2592E-1    0.2583E-2    0.2455E-1    0.3442E-2    0.2592E-1
    5.651       0.3400E-2    0.2660E-1    0.2571E-2    0.2506E-1    0.3400E-2    0.2660E-1
    5.671       0.3362E-2    0.2727E-1    0.2561E-2    0.2558E-1    0.3362E-2    0.2727E-1
    5.691       0.3326E-2    0.2794E-1    0.2551E-2    0.2609E-1    0.3327E-2    0.2794E-1
    5.711       0.3294E-2    0.2860E-1    0.2543E-2    0.2659E-1    0.3294E-2    0.2859E-1
    5.731       0.3264E-2    0.2925E-1    0.2535E-2    0.2710E-1    0.3264E-2    0.2925E-1
    5.752       0.3237E-2    0.2990E-1    0.2528E-2    0.2761E-1    0.3237E-2    0.2989E-1
    5.772       0.3212E-2    0.3054E-1    0.2523E-2    0.2811E-1    0.3212E-2    0.3054E-1
    5.792       0.3189E-2    0.3118E-1    0.2518E-2    0.2862E-1    0.3189E-2    0.3118E-1
    5.812       0.3168E-2    0.3181E-1    0.2513E-2    0.2912E-1    0.3168E-2    0.3181E-1
    5.832       0.3148E-2    0.3244E-1    0.2509E-2    0.2962E-1    0.3148E-2    0.3244E-1
    5.852       0.3131E-2    0.3307E-1    0.2506E-2    0.3012E-1    0.3131E-2    0.3307E-1
    5.872       0.3114E-2    0.3369E-1    0.2504E-2    0.3062E-1    0.3114E-2    0.3369E-1
    5.892       0.3100E-2    0.3431E-1    0.2502E-2    0.3112E-1    0.3100E-2    0.3431E-1
    5.912       0.3086E-2    0.3493E-1    0.2501E-2    0.3162E-1    0.3086E-2    0.3493E-1
    5.932       0.3074E-2    0.3554E-1    0.2500E-2    0.3212E-1    0.3074E-2    0.3554E-1
    5.952       0.3063E-2    0.3616E-1    0.2500E-2    0.3263E-1    0.3063E-2    0.3615E-1
    5.972       0.3054E-2    0.3677E-1    0.2500E-2    0.3313E-1    0.3053E-2    0.3677E-1
    5.992       0.3045E-2    0.3738E-1    0.2500E-2    0.3363E-1    0.3045E-2    0.3738E-1
    6.012       0.3037E-2    0.3798E-1    0.2501E-2    0.3413E-1    0.3037E-2    0.3798E-1
    6.032       0.3030E-2    0.3859E-1    0.2502E-2    0.3463E-1    0.3030E-2    0.3859E-1
    6.052       0.3024E-2    0.3920E-1    0.2504E-2    0.3513E-1    0.3024E-2    0.3919E-1
    6.072       0.3019E-2    0.3980E-1    0.2506E-2    0.3563E-1    0.3019E-2    0.3980E-1
    6.092       0.3015E-2    0.4040E-1    0.2508E-2    0.3613E-1    0.3014E-2    0.4040E-1
    6.112       0.3011E-2    0.4101E-1    0.2511E-2    0.3663E-1    0.3010E-2    0.4100E-1
    6.132       0.3008E-2    0.4161E-1    0.2514E-2    0.3714E-1    0.3007E-2    0.4161E-1
    6.152       0.3006E-2    0.4221E-1    0.2517E-2    0.3764E-1    0.3005E-2    0.4221E-1
    6.172       0.3004E-2    0.4281E-1    0.2520E-2    0.3814E-1    0.3003E-2    0.4281E-1
    6.192       0.3003E-2    0.4341E-1    0.2524E-2    0.3865E-1    0.3002E-2    0.4341E-1
    6.212       0.3002E-2    0.4401E-1    0.2528E-2    0.3916E-1    0.3001E-2    0.4401E-1
    6.232       0.3002E-2    0.4461E-1    0.2532E-2    0.3966E-1    0.3001E-2    0.4461E-1
    6.253       0.3002E-2    0.4521E-1    0.2537E-2    0.4017E-1    0.3002E-2    0.4521E-1
    6.273       0.3003E-2    0.4581E-1    0.2541E-2    0.4068E-1    0.3002E-2    0.4581E-1
    6.293       0.3004E-2    0.4641E-1    0.2546E-2    0.4119E-1    0.3004E-2    0.4641E-1
    6.313       0.3006E-2    0.4701E-1    0.2551E-2    0.4170E-1    0.3006E-2    0.4701E-1
    6.333       0.3008E-2    0.4762E-1    0.2557E-2    0.4221E-1    0.3008E-2    0.4762E-1
    6.353       0.3011E-2    0.4822E-1    0.2562E-2    0.4272E-1    0.3010E-2    0.4822E-1
    6.373       0.3014E-2    0.4882E-1    0.2568E-2    0.4324E-1    0.3013E-2    0.4882E-1
    6.393       0.3017E-2    0.4943E-1    0.2573E-2    0.4375E-1    0.3017E-2    0.4943E-1
    6.413       0.3021E-2    0.5003E-1    0.2579E-2    0.4427E-1    0.3020E-2    0.5003E-1
    6.433       0.3025E-2    0.5063E-1    0.2586E-2    0.4478E-1    0.3025E-2    0.5063E-1
    6.453       0.3029E-2    0.5124E-1    0.2592E-2    0.4530E-1    0.3029E-2    0.5124E-1
    6.473       0.3034E-2    0.5185E-1    0.2598E-2    0.4582E-1    0.3034E-2    0.5185E-1
    6.493       0.3039E-2    0.5246E-1    0.2605E-2    0.4634E-1    0.3039E-2    0.5246E-1
    6.513       0.3044E-2    0.5306E-1    0.2612E-2    0.4687E-1    0.3044E-2    0.5306E-1
    6.533       0.3050E-2    0.5367E-1    0.2619E-2    0.4739E-1    0.3050E-2    0.5367E-1
    6.553       0.3056E-2    0.5429E-1    0.2626E-2    0.4791E-1    0.3055E-2    0.5429E-1
    6.573       0.3062E-2    0.5490E-1    0.2633E-2    0.4844E-1    0.3062E-2    0.5490E-1
    6.593       0.3068E-2    0.5551E-1    0.2640E-2    0.4897E-1    0.3068E-2    0.5551E-1
    6.613       0.3075E-2    0.5613E-1    0.2648E-2    0.4950E-1    0.3075E-2    0.5613E-1
    6.633       0.3082E-2    0.5674E-1    0.2655E-2    0.5003E-1    0.3082E-2    0.5674E-1
    6.653       0.3089E-2    0.5736E-1    0.2663E-2    0.5056E-1    0.3089E-2    0.5736E-1
    6.673       0.3096E-2    0.5798E-1    0.2671E-2    0.5110E-1    0.3096E-2    0.5798E-1
    6.693       0.3104E-2    0.5860E-1    0.2679E-2    0.5163E-1    0.3104E-2    0.5860E-1
    6.713       0.3112E-2    0.5922E-1    0.2687E-2    0.5217E-1    0.3112E-2    0.5922E-1
    6.733       0.3120E-2    0.5985E-1    0.2695E-2    0.5271E-1    0.3120E-2    0.5985E-1
    6.754       0.3128E-2    0.6047E-1    0.2703E-2    0.5325E-1    0.3128E-2    0.6047E-1
    6.774       0.3137E-2    0.6110E-1    0.2711E-2    0.5379E-1    0.3137E-2    0.6110E-1
    6.794       0.3145E-2    0.6173E-1    0.2720E-2    0.5434E-1    0.3145E-2    0.6173E-1
    6.814       0.3154E-2    0.6236E-1    0.2728E-2    0.5488E-1    0.3154E-2    0.6236E-1
    6.834       0.3163E-2    0.6299E-1    0.2737E-2    0.5543E-1    0.3163E-2    0.6299E-1
    6.854       0.3173E-2    0.6363E-1    0.2746E-2    0.5598E-1    0.3173E-2    0.6363E-1
    6.874       0.3182E-2    0.6427E-1    0.2755E-2    0.5653E-1    0.3182E-2    0.6427E-1
    6.894       0.3192E-2    0.6490E-1    0.2764E-2    0.5708E-1    0.3192E-2    0.6490E-1
    6.914       0.3202E-2    0.6554E-1    0.2773E-2    0.5764E-1    0.3202E-2    0.6554E-1
    6.934       0.3212E-2    0.6619E-1    0.2782E-2    0.5819E-1    0.3212E-2    0.6619E-1
    6.954       0.3222E-2    0.6683E-1    0.2791E-2    0.5875E-1    0.3222E-2    0.6683E-1
    6.974       0.3232E-2    0.6748E-1    0.2801E-2    0.5931E-1    0.3232E-2    0.6748E-1
    6.994       0.3243E-2    0.6813E-1    0.2810E-2    0.5987E-1    0.3243E-2    0.6813E-1
    7.014       0.3254E-2    0.6878E-1    0.2820E-2    0.6044E-1    0.3254E-2    0.6878E-1
    7.034       0.3265E-2    0.6943E-1    0.2829E-2    0.6100E-1    0.3265E-2    0.6943E-1
    7.054       0.3276E-2    0.7008E-1    0.2839E-2    0.6157E-1    0.3276E-2    0.7008E-1
    7.074       0.3287E-2    0.7074E-1    0.2849E-2    0.6214E-1    0.3287E-2    0.7074E-1
    7.094       0.3299E-2    0.7140E-1    0.2859E-2    0.6271E-1    0.3299E-2    0.7140E-1
    7.114       0.3310E-2    0.7206E-1    0.2869E-2    0.6329E-1    0.3310E-2    0.7206E-1
    7.134       0.3322E-2    0.7273E-1    0.2879E-2    0.6386E-1    0.3322E-2    0.7273E-1
    7.154       0.3334E-2    0.7339E-1    0.2889E-2    0.6444E-1    0.3334E-2    0.7339E-1
    7.174       0.3346E-2    0.7406E-1    0.2900E-2    0.6502E-1    0.3346E-2    0.7406E-1
    7.194       0.3359E-2    0.7473E-1    0.2910E-2    0.6560E-1    0.3359E-2    0.7473E-1
    7.214       0.3371E-2    0.7541E-1    0.2921E-2    0.6619E-1    0.3371E-2    0.7541E-1
    7.234       0.3384E-2    0.7608E-1    0.2931E-2    0.6677E-1    0.3384E-2    0.7608E-1
    7.255       0.3397E-2    0.7676E-1    0.2942E-2    0.6736E-1    0.3397E-2    0.7676E-1
    7.275       0.3410E-2    0.7745E-1    0.2953E-2    0.6795E-1    0.3410E-2    0.7745E-1
    7.295       0.3424E-2    0.7813E-1    0.2964E-2    0.6854E-1    0.3424E-2    0.7813E-1
    7.315       0.3437E-2    0.7882E-1    0.2975E-2    0.6914E-1    0.3437E-2    0.7882E-1
    7.335       0.3451E-2    0.7951E-1    0.2986E-2    0.6974E-1    0.3451E-2    0.7951E-1
    7.355       0.3465E-2    0.8020E-1    0.2997E-2    0.7034E-1    0.3465E-2    0.8020E-1
    7.375       0.3479E-2    0.8090E-1    0.3009E-2    0.7094E-1    0.3479E-2    0.8090E-1
    7.395       0.3493E-2    0.8159E-1    0.3020E-2    0.7154E-1    0.3493E-2    0.8159E-1
    7.415       0.3508E-2    0.8229E-1    0.3032E-2    0.7215E-1    0.3508E-2    0.8229E-1
    7.435       0.3522E-2    0.8300E-1    0.3044E-2    0.7276E-1    0.3522E-2    0.8300E-1
    7.455       0.3537E-2    0.8371E-1    0.3055E-2    0.7337E-1    0.3537E-2    0.8371E-1
    7.475       0.3552E-2    0.8442E-1    0.3067E-2    0.7398E-1    0.3552E-2    0.8442E-1
    7.495       0.3568E-2    0.8513E-1    0.3079E-2    0.7460E-1    0.3568E-2    0.8513E-1
    7.515       0.3583E-2    0.8584E-1    0.3091E-2    0.7521E-1    0.3583E-2    0.8584E-1
    7.535       0.3599E-2    0.8656E-1    0.3104E-2    0.7584E-1    0.3599E-2    0.8656E-1
    7.555       0.3615E-2    0.8729E-1    0.3116E-2    0.7646E-1    0.3615E-2    0.8729E-1
    7.575       0.3631E-2    0.8801E-1    0.3129E-2    0.7708E-1    0.3631E-2    0.8801E-1
    7.595       0.3648E-2    0.8874E-1    0.3141E-2    0.7771E-1    0.3648E-2    0.8874E-1
    7.615       0.3665E-2    0.8947E-1    0.3154E-2    0.7834E-1    0.3665E-2    0.8947E-1
    7.635       0.3682E-2    0.9021E-1    0.3167E-2    0.7898E-1    0.3682E-2    0.9021E-1
    7.655       0.3699E-2    0.9095E-1    0.3180E-2    0.7961E-1    0.3699E-2    0.9095E-1
    7.675       0.3717E-2    0.9169E-1    0.3193E-2    0.8025E-1    0.3717E-2    0.9169E-1
    7.695       0.3735E-2    0.9244E-1    0.3207E-2    0.8089E-1    0.3735E-2    0.9244E-1
    7.715       0.3753E-2    0.9319E-1    0.3220E-2    0.8153E-1    0.3753E-2    0.9319E-1
    7.735       0.3771E-2    0.9394E-1    0.3234E-2    0.8218E-1    0.3771E-2    0.9394E-1
    7.756       0.3790E-2    0.9470E-1    0.3248E-2    0.8283E-1    0.3790E-2    0.9470E-1
    7.776       0.3809E-2    0.9546E-1    0.3262E-2    0.8348E-1    0.3809E-2    0.9546E-1
    7.796       0.3829E-2    0.9622E-1    0.3276E-2    0.8414E-1    0.3829E-2    0.9622E-1
    7.816       0.3849E-2    0.9699E-1    0.3291E-2    0.8479E-1    0.3849E-2    0.9699E-1
    7.836       0.3869E-2    0.9776E-1    0.3305E-2    0.8546E-1    0.3869E-2    0.9776E-1
    7.856       0.3890E-2    0.9854E-1    0.3320E-2    0.8612E-1    0.3890E-2    0.9854E-1
    7.876       0.3911E-2    0.9932E-1    0.3335E-2    0.8679E-1    0.3911E-2    0.9932E-1
    7.896       0.3932E-2    0.1001       0.3350E-2    0.8745E-1    0.3932E-2    0.1001   
    7.916       0.3954E-2    0.1009       0.3366E-2    0.8813E-1    0.3954E-2    0.1009   
    7.936       0.3976E-2    0.1017       0.3381E-2    0.8880E-1    0.3976E-2    0.1017   
    7.956       0.3999E-2    0.1025       0.3397E-2    0.8948E-1    0.3999E-2    0.1025   
    7.976       0.4022E-2    0.1033       0.3414E-2    0.9016E-1    0.4022E-2    0.1033   
    7.996       0.4046E-2    0.1041       0.3430E-2    0.9085E-1    0.4046E-2    0.1041   
    8.016       0.4070E-2    0.1049       0.3447E-2    0.9154E-1    0.4070E-2    0.1049   
    8.036       0.4095E-2    0.1057       0.3464E-2    0.9223E-1    0.4095E-2    0.1057   
    8.056       0.4121E-2    0.1066       0.3481E-2    0.9292E-1    0.4121E-2    0.1066   
    8.076       0.4147E-2    0.1074       0.3499E-2    0.9362E-1    0.4147E-2    0.1074   
    8.096       0.4174E-2    0.1082       0.3517E-2    0.9433E-1    0.4174E-2    0.1082   
    8.116       0.4201E-2    0.1090       0.3536E-2    0.9503E-1    0.4201E-2    0.1090   
    8.136       0.4229E-2    0.1099       0.3554E-2    0.9574E-1    0.4229E-2    0.1099   
    8.156       0.4258E-2    0.1107       0.3574E-2    0.9646E-1    0.4258E-2    0.1107   
    8.176       0.4288E-2    0.1116       0.3593E-2    0.9717E-1    0.4288E-2    0.1116   
    8.196       0.4319E-2    0.1125       0.3613E-2    0.9789E-1    0.4319E-2    0.1125   
    8.216       0.4350E-2    0.1133       0.3634E-2    0.9862E-1    0.4350E-2    0.1133   
    8.236       0.4383E-2    0.1142       0.3655E-2    0.9935E-1    0.4383E-2    0.1142   
    8.257       0.4417E-2    0.1151       0.3677E-2    0.1001       0.4417E-2    0.1151   
    8.277       0.4451E-2    0.1160       0.3699E-2    0.1008       0.4451E-2    0.1160   
    8.297       0.4487E-2    0.1169       0.3722E-2    0.1016       0.4487E-2    0.1169   
    8.317       0.4524E-2    0.1178       0.3746E-2    0.1023       0.4524E-2    0.1178   
    8.337       0.4563E-2    0.1187       0.3770E-2    0.1031       0.4563E-2    0.1187   
    8.357       0.4603E-2    0.1196       0.3796E-2    0.1038       0.4603E-2    0.1196   
    8.377       0.4644E-2    0.1205       0.3822E-2    0.1046       0.4644E-2    0.1205   
    8.397       0.4688E-2    0.1214       0.3849E-2    0.1053       0.4687E-2    0.1214   
    8.417       0.4732E-2    0.1224       0.3877E-2    0.1061       0.4732E-2    0.1224   
    8.437       0.4779E-2    0.1233       0.3906E-2    0.1069       0.4779E-2    0.1233   
    8.457       0.4828E-2    0.1243       0.3936E-2    0.1077       0.4828E-2    0.1243   
    8.477       0.4879E-2    0.1253       0.3967E-2    0.1085       0.4879E-2    0.1253   
    8.497       0.4933E-2    0.1262       0.4000E-2    0.1093       0.4932E-2    0.1262   
    8.517       0.4989E-2    0.1272       0.4035E-2    0.1101       0.4988E-2    0.1272   
    8.537       0.5047E-2    0.1282       0.4071E-2    0.1109       0.5047E-2    0.1282   
    8.557       0.5109E-2    0.1292       0.4109E-2    0.1117       0.5109E-2    0.1292   
    8.577       0.5175E-2    0.1303       0.4149E-2    0.1125       0.5174E-2    0.1303   
    8.597       0.5243E-2    0.1313       0.4191E-2    0.1134       0.5243E-2    0.1313   
    8.617       0.5316E-2    0.1324       0.4235E-2    0.1142       0.5316E-2    0.1324   
    8.637       0.5393E-2    0.1334       0.4282E-2    0.1150       0.5393E-2    0.1334   
    8.657       0.5475E-2    0.1345       0.4333E-2    0.1159       0.5475E-2    0.1345   
    8.677       0.5562E-2    0.1356       0.4386E-2    0.1168       0.5562E-2    0.1356   
    8.697       0.5655E-2    0.1367       0.4443E-2    0.1176       0.5655E-2    0.1367   
    8.717       0.5755E-2    0.1378       0.4505E-2    0.1185       0.5754E-2    0.1378   
    8.737       0.5861E-2    0.1390       0.4571E-2    0.1194       0.5861E-2    0.1390   
    8.758       0.5975E-2    0.1402       0.4642E-2    0.1203       0.5975E-2    0.1402   
    8.778       0.6098E-2    0.1414       0.4719E-2    0.1213       0.6098E-2    0.1414   
    8.798       0.6231E-2    0.1426       0.4804E-2    0.1222       0.6231E-2    0.1426   
    8.818       0.6375E-2    0.1438       0.4896E-2    0.1232       0.6374E-2    0.1438   
    8.838       0.6531E-2    0.1451       0.4996E-2    0.1241       0.6531E-2    0.1451   
    8.858       0.6702E-2    0.1464       0.5108E-2    0.1251       0.6701E-2    0.1464   
    8.878       0.6888E-2    0.1477       0.5231E-2    0.1262       0.6887E-2    0.1477   
    8.898       0.7093E-2    0.1491       0.5368E-2    0.1272       0.7092E-2    0.1491   
    8.918       0.7318E-2    0.1505       0.5521E-2    0.1282       0.7317E-2    0.1505   
    8.938       0.7567E-2    0.1519       0.5694E-2    0.1293       0.7566E-2    0.1519   
    8.958       0.7843E-2    0.1534       0.5890E-2    0.1304       0.7842E-2    0.1534   
    8.978       0.8152E-2    0.1550       0.6112E-2    0.1316       0.8150E-2    0.1550   
    8.998       0.8497E-2    0.1566       0.6368E-2    0.1328       0.8496E-2    0.1566   
    9.018       0.8887E-2    0.1582       0.6663E-2    0.1340       0.8885E-2    0.1582   
    9.038       0.9327E-2    0.1599       0.7007E-2    0.1353       0.9325E-2    0.1599   
    9.058       0.9829E-2    0.1617       0.7411E-2    0.1366       0.9827E-2    0.1617   
    9.078       0.1040E-1    0.1636       0.7890E-2    0.1380       0.1040E-1    0.1636   
    9.098       0.1107E-1    0.1656       0.8463E-2    0.1394       0.1106E-1    0.1656   
      9.1182       0.0118       0.1677       0.0092       0.1409       0.0118       0.1677
      9.1383       0.0127       0.1699       0.0100       0.1424       0.0127       0.1699
     9.15832      0.01380      0.17217      0.01104      0.14403      0.01379      0.17217
     9.17836      0.01506      0.17462      0.01233      0.14568      0.01506      0.17462
     9.19840      0.01658      0.17722      0.01396      0.14734      0.01657      0.17722
     9.21844      0.01842      0.17998      0.01601      0.14894      0.01841      0.17997
     9.23848      0.02067      0.18289      0.01861      0.15036      0.02066      0.18288
     9.25852      0.02345      0.18595      0.02184      0.15137      0.02343      0.18594
     9.27856      0.02692      0.18911      0.02575      0.15161      0.02690      0.18910
     9.29860      0.03129      0.19228      0.03016      0.15058      0.03126      0.19227
     9.31864      0.03681      0.19526      0.03449      0.14776      0.03678      0.19526
     9.33868      0.04378      0.19771      0.03769      0.14302      0.04374      0.19771
     9.35872      0.05247      0.19899      0.03861      0.13708      0.05242      0.19900
     9.37876      0.06292      0.19812      0.03689      0.13140      0.06286      0.19815
     9.39880      0.07457      0.19373      0.03322      0.12726      0.07451      0.19378
     9.41884      0.08576      0.18452      0.02880      0.12507      0.08571      0.18460
     9.43888      0.09361      0.17035      0.02454      0.12453      0.09359      0.17045
     9.45892      0.09525      0.15338      0.02087      0.12510      0.09527      0.15348
     9.47896      0.09000      0.13752      0.01788      0.12631      0.09005      0.13760
     9.49900      0.07996      0.12595      0.01550      0.12784      0.08004      0.12601
     9.51904      0.06826      0.11951      0.01363      0.12952      0.06834      0.11953
     9.53908      0.05718      0.11724      0.01215      0.13123      0.05725      0.11724
     9.55912      0.04770      0.11772      0.01097      0.13293      0.04776      0.11771
     9.57916      0.04001      0.11978      0.01003      0.13458      0.04005      0.11976
    9.599       0.3390E-1    0.1226       0.9269E-2    0.1362       0.3393E-1    0.1226   
    9.619       0.2907E-1    0.1258       0.8648E-2    0.1377       0.2910E-1    0.1258   
    9.639       0.2526E-1    0.1290       0.8138E-2    0.1392       0.2528E-1    0.1290   
    9.659       0.2222E-1    0.1322       0.7714E-2    0.1406       0.2223E-1    0.1322   
    9.679       0.1978E-1    0.1353       0.7360E-2    0.1420       0.1979E-1    0.1353   
    9.699       0.1780E-1    0.1382       0.7062E-2    0.1434       0.1781E-1    0.1382   
    9.719       0.1618E-1    0.1409       0.6810E-2    0.1447       0.1619E-1    0.1409   
    9.739       0.1484E-1    0.1435       0.6594E-2    0.1460       0.1485E-1    0.1435   
    9.760       0.1373E-1    0.1460       0.6410E-2    0.1472       0.1374E-1    0.1460   
    9.780       0.1279E-1    0.1484       0.6252E-2    0.1485       0.1280E-1    0.1484   
    9.800       0.1200E-1    0.1506       0.6115E-2    0.1497       0.1201E-1    0.1506   
    9.820       0.1133E-1    0.1528       0.5996E-2    0.1508       0.1133E-1    0.1527   
    9.840       0.1075E-1    0.1548       0.5893E-2    0.1520       0.1075E-1    0.1548   
    9.860       0.1025E-1    0.1568       0.5803E-2    0.1532       0.1025E-1    0.1568   
    9.880       0.9817E-2    0.1587       0.5725E-2    0.1543       0.9820E-2    0.1587   
    9.900       0.9441E-2    0.1605       0.5656E-2    0.1554       0.9443E-2    0.1605   
    9.920       0.9111E-2    0.1623       0.5596E-2    0.1565       0.9113E-2    0.1623   
    9.940       0.8821E-2    0.1640       0.5543E-2    0.1576       0.8823E-2    0.1640   
    9.960       0.8565E-2    0.1657       0.5497E-2    0.1587       0.8567E-2    0.1657   
    9.980       0.8339E-2    0.1674       0.5457E-2    0.1598       0.8341E-2    0.1674   
    10.00       0.8138E-2    0.1690       0.5422E-2    0.1609       0.8140E-2    0.1690   
# 
# 01/04/2018 at 13:46 YAMBO_RT @ narro [start]
# 01/04/2018 at 13:46                  [end]
#  
# Timing   [Min/Max/Average]: 01s/01s/01s
#
# .-Input file : yambo.in
# | optics                         # [R OPT] Optics
# | bse                            # [R BSE] Bethe Salpeter Equation.
# | bsk                            # [R BSK] Bethe Salpeter Equation kernel
# | bss                            # [R BSS] Bethe Salpeter Equation solver
# | em1s                           # [R Xs] Static Inverse Dielectric Matrix
# | BoseTemp= 0.000000     eV      # Bosonic Temperature
# | FFTGvecs=  387         RL      # [FFT] Plane-waves
# | Chimod= "hartree"              # [X] IP/Hartree/ALDA/LRC/BSfxc
# | BSEmod= "retarded"             # [BSE] resonant/retarded/coupling
# | BSKmod= "SEX"                  # [BSE] IP/Hartree/HF/ALDA/SEX/BSfxc
# | BSSmod= "h"                    # [BSS] (h)aydock/(d)iagonalization/(i)nversion/(t)ddft`
# | BSENGexx=  531         RL      # [BSK] Exchange components
# | BSENGBlk=  59          RL      # [BSK] Screened interaction block size
# | #WehCpl                        # [BSK] eh interaction included also in coupling
# | KfnQPdb= "E < 08_ypp_gw_10fs_Xonly_part2/ndb.QP_merged_1_gw_ppa_gw_ppa" # [EXTQP BSK BSS] Database
# | % BEnRange
# |   0.00000 | 10.00000 | eV      # [BSS] Energy range
# | %
# | % BDmRange
# |   0.10000 |  0.10000 | eV      # [BSS] Damping range
# | %
# | BEnSteps=  500                 # [BSS] Energy steps
# | % BLongDir
# | 0.1000E-4 | 0.000    | 0.000    |        # [BSS] [cc] Electric Field
# | %
# | % BSEBands
# |   2 |  7 |                     # [BSK] Bands range
# | %
# | BSHayTrs=  0.02000             # [BSS] Relative [o/o] Haydock treshold. Strict(>0)/Average(<0)
# | XfnRTdb= "f @ 0.1 ps < 04_elel+elph_0K/ndb.RT_carriers" # [EXTRT Xd] Database
# | % BndsRnXs
# |   1 |  8 |                     # [Xs] Polarization function bands
# | %
# | NGsBlkXs=  59          RL      # [Xs] Response block size
# | GrFnTpXs= "R"                  # [Xs] Green`s function (T)ordered,(R)etarded,(r)senant,(a)ntiresonant [T, R, r, Ta, Ra]
# | % DmRngeXs
# |   0.10000 |  0.10000 | eV      # [Xs] Damping range
# | %
# | % LongDrXs
# | 0.1000E-4 | 0.000    | 0.000    |        # [Xs] [cc] Electric Field
# | %
