#                                                           
#  /$$     /$$ /$$$$$$  /$$      /$$ /$$$$$$$   /$$$$$$     
# |  $$   /$$//$$__  $$| $$$    /$$$| $$__  $$ /$$__  $$    
#  \  $$ /$$/| $$  \ $$| $$$$  /$$$$| $$  \ $$| $$  \ $$    
#   \  $$$$/ | $$$$$$$$| $$ $$/$$ $$| $$$$$$$ | $$  | $$    
#    \  $$/  | $$__  $$| $$  $$$| $$| $$__  $$| $$  | $$    
#     | $$   | $$  | $$| $$\  $ | $$| $$  \ $$| $$  | $$    
#     | $$   | $$  | $$| $$ \/  | $$| $$$$$$$/|  $$$$$$/    
#     |__/   |__/  |__/|__/     |__/|_______/  \______/     
#                                                           
#       Version 4.2.0 Revision 14600 Hash 48c5260           
#                  MPI+SLK+OpenMP Build                     
#               http://www.yambo-code.org                   
#
# EELS @ Q(1)  [q->0 direction]:0.1000E-4  0.000     0.000   
#
#
# - Energies      are  E < 08_cohsex_eq/ndb.QP + E Fit
# - Wavefunctions are Slater exchange(X)+Perdew & Zunger(C)
#
# - The Green`s function is Retarded -
# - Using the Length Gauge -
# - [r,Vnl] *is* included -
#
#   BSK|Identifier              :7783
#      |Dimension               :100
#      |Bands                   :2 - 7
#      |Exchange           [res]: yes
#      |Correlation        [res]: yes
#      |Kernel`s coupling       : no
#      |Exchange           [cpl]: no
#      |Correlation        [cpl]: no
#      |W interaction is bare   : no
#      |ALDA kernel in R-space  : no
#      |RL vectors    [exchange]:531
#      |RL vectors [correlation]:59
#      |E/h energy range    [ev]:-1.000000 - -1.000000
#      |Coupling range     [o/o]: 100.0000 -  100.0000
#    W |Interaction is diagonal : no
#      |Matrix size             :59
#      |Bands                   :1 - 8
#      |e/h energy range    [ev]:-1.000000 - -1.000000
#      |Poles              [o/o]: 100.0000
#      |RL vectors in the sum   :387
#      |[r,Vnl] included        : yes
#      |Field direction         :0.1000E-4  0.000000  0.000000
#      |Coulomb Cutoff          :none
#      |xc-Kernel               :none
#   RIM|RL components      [col]:0
#      |Random points      [col]:0
#  
#   Haydock|Accuracy (requested) [o/o]:  0.02000
#          |Accuracy (reached)   [o/o]:  0.01030
#          |Iteration                 :28
#
#    E/ev[1]      EEL-Im[2]    EEL-Re[3]    EELo-Im[4]   EELo-Re[5]   EEL`-Im[6]   EEL`-Re[7]
#
     0.00000     -0.00000     -0.03644     -0.00000     -0.04268     -0.00000     -0.03644
   0.2004E-1    0.8996E-5    -.3644E-1    0.7547E-5    -.4267E-1    0.8996E-5    -.3644E-1
   0.4008E-1    0.1799E-4    -.3644E-1    0.1510E-4    -.4267E-1    0.1799E-4    -.3644E-1
   0.6012E-1    0.2699E-4    -.3643E-1    0.2264E-4    -.4267E-1    0.2699E-4    -.3643E-1
   0.8016E-1    0.3599E-4    -.3643E-1    0.3019E-4    -.4266E-1    0.3599E-4    -.3643E-1
   0.1002       0.4499E-4    -.3642E-1    0.3774E-4    -.4266E-1    0.4499E-4    -.3642E-1
   0.1202       0.5399E-4    -.3641E-1    0.4529E-4    -.4265E-1    0.5399E-4    -.3641E-1
   0.1403       0.6299E-4    -.3640E-1    0.5284E-4    -.4264E-1    0.6299E-4    -.3640E-1
   0.1603       0.7199E-4    -.3638E-1    0.6039E-4    -.4263E-1    0.7199E-4    -.3638E-1
   0.1804       0.8099E-4    -.3637E-1    0.6795E-4    -.4261E-1    0.8099E-4    -.3637E-1
   0.2004       0.9000E-4    -.3635E-1    0.7550E-4    -.4260E-1    0.9000E-4    -.3635E-1
   0.2204       0.9900E-4    -.3633E-1    0.8306E-4    -.4258E-1    0.9900E-4    -.3633E-1
   0.2405       0.1080E-3    -.3631E-1    0.9062E-4    -.4257E-1    0.1080E-3    -.3631E-1
   0.2605       0.1170E-3    -.3629E-1    0.9818E-4    -.4255E-1    0.1170E-3    -.3629E-1
   0.2806       0.1260E-3    -.3626E-1    0.1057E-3    -.4253E-1    0.1260E-3    -.3626E-1
   0.3006       0.1351E-3    -.3624E-1    0.1133E-3    -.4250E-1    0.1351E-3    -.3624E-1
   0.3206       0.1441E-3    -.3621E-1    0.1209E-3    -.4248E-1    0.1441E-3    -.3621E-1
   0.3407       0.1531E-3    -.3618E-1    0.1284E-3    -.4246E-1    0.1531E-3    -.3618E-1
   0.3607       0.1621E-3    -.3615E-1    0.1360E-3    -.4243E-1    0.1621E-3    -.3615E-1
   0.3808       0.1712E-3    -.3611E-1    0.1436E-3    -.4240E-1    0.1712E-3    -.3611E-1
   0.4008       0.1802E-3    -.3608E-1    0.1512E-3    -.4237E-1    0.1802E-3    -.3608E-1
   0.4208       0.1892E-3    -.3604E-1    0.1588E-3    -.4234E-1    0.1892E-3    -.3604E-1
   0.4409       0.1983E-3    -.3600E-1    0.1663E-3    -.4231E-1    0.1983E-3    -.3600E-1
   0.4609       0.2073E-3    -.3596E-1    0.1739E-3    -.4227E-1    0.2073E-3    -.3596E-1
   0.4810       0.2164E-3    -.3592E-1    0.1815E-3    -.4224E-1    0.2164E-3    -.3592E-1
   0.5010       0.2254E-3    -.3588E-1    0.1891E-3    -.4220E-1    0.2254E-3    -.3588E-1
   0.5210       0.2345E-3    -.3583E-1    0.1967E-3    -.4216E-1    0.2345E-3    -.3583E-1
   0.5411       0.2436E-3    -.3578E-1    0.2043E-3    -.4212E-1    0.2436E-3    -.3578E-1
   0.5611       0.2526E-3    -.3573E-1    0.2119E-3    -.4208E-1    0.2526E-3    -.3573E-1
   0.5812       0.2617E-3    -.3568E-1    0.2196E-3    -.4204E-1    0.2617E-3    -.3568E-1
   0.6012       0.2708E-3    -.3563E-1    0.2272E-3    -.4199E-1    0.2708E-3    -.3563E-1
   0.6212       0.2799E-3    -.3557E-1    0.2348E-3    -.4195E-1    0.2799E-3    -.3557E-1
   0.6413       0.2890E-3    -.3552E-1    0.2424E-3    -.4190E-1    0.2890E-3    -.3552E-1
   0.6613       0.2981E-3    -.3546E-1    0.2501E-3    -.4185E-1    0.2981E-3    -.3546E-1
   0.6814       0.3072E-3    -.3540E-1    0.2577E-3    -.4180E-1    0.3072E-3    -.3540E-1
   0.7014       0.3163E-3    -.3533E-1    0.2654E-3    -.4175E-1    0.3163E-3    -.3533E-1
   0.7214       0.3255E-3    -.3527E-1    0.2730E-3    -.4169E-1    0.3255E-3    -.3527E-1
   0.7415       0.3346E-3    -.3520E-1    0.2807E-3    -.4164E-1    0.3346E-3    -.3520E-1
   0.7615       0.3438E-3    -.3514E-1    0.2884E-3    -.4158E-1    0.3438E-3    -.3514E-1
   0.7816       0.3529E-3    -.3507E-1    0.2960E-3    -.4152E-1    0.3529E-3    -.3507E-1
   0.8016       0.3621E-3    -.3499E-1    0.3037E-3    -.4146E-1    0.3621E-3    -.3499E-1
   0.8216       0.3712E-3    -.3492E-1    0.3114E-3    -.4140E-1    0.3712E-3    -.3492E-1
   0.8417       0.3804E-3    -.3485E-1    0.3191E-3    -.4134E-1    0.3804E-3    -.3485E-1
   0.8617       0.3896E-3    -.3477E-1    0.3268E-3    -.4127E-1    0.3896E-3    -.3477E-1
   0.8818       0.3988E-3    -.3469E-1    0.3345E-3    -.4121E-1    0.3988E-3    -.3469E-1
   0.9018       0.4080E-3    -.3461E-1    0.3422E-3    -.4114E-1    0.4080E-3    -.3461E-1
   0.9218       0.4172E-3    -.3453E-1    0.3500E-3    -.4107E-1    0.4172E-3    -.3453E-1
   0.9419       0.4264E-3    -.3444E-1    0.3577E-3    -.4100E-1    0.4264E-3    -.3444E-1
   0.9619       0.4357E-3    -.3435E-1    0.3654E-3    -.4093E-1    0.4357E-3    -.3435E-1
   0.9820       0.4449E-3    -.3427E-1    0.3732E-3    -.4085E-1    0.4449E-3    -.3427E-1
    1.002       0.4542E-3    -.3418E-1    0.3810E-3    -.4078E-1    0.4542E-3    -.3418E-1
    1.022       0.4635E-3    -.3408E-1    0.3887E-3    -.4070E-1    0.4635E-3    -.3408E-1
    1.042       0.4727E-3    -.3399E-1    0.3965E-3    -.4062E-1    0.4727E-3    -.3399E-1
    1.062       0.4820E-3    -.3389E-1    0.4043E-3    -.4054E-1    0.4820E-3    -.3389E-1
    1.082       0.4913E-3    -.3380E-1    0.4121E-3    -.4046E-1    0.4913E-3    -.3380E-1
    1.102       0.5006E-3    -.3370E-1    0.4199E-3    -.4037E-1    0.5006E-3    -.3370E-1
    1.122       0.5100E-3    -.3360E-1    0.4278E-3    -.4029E-1    0.5100E-3    -.3360E-1
    1.142       0.5193E-3    -.3349E-1    0.4356E-3    -.4020E-1    0.5193E-3    -.3349E-1
    1.162       0.5287E-3    -.3339E-1    0.4434E-3    -.4012E-1    0.5287E-3    -.3339E-1
    1.182       0.5380E-3    -.3328E-1    0.4513E-3    -.4003E-1    0.5380E-3    -.3328E-1
    1.202       0.5474E-3    -.3317E-1    0.4592E-3    -.3993E-1    0.5474E-3    -.3317E-1
    1.222       0.5568E-3    -.3306E-1    0.4670E-3    -.3984E-1    0.5568E-3    -.3306E-1
    1.242       0.5662E-3    -.3295E-1    0.4749E-3    -.3975E-1    0.5662E-3    -.3295E-1
    1.263       0.5757E-3    -.3284E-1    0.4828E-3    -.3965E-1    0.5757E-3    -.3284E-1
    1.283       0.5851E-3    -.3272E-1    0.4908E-3    -.3955E-1    0.5851E-3    -.3272E-1
    1.303       0.5946E-3    -.3260E-1    0.4987E-3    -.3945E-1    0.5946E-3    -.3260E-1
    1.323       0.6040E-3    -.3248E-1    0.5066E-3    -.3935E-1    0.6040E-3    -.3248E-1
    1.343       0.6135E-3    -.3236E-1    0.5146E-3    -.3925E-1    0.6135E-3    -.3236E-1
    1.363       0.6230E-3    -.3224E-1    0.5226E-3    -.3915E-1    0.6230E-3    -.3224E-1
    1.383       0.6326E-3    -.3211E-1    0.5306E-3    -.3904E-1    0.6326E-3    -.3211E-1
    1.403       0.6421E-3    -.3198E-1    0.5386E-3    -.3894E-1    0.6421E-3    -.3198E-1
    1.423       0.6517E-3    -.3185E-1    0.5466E-3    -.3883E-1    0.6517E-3    -.3185E-1
    1.443       0.6612E-3    -.3172E-1    0.5546E-3    -.3872E-1    0.6612E-3    -.3172E-1
    1.463       0.6708E-3    -.3159E-1    0.5627E-3    -.3860E-1    0.6708E-3    -.3159E-1
    1.483       0.6804E-3    -.3145E-1    0.5707E-3    -.3849E-1    0.6804E-3    -.3145E-1
    1.503       0.6901E-3    -.3131E-1    0.5788E-3    -.3838E-1    0.6901E-3    -.3131E-1
    1.523       0.6997E-3    -.3118E-1    0.5869E-3    -.3826E-1    0.6997E-3    -.3118E-1
    1.543       0.7094E-3    -.3103E-1    0.5950E-3    -.3814E-1    0.7094E-3    -.3103E-1
    1.563       0.7191E-3    -.3089E-1    0.6032E-3    -.3802E-1    0.7191E-3    -.3089E-1
    1.583       0.7288E-3    -.3075E-1    0.6113E-3    -.3790E-1    0.7288E-3    -.3075E-1
    1.603       0.7385E-3    -.3060E-1    0.6195E-3    -.3778E-1    0.7385E-3    -.3060E-1
    1.623       0.7483E-3    -.3045E-1    0.6277E-3    -.3765E-1    0.7483E-3    -.3045E-1
    1.643       0.7581E-3    -.3030E-1    0.6359E-3    -.3752E-1    0.7581E-3    -.3030E-1
    1.663       0.7679E-3    -.3015E-1    0.6441E-3    -.3740E-1    0.7679E-3    -.3015E-1
    1.683       0.7777E-3    -.2999E-1    0.6524E-3    -.3727E-1    0.7777E-3    -.2999E-1
    1.703       0.7875E-3    -.2983E-1    0.6606E-3    -.3713E-1    0.7875E-3    -.2983E-1
    1.723       0.7974E-3    -.2968E-1    0.6689E-3    -.3700E-1    0.7974E-3    -.2968E-1
    1.743       0.8073E-3    -.2952E-1    0.6772E-3    -.3687E-1    0.8073E-3    -.2952E-1
    1.764       0.8172E-3    -.2935E-1    0.6856E-3    -.3673E-1    0.8172E-3    -.2935E-1
    1.784       0.8272E-3    -.2919E-1    0.6939E-3    -.3659E-1    0.8272E-3    -.2919E-1
    1.804       0.8371E-3    -.2902E-1    0.7023E-3    -.3645E-1    0.8371E-3    -.2902E-1
    1.824       0.8471E-3    -.2885E-1    0.7107E-3    -.3631E-1    0.8471E-3    -.2885E-1
    1.844       0.8572E-3    -.2868E-1    0.7191E-3    -.3617E-1    0.8572E-3    -.2868E-1
    1.864       0.8672E-3    -.2851E-1    0.7276E-3    -.3602E-1    0.8672E-3    -.2851E-1
    1.884       0.8773E-3    -.2833E-1    0.7360E-3    -.3588E-1    0.8773E-3    -.2833E-1
    1.904       0.8874E-3    -.2816E-1    0.7445E-3    -.3573E-1    0.8874E-3    -.2816E-1
    1.924       0.8975E-3    -.2798E-1    0.7531E-3    -.3558E-1    0.8975E-3    -.2798E-1
    1.944       0.9077E-3    -.2780E-1    0.7616E-3    -.3543E-1    0.9077E-3    -.2780E-1
    1.964       0.9179E-3    -.2761E-1    0.7702E-3    -.3527E-1    0.9179E-3    -.2761E-1
    1.984       0.9281E-3    -.2743E-1    0.7788E-3    -.3512E-1    0.9281E-3    -.2743E-1
    2.004       0.9384E-3    -.2724E-1    0.7875E-3    -.3496E-1    0.9384E-3    -.2724E-1
    2.024       0.9487E-3    -.2705E-1    0.7961E-3    -.3480E-1    0.9487E-3    -.2705E-1
    2.044       0.9590E-3    -.2686E-1    0.8048E-3    -.3464E-1    0.9590E-3    -.2686E-1
    2.064       0.9694E-3    -.2667E-1    0.8136E-3    -.3448E-1    0.9694E-3    -.2667E-1
    2.084       0.9798E-3    -.2647E-1    0.8223E-3    -.3431E-1    0.9798E-3    -.2647E-1
    2.104       0.9902E-3    -.2628E-1    0.8311E-3    -.3415E-1    0.9902E-3    -.2628E-1
    2.124       0.1001E-2    -.2608E-1    0.8400E-3    -.3398E-1    0.1001E-2    -.2608E-1
    2.144       0.1011E-2    -.2588E-1    0.8488E-3    -.3381E-1    0.1011E-2    -.2588E-1
    2.164       0.1022E-2    -.2567E-1    0.8577E-3    -.3364E-1    0.1022E-2    -.2567E-1
    2.184       0.1032E-2    -.2547E-1    0.8667E-3    -.3347E-1    0.1032E-2    -.2547E-1
    2.204       0.1043E-2    -.2526E-1    0.8756E-3    -.3329E-1    0.1043E-2    -.2526E-1
    2.224       0.1054E-2    -.2505E-1    0.8847E-3    -.3312E-1    0.1054E-2    -.2505E-1
    2.244       0.1064E-2    -.2484E-1    0.8937E-3    -.3294E-1    0.1064E-2    -.2484E-1
    2.265       0.1075E-2    -.2462E-1    0.9028E-3    -.3276E-1    0.1075E-2    -.2462E-1
    2.285       0.1086E-2    -.2441E-1    0.9119E-3    -.3258E-1    0.1086E-2    -.2441E-1
    2.305       0.1097E-2    -.2419E-1    0.9211E-3    -.3239E-1    0.1097E-2    -.2419E-1
    2.325       0.1108E-2    -.2397E-1    0.9303E-3    -.3221E-1    0.1108E-2    -.2397E-1
    2.345       0.1119E-2    -.2374E-1    0.9396E-3    -.3202E-1    0.1119E-2    -.2374E-1
    2.365       0.1129E-2    -.2352E-1    0.9489E-3    -.3183E-1    0.1129E-2    -.2352E-1
    2.385       0.1141E-2    -.2329E-1    0.9583E-3    -.3164E-1    0.1141E-2    -.2329E-1
    2.405       0.1152E-2    -.2306E-1    0.9677E-3    -.3145E-1    0.1152E-2    -.2306E-1
    2.425       0.1163E-2    -.2283E-1    0.9772E-3    -.3125E-1    0.1163E-2    -.2283E-1
    2.445       0.1174E-2    -.2260E-1    0.9867E-3    -.3106E-1    0.1174E-2    -.2260E-1
    2.465       0.1185E-2    -.2236E-1    0.9962E-3    -.3086E-1    0.1185E-2    -.2236E-1
    2.485       0.1196E-2    -.2212E-1    0.1006E-2    -.3066E-1    0.1196E-2    -.2212E-1
    2.505       0.1208E-2    -.2188E-1    0.1016E-2    -.3046E-1    0.1208E-2    -.2188E-1
    2.525       0.1219E-2    -.2164E-1    0.1025E-2    -.3025E-1    0.1219E-2    -.2164E-1
    2.545       0.1231E-2    -.2139E-1    0.1035E-2    -.3005E-1    0.1231E-2    -.2139E-1
    2.565       0.1242E-2    -.2114E-1    0.1045E-2    -.2984E-1    0.1242E-2    -.2114E-1
    2.585       0.1254E-2    -.2089E-1    0.1055E-2    -.2963E-1    0.1254E-2    -.2089E-1
    2.605       0.1266E-2    -.2064E-1    0.1065E-2    -.2941E-1    0.1266E-2    -.2064E-1
    2.625       0.1277E-2    -.2039E-1    0.1075E-2    -.2920E-1    0.1277E-2    -.2039E-1
    2.645       0.1289E-2    -.2013E-1    0.1085E-2    -.2898E-1    0.1289E-2    -.2013E-1
    2.665       0.1301E-2    -.1987E-1    0.1095E-2    -.2877E-1    0.1301E-2    -.1987E-1
    2.685       0.1313E-2    -.1961E-1    0.1106E-2    -.2854E-1    0.1313E-2    -.1961E-1
    2.705       0.1325E-2    -.1934E-1    0.1116E-2    -.2832E-1    0.1325E-2    -.1934E-1
    2.725       0.1337E-2    -.1908E-1    0.1126E-2    -.2810E-1    0.1337E-2    -.1908E-1
    2.745       0.1349E-2    -.1881E-1    0.1137E-2    -.2787E-1    0.1349E-2    -.1881E-1
    2.766       0.1361E-2    -.1854E-1    0.1147E-2    -.2764E-1    0.1361E-2    -.1854E-1
    2.786       0.1374E-2    -.1826E-1    0.1158E-2    -.2741E-1    0.1374E-2    -.1826E-1
    2.806       0.1386E-2    -.1799E-1    0.1169E-2    -.2718E-1    0.1386E-2    -.1799E-1
    2.826       0.1399E-2    -.1771E-1    0.1180E-2    -.2694E-1    0.1399E-2    -.1771E-1
    2.846       0.1411E-2    -.1743E-1    0.1191E-2    -.2671E-1    0.1411E-2    -.1743E-1
    2.866       0.1424E-2    -.1714E-1    0.1202E-2    -.2647E-1    0.1424E-2    -.1714E-1
    2.886       0.1437E-2    -.1686E-1    0.1213E-2    -.2622E-1    0.1437E-2    -.1686E-1
    2.906       0.1450E-2    -.1657E-1    0.1224E-2    -.2598E-1    0.1450E-2    -.1657E-1
    2.926       0.1463E-2    -.1628E-1    0.1236E-2    -.2573E-1    0.1463E-2    -.1628E-1
    2.946       0.1476E-2    -.1598E-1    0.1248E-2    -.2549E-1    0.1476E-2    -.1598E-1
    2.966       0.1490E-2    -.1568E-1    0.1259E-2    -.2523E-1    0.1490E-2    -.1568E-1
    2.986       0.1503E-2    -.1538E-1    0.1271E-2    -.2498E-1    0.1503E-2    -.1538E-1
    3.006       0.1517E-2    -.1508E-1    0.1283E-2    -.2473E-1    0.1517E-2    -.1508E-1
    3.026       0.1530E-2    -.1478E-1    0.1295E-2    -.2447E-1    0.1530E-2    -.1478E-1
    3.046       0.1544E-2    -.1447E-1    0.1307E-2    -.2421E-1    0.1544E-2    -.1447E-1
    3.066       0.1558E-2    -.1416E-1    0.1320E-2    -.2394E-1    0.1558E-2    -.1416E-1
    3.086       0.1572E-2    -.1384E-1    0.1332E-2    -.2368E-1    0.1572E-2    -.1384E-1
    3.106       0.1587E-2    -.1353E-1    0.1345E-2    -.2341E-1    0.1587E-2    -.1353E-1
    3.126       0.1601E-2    -.1321E-1    0.1358E-2    -.2314E-1    0.1601E-2    -.1321E-1
    3.146       0.1616E-2    -.1289E-1    0.1371E-2    -.2287E-1    0.1616E-2    -.1289E-1
    3.166       0.1631E-2    -.1256E-1    0.1385E-2    -.2259E-1    0.1631E-2    -.1256E-1
    3.186       0.1646E-2    -.1223E-1    0.1398E-2    -.2231E-1    0.1646E-2    -.1223E-1
    3.206       0.1661E-2    -.1190E-1    0.1412E-2    -.2203E-1    0.1661E-2    -.1190E-1
    3.226       0.1677E-2    -.1157E-1    0.1426E-2    -.2175E-1    0.1677E-2    -.1157E-1
    3.246       0.1693E-2    -.1123E-1    0.1441E-2    -.2146E-1    0.1693E-2    -.1123E-1
    3.267       0.1709E-2    -.1089E-1    0.1455E-2    -.2117E-1    0.1709E-2    -.1089E-1
    3.287       0.1725E-2    -.1055E-1    0.1470E-2    -.2088E-1    0.1725E-2    -.1055E-1
    3.307       0.1742E-2    -.1020E-1    0.1486E-2    -.2058E-1    0.1742E-2    -.1020E-1
    3.327       0.1759E-2    -.9852E-2    0.1501E-2    -.2028E-1    0.1759E-2    -.9852E-2
    3.347       0.1777E-2    -.9498E-2    0.1517E-2    -.1998E-1    0.1777E-2    -.9498E-2
    3.367       0.1794E-2    -.9141E-2    0.1534E-2    -.1968E-1    0.1794E-2    -.9141E-2
    3.387       0.1813E-2    -.8780E-2    0.1551E-2    -.1937E-1    0.1813E-2    -.8780E-2
    3.407       0.1832E-2    -.8416E-2    0.1568E-2    -.1906E-1    0.1832E-2    -.8416E-2
    3.427       0.1851E-2    -.8048E-2    0.1586E-2    -.1874E-1    0.1851E-2    -.8048E-2
    3.447       0.1872E-2    -.7677E-2    0.1604E-2    -.1842E-1    0.1872E-2    -.7677E-2
    3.467       0.1893E-2    -.7301E-2    0.1623E-2    -.1810E-1    0.1893E-2    -.7301E-2
    3.487       0.1915E-2    -.6921E-2    0.1642E-2    -.1778E-1    0.1915E-2    -.6921E-2
    3.507       0.1938E-2    -.6538E-2    0.1663E-2    -.1745E-1    0.1938E-2    -.6538E-2
    3.527       0.1962E-2    -.6150E-2    0.1684E-2    -.1711E-1    0.1962E-2    -.6150E-2
    3.547       0.1988E-2    -.5757E-2    0.1705E-2    -.1677E-1    0.1988E-2    -.5757E-2
    3.567       0.2016E-2    -.5360E-2    0.1728E-2    -.1643E-1    0.2016E-2    -.5360E-2
    3.587       0.2046E-2    -.4959E-2    0.1752E-2    -.1608E-1    0.2046E-2    -.4959E-2
    3.607       0.2079E-2    -.4553E-2    0.1777E-2    -.1573E-1    0.2079E-2    -.4553E-2
    3.627       0.2116E-2    -.4143E-2    0.1804E-2    -.1538E-1    0.2116E-2    -.4143E-2
    3.647       0.2158E-2    -.3729E-2    0.1832E-2    -.1502E-1    0.2158E-2    -.3729E-2
    3.667       0.2205E-2    -.3313E-2    0.1862E-2    -.1465E-1    0.2205E-2    -.3313E-2
    3.687       0.2259E-2    -.2895E-2    0.1894E-2    -.1428E-1    0.2259E-2    -.2895E-2
    3.707       0.2321E-2    -.2480E-2    0.1928E-2    -.1390E-1    0.2321E-2    -.2480E-2
    3.727       0.2389E-2    -.2072E-2    0.1965E-2    -.1351E-1    0.2389E-2    -.2072E-2
    3.747       0.2458E-2    -.1675E-2    0.2006E-2    -.1312E-1    0.2458E-2    -.1675E-2
    3.768       0.2519E-2    -.1291E-2    0.2050E-2    -.1273E-1    0.2519E-2    -.1291E-2
    3.788       0.2562E-2    -.9142E-3    0.2100E-2    -.1232E-1    0.2562E-2    -.9137E-3
    3.808       0.2583E-2    -.5312E-3    0.2155E-2    -.1191E-1    0.2584E-2    -.5307E-3
    3.828       0.2589E-2    -.1313E-3    0.2218E-2    -.1149E-1    0.2590E-2    -.1314E-3
    3.848       0.2589E-2    0.2888E-3    0.2291E-2    -.1106E-1    0.2591E-2    0.2876E-3
    3.868       0.2590E-2    0.7264E-3    0.2376E-2    -.1062E-1    0.2591E-2    0.7241E-3
    3.888       0.2595E-2    0.1178E-2    0.2475E-2    -.1018E-1    0.2593E-2    0.1176E-2
    3.908       0.2603E-2    0.1644E-2    0.2594E-2    -.9730E-2    0.2600E-2    0.1643E-2
    3.928       0.2616E-2    0.2122E-2    0.2737E-2    -.9283E-2    0.2613E-2    0.2123E-2
    3.948       0.2636E-2    0.2613E-2    0.2908E-2    -.8845E-2    0.2633E-2    0.2616E-2
    3.968       0.2665E-2    0.3116E-2    0.3107E-2    -.8429E-2    0.2663E-2    0.3119E-2
    3.988       0.2703E-2    0.3628E-2    0.3327E-2    -.8054E-2    0.2703E-2    0.3632E-2
    4.008       0.2751E-2    0.4149E-2    0.3545E-2    -.7734E-2    0.2753E-2    0.4153E-2
    4.028       0.2811E-2    0.4679E-2    0.3724E-2    -.7469E-2    0.2815E-2    0.4683E-2
    4.048       0.2884E-2    0.5217E-2    0.3833E-2    -.7227E-2    0.2890E-2    0.5219E-2
    4.068       0.2972E-2    0.5761E-2    0.3871E-2    -.6957E-2    0.2980E-2    0.5761E-2
    4.088       0.3077E-2    0.6309E-2    0.3872E-2    -.6625E-2    0.3087E-2    0.6306E-2
    4.108       0.3203E-2    0.6858E-2    0.3882E-2    -.6232E-2    0.3212E-2    0.6849E-2
    4.128       0.3348E-2    0.7400E-2    0.3927E-2    -.5802E-2    0.3354E-2    0.7384E-2
    4.148       0.3511E-2    0.7929E-2    0.4015E-2    -.5370E-2    0.3507E-2    0.7907E-2
    4.168       0.3682E-2    0.8441E-2    0.4126E-2    -.4963E-2    0.3662E-2    0.8420E-2
    4.188       0.3852E-2    0.8941E-2    0.4227E-2    -.4591E-2    0.3818E-2    0.8934E-2
    4.208       0.4022E-2    0.9442E-2    0.4288E-2    -.4233E-2    0.3985E-2    0.9456E-2
    4.228       0.4207E-2    0.9948E-2    0.4303E-2    -.3854E-2    0.4183E-2    0.9984E-2
    4.248       0.4428E-2    0.1045E-1    0.4292E-2    -.3430E-2    0.4427E-2    0.1049E-1
    4.269       0.4693E-2    0.1091E-1    0.4278E-2    -.2961E-2    0.4719E-2    0.1095E-1
    4.289       0.4985E-2    0.1129E-1    0.4270E-2    -.2454E-2    0.5030E-2    0.1131E-1
    4.309       0.5248E-2    0.1156E-1    0.4264E-2    -.1911E-2    0.5298E-2    0.1155E-1
    4.329       0.5405E-2    0.1174E-1    0.4265E-2    -.1322E-2    0.5440E-2    0.1170E-1
    4.349       0.5398E-2    0.1189E-1    0.4284E-2    -.6805E-3    0.5409E-2    0.1185E-1
    4.369       0.5241E-2    0.1212E-1    0.4335E-2    0.1126E-4    0.5231E-2    0.1209E-1
    4.389       0.5004E-2    0.1249E-1    0.4428E-2    0.7481E-3    0.4984E-2    0.1247E-1
    4.409       0.4761E-2    0.1299E-1    0.4569E-2    0.1525E-2    0.4738E-2    0.1298E-1
    4.429       0.4553E-2    0.1359E-1    0.4763E-2    0.2340E-2    0.4533E-2    0.1359E-1
    4.449       0.4397E-2    0.1426E-1    0.5015E-2    0.3191E-2    0.4381E-2    0.1427E-1
    4.469       0.4292E-2    0.1498E-1    0.5335E-2    0.4082E-2    0.4279E-2    0.1498E-1
    4.489       0.4230E-2    0.1572E-1    0.5733E-2    0.5014E-2    0.4221E-2    0.1573E-1
    4.509       0.4206E-2    0.1648E-1    0.6229E-2    0.5988E-2    0.4200E-2    0.1649E-1
    4.529       0.4214E-2    0.1726E-1    0.6844E-2    0.7004E-2    0.4210E-2    0.1727E-1
    4.549       0.4250E-2    0.1805E-1    0.7614E-2    0.8057E-2    0.4247E-2    0.1806E-1
    4.569       0.4310E-2    0.1886E-1    0.8580E-2    0.9135E-2    0.4308E-2    0.1887E-1
    4.589       0.4393E-2    0.1969E-1    0.9800E-2    0.1021E-1    0.4393E-2    0.1970E-1
    4.609       0.4500E-2    0.2054E-1    0.1134E-1    0.1121E-1    0.4501E-2    0.2055E-1
      4.6293       0.0046       0.0214       0.0133       0.0120       0.0046       0.0214
      4.6493       0.0048       0.0223       0.0157       0.0125       0.0048       0.0223
      4.6693       0.0050       0.0232       0.0185       0.0124       0.0050       0.0232
      4.6894       0.0052       0.0242       0.0216       0.0112       0.0052       0.0242
      4.7094       0.0054       0.0252       0.0244       0.0087       0.0055       0.0252
      4.7295       0.0057       0.0262       0.0261       0.0050       0.0058       0.0262
    4.749       0.6091E-2    0.2727E-1    0.2607E-1    0.8909E-3    0.6113E-2    0.2727E-1
    4.770       0.6510E-2    0.2838E-1    0.2434E-1    -.2678E-2    0.6538E-2    0.2839E-1
      4.7896       0.0070       0.0296       0.0216      -0.0050       0.0070       0.0295
      4.8096       0.0076       0.0308       0.0186      -0.0060       0.0077       0.0308
      4.8297       0.0084       0.0320       0.0159      -0.0061       0.0084       0.0320
      4.8497       0.0093       0.0334       0.0137      -0.0055       0.0093       0.0333
    4.870       0.1037E-1    0.3470E-1    0.1194E-1    -.4538E-2    0.1039E-1    0.3458E-1
    4.890       0.1175E-1    0.3604E-1    0.1059E-1    -.3444E-2    0.1170E-1    0.3588E-1
    4.910       0.1344E-1    0.3731E-1    0.9584E-2    -.2301E-2    0.1329E-1    0.3715E-1
    4.930       0.1551E-1    0.3842E-1    0.8842E-2    -.1182E-2    0.1524E-1    0.3836E-1
    4.950       0.1800E-1    0.3926E-1    0.8295E-2    -.1327E-3    0.1768E-1    0.3938E-1
    4.970       0.2092E-1    0.3966E-1    0.7868E-2    0.8246E-3    0.2069E-1    0.3998E-1
    4.990       0.2427E-1    0.3935E-1    0.7490E-2    0.1701E-2    0.2428E-1    0.3980E-1
    5.010       0.2790E-1    0.3796E-1    0.7112E-2    0.2541E-2    0.2818E-1    0.3834E-1
    5.030       0.3128E-1    0.3509E-1    0.6730E-2    0.3395E-2    0.3174E-1    0.3523E-1
    5.050       0.3349E-1    0.3073E-1    0.6368E-2    0.4293E-2    0.3393E-1    0.3057E-1
      5.0701       0.0337       0.0256       0.0061       0.0052       0.0339       0.0253
      5.0902       0.0317       0.0211       0.0058       0.0062       0.0317       0.0207
      5.1102       0.0283       0.0180       0.0056       0.0072       0.0281       0.0177
      5.1303       0.0245       0.0165       0.0054       0.0082       0.0243       0.0164
      5.1503       0.0209       0.0164       0.0053       0.0091       0.0207       0.0164
      5.1703       0.0180       0.0171       0.0053       0.0101       0.0178       0.0172
      5.1904       0.0156       0.0184       0.0052       0.0111       0.0155       0.0184
      5.2104       0.0137       0.0198       0.0052       0.0121       0.0136       0.0199
      5.2305       0.0123       0.0214       0.0053       0.0131       0.0122       0.0215
      5.2505       0.0112       0.0230       0.0053       0.0141       0.0112       0.0231
      5.2705       0.0103       0.0246       0.0054       0.0151       0.0103       0.0246
      5.2906       0.0097       0.0261       0.0055       0.0161       0.0097       0.0261
      5.3106       0.0092       0.0275       0.0056       0.0171       0.0093       0.0276
      5.3307       0.0088       0.0289       0.0057       0.0181       0.0089       0.0289
      5.3507       0.0085       0.0302       0.0059       0.0192       0.0086       0.0302
      5.3707       0.0082       0.0315       0.0060       0.0203       0.0083       0.0315
      5.3908       0.0080       0.0328       0.0062       0.0214       0.0080       0.0328
      5.4108       0.0078       0.0341       0.0064       0.0225       0.0078       0.0341
      5.4309       0.0076       0.0355       0.0066       0.0237       0.0076       0.0354
      5.4509       0.0074       0.0368       0.0068       0.0249       0.0074       0.0368
      5.4709       0.0074       0.0382       0.0071       0.0262       0.0074       0.0382
      5.4910       0.0073       0.0396       0.0075       0.0276       0.0073       0.0396
      5.5110       0.0073       0.0410       0.0078       0.0290       0.0073       0.0410
      5.5311       0.0074       0.0424       0.0083       0.0305       0.0074       0.0424
      5.5511       0.0074       0.0438       0.0088       0.0321       0.0074       0.0438
      5.5711       0.0075       0.0452       0.0094       0.0337       0.0075       0.0452
      5.5912       0.0077       0.0467       0.0101       0.0355       0.0077       0.0467
      5.6112       0.0078       0.0482       0.0109       0.0374       0.0078       0.0482
      5.6313       0.0080       0.0497       0.0118       0.0393       0.0080       0.0497
      5.6513       0.0083       0.0513       0.0129       0.0415       0.0083       0.0513
      5.6713       0.0085       0.0529       0.0142       0.0437       0.0085       0.0529
      5.6914       0.0088       0.0546       0.0158       0.0462       0.0088       0.0546
      5.7114       0.0092       0.0563       0.0177       0.0488       0.0092       0.0563
      5.7315       0.0096       0.0581       0.0200       0.0516       0.0096       0.0581
     5.75150      0.01001      0.05994      0.02287      0.05459      0.01001      0.05994
     5.77154      0.01052      0.06188      0.02641      0.05774      0.01052      0.06188
     5.79158      0.01110      0.06391      0.03083      0.06100      0.01110      0.06391
     5.81162      0.01176      0.06605      0.03641      0.06422      0.01176      0.06605
     5.83166      0.01252      0.06830      0.04348      0.06713      0.01252      0.06830
     5.85170      0.01339      0.07067      0.05240      0.06925      0.01339      0.07067
     5.87174      0.01439      0.07319      0.06345      0.06972      0.01439      0.07319
     5.89178      0.01555      0.07587      0.07657      0.06721      0.01555      0.07587
     5.91182      0.01690      0.07873      0.09083      0.06002      0.01690      0.07873
     5.93186      0.01848      0.08178      0.10383      0.04673      0.01848      0.08178
     5.95190      0.02035      0.08506      0.11188      0.02774      0.02035      0.08506
      5.9719       0.0226       0.0886       0.1119       0.0063       0.0226       0.0886
     5.99198      0.02526      0.09238      0.10381     -0.01263      0.02526      0.09238
     6.01202      0.02850      0.09646      0.09081     -0.02589      0.02850      0.09646
     6.03206      0.03246      0.10082      0.07655     -0.03306      0.03246      0.10082
     6.05210      0.03736      0.10547      0.06345     -0.03555      0.03736      0.10547
     6.07214      0.04346      0.11032      0.05241     -0.03507      0.04346      0.11032
     6.09218      0.05112      0.11524      0.04351     -0.03293      0.05112      0.11524
     6.11222      0.06081      0.11992      0.03646     -0.03000      0.06082      0.11992
     6.13226      0.07306      0.12378      0.03089     -0.02677      0.07307      0.12378
     6.15230      0.08840      0.12582      0.02647     -0.02350      0.08840      0.12582
     6.17234      0.10702      0.12435      0.02295     -0.02033      0.10703      0.12435
     6.19238      0.12824      0.11700      0.02011     -0.01732      0.12825      0.11699
     6.21242      0.14950      0.10121      0.01780     -0.01450      0.14951      0.10121
     6.23246      0.16591      0.07607      0.01591     -0.01186      0.16591      0.07606
      6.2525       0.1719       0.0446       0.0143      -0.0094       0.1719       0.0446
      6.2725       0.1650       0.0135       0.0130      -0.0071       0.1650       0.0135
    6.293       0.1483       -.1054E-1    0.1192E-1    -.4956E-2    0.1483       -.1054E-1
    6.313       0.1275       -.2519E-1    0.1098E-1    -.2946E-2    0.1275       -.2518E-1
    6.333       0.1073       -.3169E-1    0.1018E-1    -.1057E-2    0.1073       -.3168E-1
    6.353       0.8993E-1    -.3269E-1    0.9489E-2    0.7237E-3    0.8993E-1    -.3267E-1
    6.373       0.7603E-1    -.3057E-1    0.8893E-2    0.2408E-2    0.7604E-1    -.3056E-1
    6.393       0.6529E-1    -.2705E-1    0.8375E-2    0.4005E-2    0.6530E-1    -.2705E-1
    6.413       0.5705E-1    -.2323E-1    0.7924E-2    0.5526E-2    0.5706E-1    -.2323E-1
      6.4329       0.0505      -0.0197       0.0075       0.0070       0.0506      -0.0197
      6.4529       0.0450      -0.0166       0.0072       0.0084       0.0450      -0.0166
      6.4729       0.0400      -0.0137       0.0069       0.0097       0.0400      -0.0137
      6.4930       0.0353      -0.0108       0.0066       0.0110       0.0353      -0.0108
    6.513       0.3113E-1    -.7639E-2    0.6398E-2    0.1221E-1    0.3112E-1    -.7640E-2
    6.533       0.2745E-1    -.4339E-2    0.6204E-2    0.1340E-1    0.2745E-1    -.4337E-2
    6.553       0.2435E-1    -.9943E-3    0.6038E-2    0.1454E-1    0.2435E-1    -.9915E-3
    6.573       0.2176E-1    0.2292E-2    0.5894E-2    0.1562E-1    0.2176E-1    0.2295E-2
    6.593       0.1960E-1    0.5458E-2    0.5762E-2    0.1667E-1    0.1960E-1    0.5459E-2
    6.613       0.1779E-1    0.8472E-2    0.5628E-2    0.1766E-1    0.1780E-1    0.8473E-2
    6.633       0.1628E-1    0.1133E-1    0.5484E-2    0.1863E-1    0.1628E-1    0.1133E-1
    6.653       0.1499E-1    0.1403E-1    0.5332E-2    0.1959E-1    0.1499E-1    0.1403E-1
    6.673       0.1389E-1    0.1658E-1    0.5180E-2    0.2054E-1    0.1389E-1    0.1658E-1
    6.693       0.1294E-1    0.1900E-1    0.5037E-2    0.2149E-1    0.1294E-1    0.1900E-1
    6.713       0.1213E-1    0.2130E-1    0.4907E-2    0.2243E-1    0.1213E-1    0.2130E-1
    6.733       0.1142E-1    0.2348E-1    0.4791E-2    0.2336E-1    0.1142E-1    0.2348E-1
    6.754       0.1079E-1    0.2555E-1    0.4689E-2    0.2428E-1    0.1079E-1    0.2555E-1
    6.774       0.1025E-1    0.2754E-1    0.4597E-2    0.2518E-1    0.1025E-1    0.2754E-1
    6.794       0.9763E-2    0.2944E-1    0.4515E-2    0.2608E-1    0.9763E-2    0.2944E-1
    6.814       0.9333E-2    0.3126E-1    0.4442E-2    0.2696E-1    0.9333E-2    0.3126E-1
    6.834       0.8949E-2    0.3302E-1    0.4376E-2    0.2783E-1    0.8949E-2    0.3302E-1
    6.854       0.8605E-2    0.3471E-1    0.4316E-2    0.2869E-1    0.8605E-2    0.3471E-1
    6.874       0.8297E-2    0.3635E-1    0.4261E-2    0.2954E-1    0.8297E-2    0.3635E-1
    6.894       0.8019E-2    0.3793E-1    0.4212E-2    0.3038E-1    0.8019E-2    0.3793E-1
    6.914       0.7767E-2    0.3947E-1    0.4166E-2    0.3122E-1    0.7767E-2    0.3947E-1
    6.934       0.7539E-2    0.4097E-1    0.4125E-2    0.3204E-1    0.7539E-2    0.4097E-1
    6.954       0.7333E-2    0.4242E-1    0.4087E-2    0.3286E-1    0.7333E-2    0.4242E-1
    6.974       0.7144E-2    0.4384E-1    0.4052E-2    0.3367E-1    0.7144E-2    0.4384E-1
    6.994       0.6973E-2    0.4523E-1    0.4021E-2    0.3447E-1    0.6973E-2    0.4523E-1
    7.014       0.6816E-2    0.4659E-1    0.3991E-2    0.3527E-1    0.6816E-2    0.4659E-1
    7.034       0.6672E-2    0.4792E-1    0.3965E-2    0.3606E-1    0.6672E-2    0.4792E-1
    7.054       0.6541E-2    0.4922E-1    0.3940E-2    0.3685E-1    0.6541E-2    0.4922E-1
    7.074       0.6420E-2    0.5050E-1    0.3917E-2    0.3764E-1    0.6420E-2    0.5050E-1
    7.094       0.6309E-2    0.5176E-1    0.3897E-2    0.3842E-1    0.6309E-2    0.5176E-1
    7.114       0.6207E-2    0.5300E-1    0.3878E-2    0.3919E-1    0.6207E-2    0.5300E-1
    7.134       0.6113E-2    0.5422E-1    0.3861E-2    0.3997E-1    0.6113E-2    0.5422E-1
    7.154       0.6026E-2    0.5543E-1    0.3845E-2    0.4073E-1    0.6026E-2    0.5543E-1
    7.174       0.5947E-2    0.5662E-1    0.3831E-2    0.4150E-1    0.5947E-2    0.5662E-1
    7.194       0.5873E-2    0.5779E-1    0.3818E-2    0.4227E-1    0.5873E-2    0.5779E-1
    7.214       0.5805E-2    0.5895E-1    0.3806E-2    0.4303E-1    0.5805E-2    0.5895E-1
    7.234       0.5742E-2    0.6010E-1    0.3796E-2    0.4379E-1    0.5742E-2    0.6010E-1
    7.255       0.5685E-2    0.6124E-1    0.3787E-2    0.4455E-1    0.5685E-2    0.6124E-1
    7.275       0.5631E-2    0.6236E-1    0.3778E-2    0.4530E-1    0.5631E-2    0.6236E-1
    7.295       0.5582E-2    0.6348E-1    0.3771E-2    0.4606E-1    0.5582E-2    0.6348E-1
    7.315       0.5536E-2    0.6459E-1    0.3765E-2    0.4681E-1    0.5536E-2    0.6459E-1
    7.335       0.5494E-2    0.6569E-1    0.3759E-2    0.4756E-1    0.5494E-2    0.6569E-1
    7.355       0.5456E-2    0.6678E-1    0.3754E-2    0.4831E-1    0.5456E-2    0.6678E-1
    7.375       0.5420E-2    0.6786E-1    0.3750E-2    0.4906E-1    0.5420E-2    0.6786E-1
    7.395       0.5388E-2    0.6894E-1    0.3747E-2    0.4981E-1    0.5388E-2    0.6894E-1
    7.415       0.5358E-2    0.7001E-1    0.3745E-2    0.5056E-1    0.5358E-2    0.7001E-1
    7.435       0.5330E-2    0.7108E-1    0.3743E-2    0.5131E-1    0.5330E-2    0.7108E-1
    7.455       0.5305E-2    0.7214E-1    0.3742E-2    0.5206E-1    0.5305E-2    0.7214E-1
    7.475       0.5282E-2    0.7320E-1    0.3741E-2    0.5281E-1    0.5282E-2    0.7320E-1
    7.495       0.5261E-2    0.7425E-1    0.3741E-2    0.5356E-1    0.5261E-2    0.7425E-1
    7.515       0.5242E-2    0.7530E-1    0.3742E-2    0.5431E-1    0.5242E-2    0.7530E-1
    7.535       0.5225E-2    0.7635E-1    0.3743E-2    0.5506E-1    0.5225E-2    0.7635E-1
    7.555       0.5210E-2    0.7739E-1    0.3745E-2    0.5581E-1    0.5210E-2    0.7739E-1
    7.575       0.5196E-2    0.7843E-1    0.3747E-2    0.5656E-1    0.5196E-2    0.7843E-1
    7.595       0.5184E-2    0.7947E-1    0.3749E-2    0.5731E-1    0.5184E-2    0.7947E-1
    7.615       0.5173E-2    0.8050E-1    0.3752E-2    0.5806E-1    0.5173E-2    0.8050E-1
    7.635       0.5164E-2    0.8154E-1    0.3756E-2    0.5881E-1    0.5164E-2    0.8154E-1
    7.655       0.5155E-2    0.8257E-1    0.3759E-2    0.5956E-1    0.5155E-2    0.8257E-1
    7.675       0.5149E-2    0.8360E-1    0.3764E-2    0.6032E-1    0.5149E-2    0.8360E-1
    7.695       0.5143E-2    0.8463E-1    0.3768E-2    0.6107E-1    0.5143E-2    0.8463E-1
    7.715       0.5139E-2    0.8566E-1    0.3773E-2    0.6182E-1    0.5139E-2    0.8566E-1
    7.735       0.5135E-2    0.8668E-1    0.3779E-2    0.6258E-1    0.5135E-2    0.8668E-1
    7.756       0.5133E-2    0.8771E-1    0.3784E-2    0.6334E-1    0.5133E-2    0.8771E-1
    7.776       0.5132E-2    0.8874E-1    0.3790E-2    0.6410E-1    0.5132E-2    0.8874E-1
    7.796       0.5131E-2    0.8976E-1    0.3797E-2    0.6486E-1    0.5131E-2    0.8976E-1
    7.816       0.5132E-2    0.9079E-1    0.3803E-2    0.6562E-1    0.5132E-2    0.9079E-1
    7.836       0.5133E-2    0.9182E-1    0.3810E-2    0.6638E-1    0.5133E-2    0.9182E-1
    7.856       0.5135E-2    0.9285E-1    0.3817E-2    0.6714E-1    0.5135E-2    0.9285E-1
    7.876       0.5138E-2    0.9387E-1    0.3825E-2    0.6791E-1    0.5138E-2    0.9387E-1
    7.896       0.5142E-2    0.9490E-1    0.3833E-2    0.6868E-1    0.5142E-2    0.9490E-1
    7.916       0.5147E-2    0.9593E-1    0.3841E-2    0.6944E-1    0.5147E-2    0.9593E-1
    7.936       0.5152E-2    0.9696E-1    0.3849E-2    0.7021E-1    0.5152E-2    0.9696E-1
    7.956       0.5158E-2    0.9800E-1    0.3858E-2    0.7099E-1    0.5158E-2    0.9800E-1
    7.976       0.5165E-2    0.9903E-1    0.3866E-2    0.7176E-1    0.5165E-2    0.9903E-1
    7.996       0.5172E-2    0.1001       0.3876E-2    0.7253E-1    0.5172E-2    0.1001   
    8.016       0.5180E-2    0.1011       0.3885E-2    0.7331E-1    0.5180E-2    0.1011   
    8.036       0.5189E-2    0.1021       0.3894E-2    0.7409E-1    0.5189E-2    0.1021   
    8.056       0.5198E-2    0.1032       0.3904E-2    0.7487E-1    0.5198E-2    0.1032   
    8.076       0.5208E-2    0.1042       0.3914E-2    0.7566E-1    0.5208E-2    0.1042   
    8.096       0.5218E-2    0.1053       0.3924E-2    0.7644E-1    0.5218E-2    0.1053   
    8.116       0.5229E-2    0.1063       0.3935E-2    0.7723E-1    0.5229E-2    0.1063   
    8.136       0.5240E-2    0.1074       0.3946E-2    0.7802E-1    0.5240E-2    0.1074   
    8.156       0.5252E-2    0.1084       0.3956E-2    0.7881E-1    0.5252E-2    0.1084   
    8.176       0.5265E-2    0.1095       0.3968E-2    0.7960E-1    0.5265E-2    0.1095   
    8.196       0.5278E-2    0.1105       0.3979E-2    0.8040E-1    0.5278E-2    0.1105   
    8.216       0.5292E-2    0.1116       0.3990E-2    0.8120E-1    0.5292E-2    0.1116   
    8.236       0.5306E-2    0.1126       0.4002E-2    0.8200E-1    0.5306E-2    0.1126   
    8.257       0.5320E-2    0.1137       0.4014E-2    0.8280E-1    0.5320E-2    0.1137   
    8.277       0.5335E-2    0.1148       0.4026E-2    0.8360E-1    0.5335E-2    0.1148   
    8.297       0.5351E-2    0.1158       0.4038E-2    0.8441E-1    0.5351E-2    0.1158   
    8.317       0.5367E-2    0.1169       0.4051E-2    0.8522E-1    0.5367E-2    0.1169   
    8.337       0.5384E-2    0.1180       0.4064E-2    0.8603E-1    0.5384E-2    0.1180   
    8.357       0.5401E-2    0.1191       0.4077E-2    0.8685E-1    0.5401E-2    0.1191   
    8.377       0.5418E-2    0.1201       0.4090E-2    0.8767E-1    0.5418E-2    0.1201   
    8.397       0.5437E-2    0.1212       0.4103E-2    0.8849E-1    0.5437E-2    0.1212   
    8.417       0.5455E-2    0.1223       0.4117E-2    0.8931E-1    0.5455E-2    0.1223   
    8.437       0.5474E-2    0.1234       0.4130E-2    0.9014E-1    0.5474E-2    0.1234   
    8.457       0.5494E-2    0.1245       0.4144E-2    0.9097E-1    0.5494E-2    0.1245   
    8.477       0.5514E-2    0.1256       0.4159E-2    0.9180E-1    0.5514E-2    0.1256   
    8.497       0.5534E-2    0.1267       0.4173E-2    0.9263E-1    0.5534E-2    0.1267   
    8.517       0.5555E-2    0.1278       0.4188E-2    0.9347E-1    0.5555E-2    0.1278   
    8.537       0.5577E-2    0.1290       0.4202E-2    0.9431E-1    0.5577E-2    0.1290   
    8.557       0.5599E-2    0.1301       0.4217E-2    0.9515E-1    0.5599E-2    0.1301   
    8.577       0.5621E-2    0.1312       0.4233E-2    0.9600E-1    0.5621E-2    0.1312   
    8.597       0.5644E-2    0.1323       0.4248E-2    0.9685E-1    0.5644E-2    0.1323   
    8.617       0.5668E-2    0.1335       0.4264E-2    0.9770E-1    0.5668E-2    0.1335   
    8.637       0.5692E-2    0.1346       0.4280E-2    0.9856E-1    0.5692E-2    0.1346   
    8.657       0.5716E-2    0.1357       0.4296E-2    0.9942E-1    0.5716E-2    0.1357   
    8.677       0.5741E-2    0.1369       0.4312E-2    0.1003       0.5741E-2    0.1369   
    8.697       0.5767E-2    0.1380       0.4329E-2    0.1011       0.5767E-2    0.1380   
    8.717       0.5794E-2    0.1392       0.4346E-2    0.1020       0.5794E-2    0.1392   
    8.737       0.5821E-2    0.1404       0.4363E-2    0.1029       0.5821E-2    0.1404   
    8.758       0.5848E-2    0.1415       0.4380E-2    0.1038       0.5848E-2    0.1415   
    8.778       0.5876E-2    0.1427       0.4398E-2    0.1046       0.5876E-2    0.1427   
    8.798       0.5905E-2    0.1439       0.4416E-2    0.1055       0.5905E-2    0.1439   
    8.818       0.5935E-2    0.1451       0.4434E-2    0.1064       0.5935E-2    0.1451   
    8.838       0.5965E-2    0.1462       0.4452E-2    0.1073       0.5965E-2    0.1462   
    8.858       0.5996E-2    0.1474       0.4471E-2    0.1082       0.5996E-2    0.1474   
    8.878       0.6027E-2    0.1487       0.4490E-2    0.1091       0.6027E-2    0.1487   
    8.898       0.6060E-2    0.1499       0.4510E-2    0.1100       0.6060E-2    0.1499   
    8.918       0.6093E-2    0.1511       0.4530E-2    0.1109       0.6093E-2    0.1511   
    8.938       0.6127E-2    0.1523       0.4550E-2    0.1118       0.6127E-2    0.1523   
    8.958       0.6162E-2    0.1535       0.4570E-2    0.1127       0.6162E-2    0.1535   
    8.978       0.6198E-2    0.1548       0.4591E-2    0.1136       0.6198E-2    0.1548   
    8.998       0.6234E-2    0.1560       0.4613E-2    0.1146       0.6234E-2    0.1560   
    9.018       0.6272E-2    0.1573       0.4634E-2    0.1155       0.6272E-2    0.1573   
    9.038       0.6311E-2    0.1585       0.4656E-2    0.1164       0.6311E-2    0.1585   
    9.058       0.6350E-2    0.1598       0.4679E-2    0.1173       0.6350E-2    0.1598   
    9.078       0.6391E-2    0.1611       0.4702E-2    0.1183       0.6391E-2    0.1611   
    9.098       0.6433E-2    0.1623       0.4726E-2    0.1192       0.6433E-2    0.1623   
    9.118       0.6477E-2    0.1636       0.4750E-2    0.1202       0.6477E-2    0.1636   
    9.138       0.6521E-2    0.1649       0.4775E-2    0.1211       0.6521E-2    0.1649   
    9.158       0.6567E-2    0.1662       0.4800E-2    0.1221       0.6567E-2    0.1662   
    9.178       0.6614E-2    0.1676       0.4826E-2    0.1231       0.6614E-2    0.1676   
    9.198       0.6663E-2    0.1689       0.4853E-2    0.1240       0.6663E-2    0.1689   
    9.218       0.6714E-2    0.1702       0.4880E-2    0.1250       0.6714E-2    0.1702   
    9.238       0.6766E-2    0.1716       0.4909E-2    0.1260       0.6766E-2    0.1716   
    9.259       0.6820E-2    0.1729       0.4938E-2    0.1270       0.6820E-2    0.1729   
    9.279       0.6876E-2    0.1743       0.4967E-2    0.1280       0.6876E-2    0.1743   
    9.299       0.6934E-2    0.1757       0.4998E-2    0.1289       0.6934E-2    0.1757   
    9.319       0.6994E-2    0.1771       0.5030E-2    0.1300       0.6994E-2    0.1771   
    9.339       0.7057E-2    0.1785       0.5063E-2    0.1310       0.7057E-2    0.1785   
    9.359       0.7122E-2    0.1799       0.5097E-2    0.1320       0.7122E-2    0.1799   
    9.379       0.7190E-2    0.1813       0.5132E-2    0.1330       0.7190E-2    0.1813   
    9.399       0.7260E-2    0.1828       0.5169E-2    0.1340       0.7260E-2    0.1828   
    9.419       0.7334E-2    0.1842       0.5207E-2    0.1351       0.7334E-2    0.1842   
    9.439       0.7411E-2    0.1857       0.5247E-2    0.1361       0.7411E-2    0.1857   
    9.459       0.7492E-2    0.1872       0.5289E-2    0.1372       0.7492E-2    0.1872   
    9.479       0.7577E-2    0.1887       0.5332E-2    0.1382       0.7577E-2    0.1887   
    9.499       0.7666E-2    0.1902       0.5378E-2    0.1393       0.7666E-2    0.1902   
    9.519       0.7759E-2    0.1917       0.5425E-2    0.1404       0.7759E-2    0.1917   
    9.539       0.7857E-2    0.1933       0.5476E-2    0.1415       0.7857E-2    0.1933   
    9.559       0.7961E-2    0.1949       0.5529E-2    0.1426       0.7961E-2    0.1949   
    9.579       0.8071E-2    0.1965       0.5585E-2    0.1437       0.8071E-2    0.1965   
    9.599       0.8187E-2    0.1981       0.5644E-2    0.1448       0.8187E-2    0.1981   
    9.619       0.8311E-2    0.1997       0.5707E-2    0.1459       0.8311E-2    0.1997   
    9.639       0.8442E-2    0.2014       0.5775E-2    0.1471       0.8442E-2    0.2014   
    9.659       0.8582E-2    0.2031       0.5847E-2    0.1482       0.8582E-2    0.2031   
    9.679       0.8731E-2    0.2048       0.5924E-2    0.1494       0.8731E-2    0.2048   
    9.699       0.8891E-2    0.2065       0.6007E-2    0.1506       0.8891E-2    0.2065   
    9.719       0.9062E-2    0.2083       0.6097E-2    0.1518       0.9062E-2    0.2083   
    9.739       0.9247E-2    0.2101       0.6195E-2    0.1530       0.9247E-2    0.2101   
    9.760       0.9447E-2    0.2120       0.6301E-2    0.1542       0.9447E-2    0.2120   
    9.780       0.9662E-2    0.2139       0.6417E-2    0.1555       0.9662E-2    0.2139   
    9.800       0.9897E-2    0.2158       0.6544E-2    0.1568       0.9897E-2    0.2158   
    9.820       0.1015E-1    0.2178       0.6684E-2    0.1581       0.1015E-1    0.2178   
    9.840       0.1043E-1    0.2198       0.6840E-2    0.1594       0.1043E-1    0.2198   
    9.860       0.1074E-1    0.2219       0.7014E-2    0.1607       0.1074E-1    0.2219   
    9.880       0.1107E-1    0.2240       0.7208E-2    0.1621       0.1107E-1    0.2240   
    9.900       0.1145E-1    0.2262       0.7427E-2    0.1635       0.1145E-1    0.2262   
    9.920       0.1186E-1    0.2284       0.7675E-2    0.1650       0.1186E-1    0.2284   
    9.940       0.1232E-1    0.2308       0.7959E-2    0.1665       0.1232E-1    0.2308   
    9.960       0.1284E-1    0.2332       0.8285E-2    0.1680       0.1284E-1    0.2332   
    9.980       0.1342E-1    0.2357       0.8663E-2    0.1696       0.1342E-1    0.2357   
    10.00       0.1408E-1    0.2383       0.9105E-2    0.1713       0.1408E-1    0.2383   
# 
# 06/16/2017 at 12:54 YAMBO_RT @ anomaly [start]
# 06/16/2017 at 12:55                    [end]
#  
# Timing   [Min/Max/Average]: 03s/03s/03s
#
# .-Input file : yambo.in
# | optics                         # [R OPT] Optics
# | bse                            # [R BSE] Bethe Salpeter Equation.
# | bsk                            # [R BSK] Bethe Salpeter Equation kernel
# | bss                            # [R BSS] Bethe Salpeter Equation solver
# | em1s                           # [R Xs] Static Inverse Dielectric Matrix
# | BoseTemp= 0.000000     eV      # Bosonic Temperature
# | FFTGvecs=  387         RL      # [FFT] Plane-waves
# | X_Threads= 1                   # [OPENMP/X] Number of threads for response functions
# | DIP_Threads= 1                 # [OPENMP/X] Number of threads for dipoles
# | K_Threads= 1                   # [OPENMP/BSK] Number of threads for response functions
# | Chimod= "hartree"              # [X] IP/Hartree/ALDA/LRC/BSfxc
# | BSEmod= "retarded"             # [BSE] resonant/retarded/coupling
# | BSKmod= "SEX"                  # [BSE] IP/Hartree/HF/ALDA/SEX/BSfxc
# | BSSmod= "h"                    # [BSS] (h)aydock/(d)iagonalization/(i)nversion/(t)ddft`
# | BSENGexx=  531         RL      # [BSK] Exchange components
# | BSENGBlk=  59          RL      # [BSK] Screened interaction block size
# | #WehCpl                        # [BSK] eh interaction included also in coupling
# | KfnQPdb= "E < 08_cohsex_eq/ndb.QP" # [EXTQP BSK BSS] Database
# | RfnRTdb= "f @ 0.1 ps < 04_elel+elph_0K/ndb.RT_carriers" # [EXTRT R] Database
# | % BEnRange
# |   0.00000 | 10.00000 | eV      # [BSS] Energy range
# | %
# | % BDmRange
# |   0.10000 |  0.10000 | eV      # [BSS] Damping range
# | %
# | BEnSteps=  500                 # [BSS] Energy steps
# | % BLongDir
# | 0.1000E-4 | 0.000    | 0.000    |        # [BSS] [cc] Electric Field
# | %
# | % BSEBands
# |   2 |  7 |                     # [BSK] Bands range
# | %
# | BSHayTrs=  0.02000             # [BSS] Relative [o/o] Haydock treshold. Strict(>0)/Average(<0)
# | % BndsRnXs
# |   1 |  8 |                     # [Xs] Polarization function bands
# | %
# | NGsBlkXs=  59          RL      # [Xs] Response block size
# | GrFnTpXs= "R"                  # [Xs] Green`s function (T)ordered,(R)etarded,(r)senant,(a)ntiresonant [T, R, r, Ta, Ra]
# | % DmRngeXs
# |   0.10000 |  0.10000 | eV      # [Xs] Damping range
# | %
# | % LongDrXs
# | 0.1000E-4 | 0.000    | 0.000    |        # [Xs] [cc] Electric Field
# | %
