#                                                           
#  __  __   ________   ___ __ __    _______   ______        
# /_/\/_/\ /_______/\ /__//_//_/\ /_______/\ /_____/\       
# \ \ \ \ \\::: _  \ \\::\| \| \ \\::: _  \ \\:::_ \ \      
#  \:\_\ \ \\::(_)  \ \\:.      \ \\::(_)  \/_\:\ \ \ \     
#   \::::_\/ \:: __  \ \\:.\-/\  \ \\::  _  \ \\:\ \ \ \    
#     \::\ \  \:.\ \  \ \\. \  \  \ \\::(_)  \ \\:\_\ \ \   
#      \__\/   \__\/\__\/ \__\/ \__\/ \_______\/ \_____\/   
#                                                           
#                                                           
#        Version 4.2.0 Revision 14600 Hash 48c5260          
#                  MPI+SLK+OpenMP Build                     
#                http://www.yambo-code.org                  
#
# EELS @ Q(1)  [q->0 direction]:0.1000E-4  0.000     0.000   
#
#
# - Energies      are  E < 08_ypp_gw_10fs_Xonly/ndb.QP_merged_1_gw_ppa + E Fit
# - Wavefunctions are Slater exchange(X)+Perdew & Zunger(C)
#
# - The Green`s function is Retarded -
# - Using the Length Gauge -
# - [r,Vnl] *is* included -
#
#   BSK|Identifier              :1021
#      |Dimension               :57
#      |Bands                   :2 - 7
#      |Exchange           [res]: yes
#      |Correlation        [res]: yes
#      |Kernel`s coupling       : no
#      |Exchange           [cpl]: no
#      |Correlation        [cpl]: no
#      |W interaction is bare   : no
#      |ALDA kernel in R-space  : no
#      |RL vectors    [exchange]:531
#      |RL vectors [correlation]:59
#      |E/h energy range    [ev]:-1.000000 - -1.000000
#      |Coupling range     [o/o]: 100.0000 -  100.0000
#    W |Interaction is diagonal : no
#      |Matrix size             :59
#      |Bands                   :1 - 8
#      |e/h energy range    [ev]:-1.000000 - -1.000000
#      |Poles              [o/o]: 100.0000
#      |RL vectors in the sum   :387
#      |[r,Vnl] included        : yes
#      |Field direction         :0.1000E-4  0.000000  0.000000
#      |Coulomb Cutoff          :none
#      |xc-Kernel               :none
#   RIM|RL components      [col]:0
#      |Random points      [col]:0
#  
#   Haydock|Accuracy (requested) [o/o]:  0.02000
#          |Accuracy (reached)   [o/o]:  0.01782
#          |Iteration                 :16
#
#    E/ev[1]      EEL-Im[2]    EEL-Re[3]    EELo-Im[4]   EELo-Re[5]   EEL`-Im[6]   EEL`-Re[7]
#
     0.00000     -0.00000     -0.01635     -0.00000     -0.01878     -0.00000     -0.01635
   0.2004E-1    0.2287E-4    -.1634E-1    0.1967E-4    -.1877E-1    0.2287E-4    -.1634E-1
   0.4008E-1    0.4575E-4    -.1634E-1    0.3933E-4    -.1877E-1    0.4575E-4    -.1634E-1
   0.6012E-1    0.6863E-4    -.1633E-1    0.5901E-4    -.1876E-1    0.6863E-4    -.1633E-1
   0.8016E-1    0.9152E-4    -.1631E-1    0.7870E-4    -.1874E-1    0.9152E-4    -.1631E-1
   0.1002       0.1144E-3    -.1629E-1    0.9840E-4    -.1873E-1    0.1144E-3    -.1629E-1
   0.1202       0.1374E-3    -.1626E-1    0.1181E-3    -.1871E-1    0.1374E-3    -.1626E-1
   0.1403       0.1603E-3    -.1623E-1    0.1379E-3    -.1868E-1    0.1603E-3    -.1623E-1
   0.1603       0.1833E-3    -.1620E-1    0.1576E-3    -.1865E-1    0.1833E-3    -.1620E-1
   0.1804       0.2064E-3    -.1616E-1    0.1774E-3    -.1862E-1    0.2064E-3    -.1616E-1
   0.2004       0.2294E-3    -.1612E-1    0.1973E-3    -.1858E-1    0.2294E-3    -.1612E-1
   0.2204       0.2525E-3    -.1607E-1    0.2172E-3    -.1854E-1    0.2525E-3    -.1607E-1
   0.2405       0.2757E-3    -.1602E-1    0.2371E-3    -.1849E-1    0.2757E-3    -.1602E-1
   0.2605       0.2989E-3    -.1596E-1    0.2570E-3    -.1844E-1    0.2989E-3    -.1596E-1
   0.2806       0.3222E-3    -.1590E-1    0.2771E-3    -.1839E-1    0.3222E-3    -.1590E-1
   0.3006       0.3455E-3    -.1583E-1    0.2971E-3    -.1833E-1    0.3455E-3    -.1583E-1
   0.3206       0.3689E-3    -.1576E-1    0.3173E-3    -.1827E-1    0.3689E-3    -.1576E-1
   0.3407       0.3924E-3    -.1568E-1    0.3375E-3    -.1820E-1    0.3924E-3    -.1568E-1
   0.3607       0.4160E-3    -.1560E-1    0.3577E-3    -.1814E-1    0.4160E-3    -.1560E-1
   0.3808       0.4396E-3    -.1552E-1    0.3781E-3    -.1806E-1    0.4396E-3    -.1552E-1
   0.4008       0.4633E-3    -.1543E-1    0.3985E-3    -.1798E-1    0.4633E-3    -.1543E-1
   0.4208       0.4872E-3    -.1533E-1    0.4190E-3    -.1790E-1    0.4872E-3    -.1533E-1
   0.4409       0.5111E-3    -.1523E-1    0.4396E-3    -.1782E-1    0.5111E-3    -.1523E-1
   0.4609       0.5352E-3    -.1513E-1    0.4603E-3    -.1773E-1    0.5352E-3    -.1513E-1
   0.4810       0.5593E-3    -.1502E-1    0.4811E-3    -.1763E-1    0.5593E-3    -.1502E-1
   0.5010       0.5836E-3    -.1490E-1    0.5020E-3    -.1753E-1    0.5836E-3    -.1490E-1
   0.5210       0.6080E-3    -.1478E-1    0.5231E-3    -.1743E-1    0.6080E-3    -.1478E-1
   0.5411       0.6326E-3    -.1466E-1    0.5442E-3    -.1732E-1    0.6326E-3    -.1466E-1
   0.5611       0.6573E-3    -.1453E-1    0.5655E-3    -.1721E-1    0.6573E-3    -.1453E-1
   0.5812       0.6821E-3    -.1440E-1    0.5869E-3    -.1710E-1    0.6821E-3    -.1440E-1
   0.6012       0.7071E-3    -.1426E-1    0.6085E-3    -.1698E-1    0.7071E-3    -.1426E-1
   0.6212       0.7323E-3    -.1411E-1    0.6303E-3    -.1685E-1    0.7323E-3    -.1411E-1
   0.6413       0.7577E-3    -.1396E-1    0.6521E-3    -.1673E-1    0.7577E-3    -.1396E-1
   0.6613       0.7833E-3    -.1381E-1    0.6742E-3    -.1659E-1    0.7833E-3    -.1381E-1
   0.6814       0.8090E-3    -.1365E-1    0.6965E-3    -.1646E-1    0.8090E-3    -.1365E-1
   0.7014       0.8350E-3    -.1349E-1    0.7189E-3    -.1632E-1    0.8350E-3    -.1349E-1
   0.7214       0.8612E-3    -.1332E-1    0.7416E-3    -.1617E-1    0.8612E-3    -.1332E-1
   0.7415       0.8876E-3    -.1314E-1    0.7644E-3    -.1602E-1    0.8876E-3    -.1314E-1
   0.7615       0.9143E-3    -.1296E-1    0.7875E-3    -.1586E-1    0.9143E-3    -.1296E-1
   0.7816       0.9412E-3    -.1278E-1    0.8109E-3    -.1570E-1    0.9412E-3    -.1278E-1
   0.8016       0.9685E-3    -.1259E-1    0.8345E-3    -.1554E-1    0.9685E-3    -.1259E-1
   0.8216       0.9960E-3    -.1239E-1    0.8584E-3    -.1537E-1    0.9960E-3    -.1239E-1
   0.8417       0.1024E-2    -.1219E-1    0.8825E-3    -.1520E-1    0.1024E-2    -.1219E-1
   0.8617       0.1052E-2    -.1198E-1    0.9070E-3    -.1502E-1    0.1052E-2    -.1198E-1
   0.8818       0.1080E-2    -.1177E-1    0.9318E-3    -.1483E-1    0.1080E-2    -.1177E-1
   0.9018       0.1109E-2    -.1155E-1    0.9570E-3    -.1465E-1    0.1109E-2    -.1155E-1
   0.9218       0.1138E-2    -.1132E-1    0.9825E-3    -.1445E-1    0.1138E-2    -.1132E-1
      0.9419       0.0012      -0.0111       0.0010      -0.0143       0.0012      -0.0111
      0.9619       0.0012      -0.0109       0.0010      -0.0140       0.0012      -0.0109
      0.9820       0.0012      -0.0106       0.0011      -0.0138       0.0012      -0.0106
      1.0020       0.0013      -0.0104       0.0011      -0.0136       0.0013      -0.0104
      1.0220       0.0013      -0.0101       0.0011      -0.0134       0.0013      -0.0101
      1.0421       0.0013      -0.0099       0.0011      -0.0132       0.0013      -0.0099
      1.0621       0.0014      -0.0096       0.0012      -0.0129       0.0014      -0.0096
      1.0822       0.0014      -0.0093       0.0012      -0.0127       0.0014      -0.0093
      1.1022       0.0014      -0.0090       0.0012      -0.0125       0.0014      -0.0090
      1.1222       0.0015      -0.0087       0.0013      -0.0122       0.0015      -0.0087
      1.1423       0.0015      -0.0084       0.0013      -0.0120       0.0015      -0.0084
      1.1623       0.0015      -0.0081       0.0013      -0.0117       0.0015      -0.0081
      1.1824       0.0016      -0.0078       0.0014      -0.0114       0.0016      -0.0078
      1.2024       0.0016      -0.0075       0.0014      -0.0112       0.0016      -0.0075
      1.2224       0.0016      -0.0072       0.0014      -0.0109       0.0016      -0.0072
      1.2425       0.0017      -0.0069       0.0015      -0.0106       0.0017      -0.0069
      1.2625       0.0017      -0.0065       0.0015      -0.0103       0.0017      -0.0065
      1.2826       0.0018      -0.0062       0.0015      -0.0100       0.0018      -0.0062
      1.3026       0.0018      -0.0058       0.0016      -0.0097       0.0018      -0.0058
      1.3226       0.0019      -0.0055       0.0016      -0.0094       0.0019      -0.0055
      1.3427       0.0019      -0.0051       0.0017      -0.0090       0.0019      -0.0051
      1.3627       0.0019      -0.0047       0.0017      -0.0087       0.0019      -0.0047
      1.3828       0.0020      -0.0043       0.0018      -0.0084       0.0020      -0.0043
      1.4028       0.0020      -0.0039       0.0018      -0.0080       0.0020      -0.0039
      1.4228       0.0021      -0.0035       0.0019      -0.0076       0.0021      -0.0035
      1.4429       0.0022      -0.0031       0.0019      -0.0073       0.0022      -0.0031
      1.4629       0.0022      -0.0026       0.0020      -0.0069       0.0022      -0.0026
      1.4830       0.0023      -0.0022       0.0020      -0.0065       0.0023      -0.0022
      1.5030       0.0023      -0.0017       0.0021      -0.0061       0.0023      -0.0017
    1.523       0.2408E-2    -.1269E-2    0.2168E-2    -.5656E-2    0.2408E-2    -.1269E-2
    1.543       0.2478E-2    -.7858E-3    0.2241E-2    -.5223E-2    0.2478E-2    -.7858E-3
    1.563       0.2553E-2    -.2890E-3    0.2320E-2    -.4776E-2    0.2553E-2    -.2889E-3
    1.583       0.2633E-2    0.2225E-3    0.2404E-2    -.4313E-2    0.2633E-2    0.2226E-3
    1.603       0.2717E-2    0.7494E-3    0.2495E-2    -.3835E-2    0.2717E-2    0.7495E-3
    1.623       0.2807E-2    0.1293E-2    0.2594E-2    -.3339E-2    0.2807E-2    0.1293E-2
      1.6433       0.0029       0.0019       0.0027      -0.0028       0.0029       0.0019
      1.6633       0.0030       0.0024       0.0028      -0.0023       0.0030       0.0024
      1.6834       0.0031       0.0030       0.0029      -0.0017       0.0031       0.0030
    1.703       0.3237E-2    0.3651E-2    0.3091E-2    -.1157E-2    0.3238E-2    0.3651E-2
    1.723       0.3368E-2    0.4293E-2    0.3249E-2    -.5523E-3    0.3368E-2    0.4293E-2
    1.743       0.3511E-2    0.4960E-2    0.3427E-2    0.7976E-4    0.3511E-2    0.4960E-2
    1.764       0.3667E-2    0.5653E-2    0.3626E-2    0.7423E-3    0.3667E-2    0.5653E-2
    1.784       0.3839E-2    0.6374E-2    0.3852E-2    0.1438E-2    0.3840E-2    0.6374E-2
      1.8036       0.0040       0.0071       0.0041       0.0022       0.0040       0.0071
      1.8236       0.0042       0.0079       0.0044       0.0029       0.0042       0.0079
      1.8437       0.0045       0.0087       0.0048       0.0038       0.0045       0.0087
      1.8637       0.0048       0.0096       0.0052       0.0046       0.0048       0.0096
      1.8838       0.0051       0.0105       0.0056       0.0055       0.0051       0.0105
      1.9038       0.0054       0.0115       0.0062       0.0065       0.0054       0.0115
      1.9238       0.0058       0.0125       0.0069       0.0075       0.0058       0.0125
      1.9439       0.0063       0.0135       0.0077       0.0086       0.0063       0.0135
      1.9639       0.0068       0.0147       0.0088       0.0098       0.0068       0.0147
      1.9840       0.0075       0.0159       0.0101       0.0109       0.0075       0.0159
      2.0040       0.0083       0.0171       0.0117       0.0121       0.0083       0.0171
      2.0240       0.0093       0.0185       0.0137       0.0131       0.0093       0.0185
     2.04409      0.01048      0.01988      0.01627      0.01390      0.01047      0.01988
     2.06413      0.01196      0.02132      0.01938      0.01417      0.01195      0.02132
     2.08417      0.01381      0.02276      0.02299      0.01354      0.01379      0.02276
     2.10421      0.01614      0.02411      0.02673      0.01156      0.01612      0.02411
      2.1242       0.0190       0.0252       0.0299       0.0080       0.0190       0.0252
      2.1443       0.0226       0.0258       0.0314       0.0032       0.0226       0.0258
    2.164       0.2681E-1    0.2535E-1    0.3072E-1    -.1842E-2    0.2680E-1    0.2541E-1
      2.1844       0.0313       0.0235       0.0282      -0.0058       0.0313       0.0236
      2.2044       0.0352       0.0198       0.0248      -0.0082       0.0353       0.0199
      2.2244       0.0375       0.0145       0.0213      -0.0091       0.0376       0.0145
      2.2445       0.0373       0.0087       0.0183      -0.0089       0.0375       0.0087
      2.2645       0.0349       0.0040       0.0158      -0.0081       0.0351       0.0038
    2.285       0.3131E-1    0.9647E-3    0.1396E-1    -.6900E-2    0.3141E-1    0.7264E-3
    2.305       0.2758E-1    -.2930E-3    0.1256E-1    -.5548E-2    0.2754E-1    -.5705E-3
    2.325       0.2435E-1    -.3302E-3    0.1157E-1    -.4150E-2    0.2417E-1    -.5718E-3
    2.345       0.2179E-1    0.2968E-3    0.1091E-1    -.2781E-2    0.2150E-1    0.1670E-3
    2.365       0.1980E-1    0.1182E-2    0.1048E-1    -.1496E-2    0.1947E-1    0.1217E-2
    2.385       0.1816E-1    0.2131E-2    0.1022E-1    -.3223E-3    0.1790E-1    0.2325E-2
    2.405       0.1668E-1    0.3144E-2    0.1002E-1    0.7500E-3    0.1657E-1    0.3420E-2
    2.425       0.1531E-1    0.4311E-2    0.9821E-2    0.1784E-2    0.1534E-1    0.4569E-2
      2.4449       0.0141       0.0057       0.0096       0.0029       0.0142       0.0059
      2.4649       0.0130       0.0072       0.0094       0.0041       0.0132       0.0073
      2.4850       0.0122       0.0089       0.0094       0.0054       0.0124       0.0090
      2.5050       0.0117       0.0107       0.0094       0.0068       0.0118       0.0107
      2.5250       0.0113       0.0126       0.0096       0.0082       0.0114       0.0125
      2.5451       0.0111       0.0144       0.0100       0.0098       0.0112       0.0144
     2.56513      0.01109      0.01633      0.01059      0.01140      0.01115      0.01629
     2.58517      0.01122      0.01827      0.01139      0.01307      0.01126      0.01823
     2.60521      0.01150      0.02026      0.01247      0.01481      0.01153      0.02022
     2.62525      0.01194      0.02231      0.01388      0.01658      0.01196      0.02226
     2.64529      0.01254      0.02443      0.01571      0.01835      0.01255      0.02438
     2.66533      0.01332      0.02663      0.01808      0.02006      0.01333      0.02659
     2.68537      0.01433      0.02893      0.02111      0.02155      0.01433      0.02889
     2.70541      0.01560      0.03135      0.02495      0.02259      0.01560      0.03131
     2.72545      0.01719      0.03390      0.02966      0.02274      0.01718      0.03385
     2.74549      0.01919      0.03657      0.03508      0.02141      0.01917      0.03652
     2.76553      0.02170      0.03935      0.04060      0.01790      0.02168      0.03931
     2.78557      0.02488      0.04221      0.04499      0.01193      0.02485      0.04217
      2.8056       0.0289       0.0451       0.0468       0.0042       0.0289       0.0450
      2.8257       0.0340       0.0477       0.0452      -0.0037       0.0340       0.0477
      2.8457       0.0405       0.0498       0.0408      -0.0098       0.0405       0.0498
     2.86573      0.04867      0.05078      0.03529     -0.01353      0.04858      0.05077
     2.88577      0.05842      0.04968      0.02976     -0.01503      0.05832      0.04970
     2.90581      0.06924      0.04522      0.02493     -0.01500      0.06913      0.04528
     2.92585      0.07951      0.03623      0.02095     -0.01407      0.07942      0.03633
     2.94589      0.08651      0.02266      0.01777     -0.01266      0.08648      0.02280
      2.9659       0.0876       0.0067       0.0153      -0.0110       0.0877       0.0068
      2.9860       0.0824      -0.0081       0.0133      -0.0094       0.0825      -0.0080
      3.0060       0.0729      -0.0188       0.0117      -0.0077       0.0730      -0.0187
      3.0261       0.0620      -0.0247       0.0104      -0.0061       0.0621      -0.0247
      3.0461       0.0517      -0.0268       0.0094      -0.0046       0.0518      -0.0269
      3.0661       0.0430      -0.0265       0.0086      -0.0031       0.0430      -0.0265
    3.086       0.3590E-1    -.2474E-1    0.7902E-2    -.1713E-2    0.3593E-1    -.2480E-1
    3.106       0.3028E-1    -.2228E-1    0.7332E-2    -.3911E-3    0.3028E-1    -.2234E-1
    3.126       0.2584E-1    -.1955E-1    0.6855E-2    0.8678E-3    0.2583E-1    -.1959E-1
    3.146       0.2232E-1    -.1676E-1    0.6452E-2    0.2071E-2    0.2230E-1    -.1679E-1
      3.1663       0.0195      -0.0140       0.0061       0.0032       0.0195      -0.0141
      3.1864       0.0172      -0.0114       0.0058       0.0043       0.0172      -0.0114
      3.2064       0.0154      -0.0089       0.0056       0.0054       0.0154      -0.0089
      3.2265       0.0139      -0.0066       0.0053       0.0064       0.0139      -0.0066
      3.2465       0.0127      -0.0044       0.0052       0.0074       0.0126      -0.0044
    3.267       0.1162E-1    -.2338E-2    0.4993E-2    0.8418E-2    0.1161E-1    -.2337E-2
    3.287       0.1075E-1    -.3810E-3    0.4850E-2    0.9370E-2    0.1074E-1    -.3796E-3
    3.307       0.1001E-1    0.1472E-2    0.4724E-2    0.1030E-1    0.1000E-1    0.1473E-2
    3.327       0.9377E-2    0.3231E-2    0.4614E-2    0.1121E-1    0.9374E-2    0.3232E-2
      3.3467       0.0088       0.0049       0.0045       0.0121       0.0088       0.0049
      3.3667       0.0084       0.0065       0.0044       0.0130       0.0084       0.0065
      3.3868       0.0080       0.0080       0.0044       0.0138       0.0080       0.0080
      3.4068       0.0076       0.0095       0.0043       0.0147       0.0076       0.0095
      3.4269       0.0073       0.0109       0.0042       0.0155       0.0073       0.0109
      3.4469       0.0070       0.0123       0.0042       0.0164       0.0070       0.0123
      3.4669       0.0068       0.0137       0.0041       0.0172       0.0068       0.0137
      3.4870       0.0066       0.0149       0.0041       0.0180       0.0066       0.0149
      3.5070       0.0064       0.0162       0.0041       0.0188       0.0064       0.0162
      3.5271       0.0062       0.0174       0.0040       0.0196       0.0062       0.0174
      3.5471       0.0061       0.0186       0.0040       0.0204       0.0061       0.0186
      3.5671       0.0060       0.0198       0.0040       0.0212       0.0060       0.0198
      3.5872       0.0058       0.0210       0.0040       0.0220       0.0058       0.0210
      3.6072       0.0057       0.0221       0.0039       0.0228       0.0057       0.0221
      3.6273       0.0056       0.0232       0.0039       0.0236       0.0056       0.0232
      3.6473       0.0056       0.0244       0.0039       0.0244       0.0056       0.0244
      3.6673       0.0055       0.0254       0.0039       0.0251       0.0055       0.0254
      3.6874       0.0054       0.0265       0.0039       0.0259       0.0054       0.0265
      3.7074       0.0054       0.0276       0.0039       0.0267       0.0054       0.0276
      3.7275       0.0053       0.0286       0.0039       0.0275       0.0053       0.0286
      3.7475       0.0052       0.0297       0.0039       0.0282       0.0052       0.0297
      3.7675       0.0052       0.0307       0.0039       0.0290       0.0052       0.0307
      3.7876       0.0052       0.0318       0.0039       0.0298       0.0052       0.0318
      3.8076       0.0051       0.0328       0.0039       0.0306       0.0051       0.0328
      3.8277       0.0051       0.0338       0.0039       0.0314       0.0051       0.0338
      3.8477       0.0051       0.0348       0.0039       0.0321       0.0051       0.0348
      3.8677       0.0051       0.0358       0.0039       0.0329       0.0051       0.0358
      3.8878       0.0050       0.0368       0.0039       0.0337       0.0050       0.0368
      3.9078       0.0050       0.0378       0.0039       0.0345       0.0050       0.0378
    3.928       0.5004E-2    0.3884E-1    0.3921E-2    0.3526E-1    0.5004E-2    0.3884E-1
    3.948       0.4993E-2    0.3983E-1    0.3930E-2    0.3605E-1    0.4993E-2    0.3983E-1
    3.968       0.4984E-2    0.4083E-1    0.3939E-2    0.3683E-1    0.4984E-2    0.4083E-1
    3.988       0.4976E-2    0.4183E-1    0.3950E-2    0.3762E-1    0.4977E-2    0.4183E-1
    4.008       0.4971E-2    0.4282E-1    0.3960E-2    0.3841E-1    0.4971E-2    0.4282E-1
    4.028       0.4968E-2    0.4381E-1    0.3972E-2    0.3921E-1    0.4968E-2    0.4381E-1
    4.048       0.4966E-2    0.4480E-1    0.3984E-2    0.4000E-1    0.4966E-2    0.4480E-1
    4.068       0.4966E-2    0.4580E-1    0.3997E-2    0.4080E-1    0.4966E-2    0.4580E-1
    4.088       0.4968E-2    0.4679E-1    0.4010E-2    0.4160E-1    0.4968E-2    0.4679E-1
    4.108       0.4971E-2    0.4778E-1    0.4023E-2    0.4241E-1    0.4971E-2    0.4778E-1
    4.128       0.4975E-2    0.4878E-1    0.4038E-2    0.4321E-1    0.4975E-2    0.4878E-1
    4.148       0.4981E-2    0.4977E-1    0.4052E-2    0.4402E-1    0.4981E-2    0.4977E-1
    4.168       0.4987E-2    0.5077E-1    0.4068E-2    0.4484E-1    0.4987E-2    0.5077E-1
    4.188       0.4995E-2    0.5177E-1    0.4083E-2    0.4565E-1    0.4995E-2    0.5177E-1
    4.208       0.5004E-2    0.5277E-1    0.4099E-2    0.4647E-1    0.5004E-2    0.5277E-1
    4.228       0.5014E-2    0.5377E-1    0.4116E-2    0.4729E-1    0.5014E-2    0.5377E-1
    4.248       0.5025E-2    0.5477E-1    0.4132E-2    0.4812E-1    0.5025E-2    0.5477E-1
    4.269       0.5036E-2    0.5578E-1    0.4150E-2    0.4895E-1    0.5037E-2    0.5578E-1
    4.289       0.5049E-2    0.5679E-1    0.4167E-2    0.4978E-1    0.5049E-2    0.5679E-1
    4.309       0.5062E-2    0.5780E-1    0.4185E-2    0.5062E-1    0.5063E-2    0.5780E-1
    4.329       0.5077E-2    0.5882E-1    0.4203E-2    0.5146E-1    0.5077E-2    0.5882E-1
    4.349       0.5092E-2    0.5983E-1    0.4222E-2    0.5230E-1    0.5092E-2    0.5983E-1
    4.369       0.5107E-2    0.6086E-1    0.4241E-2    0.5315E-1    0.5107E-2    0.6086E-1
    4.389       0.5124E-2    0.6188E-1    0.4260E-2    0.5400E-1    0.5124E-2    0.6188E-1
    4.409       0.5141E-2    0.6291E-1    0.4279E-2    0.5486E-1    0.5141E-2    0.6291E-1
    4.429       0.5158E-2    0.6394E-1    0.4299E-2    0.5572E-1    0.5158E-2    0.6394E-1
    4.449       0.5177E-2    0.6497E-1    0.4319E-2    0.5658E-1    0.5177E-2    0.6497E-1
    4.469       0.5195E-2    0.6601E-1    0.4339E-2    0.5745E-1    0.5195E-2    0.6601E-1
    4.489       0.5215E-2    0.6705E-1    0.4360E-2    0.5832E-1    0.5215E-2    0.6705E-1
    4.509       0.5235E-2    0.6810E-1    0.4381E-2    0.5919E-1    0.5235E-2    0.6810E-1
    4.529       0.5255E-2    0.6915E-1    0.4402E-2    0.6007E-1    0.5255E-2    0.6915E-1
    4.549       0.5276E-2    0.7020E-1    0.4423E-2    0.6096E-1    0.5276E-2    0.7020E-1
    4.569       0.5298E-2    0.7126E-1    0.4444E-2    0.6184E-1    0.5298E-2    0.7126E-1
    4.589       0.5320E-2    0.7233E-1    0.4466E-2    0.6274E-1    0.5320E-2    0.7233E-1
    4.609       0.5342E-2    0.7339E-1    0.4488E-2    0.6363E-1    0.5342E-2    0.7339E-1
    4.629       0.5365E-2    0.7447E-1    0.4511E-2    0.6453E-1    0.5365E-2    0.7447E-1
    4.649       0.5388E-2    0.7554E-1    0.4533E-2    0.6544E-1    0.5388E-2    0.7554E-1
    4.669       0.5412E-2    0.7662E-1    0.4556E-2    0.6635E-1    0.5412E-2    0.7662E-1
    4.689       0.5436E-2    0.7771E-1    0.4579E-2    0.6727E-1    0.5436E-2    0.7771E-1
    4.709       0.5461E-2    0.7880E-1    0.4602E-2    0.6818E-1    0.5461E-2    0.7880E-1
    4.729       0.5486E-2    0.7990E-1    0.4625E-2    0.6911E-1    0.5486E-2    0.7990E-1
    4.749       0.5511E-2    0.8100E-1    0.4649E-2    0.7004E-1    0.5511E-2    0.8100E-1
    4.770       0.5537E-2    0.8210E-1    0.4672E-2    0.7097E-1    0.5537E-2    0.8210E-1
    4.790       0.5563E-2    0.8322E-1    0.4696E-2    0.7191E-1    0.5563E-2    0.8322E-1
    4.810       0.5589E-2    0.8433E-1    0.4721E-2    0.7285E-1    0.5589E-2    0.8433E-1
    4.830       0.5616E-2    0.8546E-1    0.4745E-2    0.7380E-1    0.5616E-2    0.8546E-1
    4.850       0.5643E-2    0.8658E-1    0.4769E-2    0.7475E-1    0.5643E-2    0.8658E-1
    4.870       0.5671E-2    0.8772E-1    0.4794E-2    0.7571E-1    0.5671E-2    0.8772E-1
    4.890       0.5699E-2    0.8885E-1    0.4819E-2    0.7668E-1    0.5699E-2    0.8885E-1
    4.910       0.5727E-2    0.9000E-1    0.4844E-2    0.7764E-1    0.5727E-2    0.9000E-1
    4.930       0.5755E-2    0.9115E-1    0.4870E-2    0.7862E-1    0.5755E-2    0.9115E-1
    4.950       0.5784E-2    0.9230E-1    0.4895E-2    0.7959E-1    0.5784E-2    0.9230E-1
    4.970       0.5813E-2    0.9347E-1    0.4921E-2    0.8058E-1    0.5813E-2    0.9347E-1
    4.990       0.5843E-2    0.9463E-1    0.4947E-2    0.8157E-1    0.5843E-2    0.9463E-1
    5.010       0.5873E-2    0.9581E-1    0.4973E-2    0.8256E-1    0.5873E-2    0.9581E-1
    5.030       0.5903E-2    0.9699E-1    0.4999E-2    0.8356E-1    0.5903E-2    0.9699E-1
    5.050       0.5933E-2    0.9817E-1    0.5026E-2    0.8456E-1    0.5933E-2    0.9817E-1
    5.070       0.5964E-2    0.9936E-1    0.5052E-2    0.8557E-1    0.5964E-2    0.9936E-1
    5.090       0.5995E-2    0.1006       0.5079E-2    0.8659E-1    0.5995E-2    0.1006   
    5.110       0.6026E-2    0.1018       0.5106E-2    0.8761E-1    0.6026E-2    0.1018   
      5.1303       0.0061       0.1030       0.0051       0.0886       0.0061       0.1030
      5.1503       0.0061       0.1042       0.0052       0.0897       0.0061       0.1042
      5.1703       0.0061       0.1054       0.0052       0.0907       0.0061       0.1054
      5.1904       0.0062       0.1066       0.0052       0.0917       0.0062       0.1066
      5.2104       0.0062       0.1079       0.0052       0.0928       0.0062       0.1079
      5.2305       0.0062       0.1091       0.0053       0.0938       0.0062       0.1091
      5.2505       0.0063       0.1104       0.0053       0.0949       0.0063       0.1104
      5.2705       0.0063       0.1116       0.0053       0.0960       0.0063       0.1116
      5.2906       0.0063       0.1129       0.0054       0.0970       0.0063       0.1129
      5.3106       0.0064       0.1142       0.0054       0.0981       0.0064       0.1142
      5.3307       0.0064       0.1154       0.0054       0.0992       0.0064       0.1154
      5.3507       0.0064       0.1167       0.0054       0.1003       0.0064       0.1167
      5.3707       0.0065       0.1180       0.0055       0.1014       0.0065       0.1180
      5.3908       0.0065       0.1193       0.0055       0.1025       0.0065       0.1193
      5.4108       0.0065       0.1206       0.0055       0.1036       0.0065       0.1206
      5.4309       0.0066       0.1219       0.0056       0.1047       0.0066       0.1219
      5.4509       0.0066       0.1232       0.0056       0.1058       0.0066       0.1232
      5.4709       0.0066       0.1246       0.0056       0.1069       0.0066       0.1246
      5.4910       0.0067       0.1259       0.0057       0.1081       0.0067       0.1259
      5.5110       0.0067       0.1272       0.0057       0.1092       0.0067       0.1272
      5.5311       0.0068       0.1286       0.0057       0.1103       0.0068       0.1286
      5.5511       0.0068       0.1300       0.0057       0.1115       0.0068       0.1300
      5.5711       0.0068       0.1313       0.0058       0.1126       0.0068       0.1313
      5.5912       0.0069       0.1327       0.0058       0.1138       0.0069       0.1327
      5.6112       0.0069       0.1341       0.0058       0.1150       0.0069       0.1341
      5.6313       0.0069       0.1355       0.0059       0.1161       0.0069       0.1355
      5.6513       0.0070       0.1369       0.0059       0.1173       0.0070       0.1369
      5.6713       0.0070       0.1383       0.0059       0.1185       0.0070       0.1383
      5.6914       0.0071       0.1397       0.0060       0.1197       0.0071       0.1397
      5.7114       0.0071       0.1411       0.0060       0.1209       0.0071       0.1411
      5.7315       0.0071       0.1425       0.0060       0.1221       0.0071       0.1425
      5.7515       0.0072       0.1439       0.0061       0.1233       0.0072       0.1439
      5.7715       0.0072       0.1454       0.0061       0.1245       0.0072       0.1454
      5.7916       0.0073       0.1468       0.0061       0.1258       0.0073       0.1468
      5.8116       0.0073       0.1483       0.0062       0.1270       0.0073       0.1483
      5.8317       0.0073       0.1498       0.0062       0.1282       0.0073       0.1498
      5.8517       0.0074       0.1512       0.0062       0.1295       0.0074       0.1512
      5.8717       0.0074       0.1527       0.0063       0.1307       0.0074       0.1527
      5.8918       0.0075       0.1542       0.0063       0.1320       0.0075       0.1542
      5.9118       0.0075       0.1557       0.0063       0.1333       0.0075       0.1557
      5.9319       0.0076       0.1572       0.0064       0.1345       0.0076       0.1572
      5.9519       0.0076       0.1588       0.0064       0.1358       0.0076       0.1588
      5.9719       0.0076       0.1603       0.0064       0.1371       0.0076       0.1603
      5.9920       0.0077       0.1618       0.0065       0.1384       0.0077       0.1618
      6.0120       0.0077       0.1634       0.0065       0.1397       0.0077       0.1634
      6.0321       0.0078       0.1649       0.0066       0.1410       0.0078       0.1649
      6.0521       0.0078       0.1665       0.0066       0.1423       0.0078       0.1665
      6.0721       0.0079       0.1681       0.0066       0.1436       0.0079       0.1681
      6.0922       0.0079       0.1696       0.0067       0.1450       0.0079       0.1696
      6.1122       0.0080       0.1712       0.0067       0.1463       0.0080       0.1712
      6.1323       0.0080       0.1728       0.0067       0.1477       0.0080       0.1728
      6.1523       0.0081       0.1744       0.0068       0.1490       0.0081       0.1744
      6.1723       0.0081       0.1761       0.0068       0.1504       0.0081       0.1761
      6.1924       0.0082       0.1777       0.0068       0.1517       0.0082       0.1777
      6.2124       0.0082       0.1793       0.0069       0.1531       0.0082       0.1793
      6.2325       0.0083       0.1810       0.0069       0.1545       0.0083       0.1810
      6.2525       0.0083       0.1826       0.0070       0.1559       0.0083       0.1826
      6.2725       0.0084       0.1843       0.0070       0.1573       0.0084       0.1843
      6.2926       0.0084       0.1860       0.0070       0.1587       0.0084       0.1860
      6.3126       0.0085       0.1877       0.0071       0.1601       0.0085       0.1877
      6.3327       0.0085       0.1894       0.0071       0.1615       0.0085       0.1894
      6.3527       0.0086       0.1911       0.0072       0.1630       0.0086       0.1911
      6.3727       0.0086       0.1928       0.0072       0.1644       0.0086       0.1928
      6.3928       0.0087       0.1945       0.0072       0.1658       0.0087       0.1945
      6.4128       0.0087       0.1963       0.0073       0.1673       0.0087       0.1963
      6.4329       0.0088       0.1980       0.0073       0.1688       0.0088       0.1980
      6.4529       0.0088       0.1998       0.0074       0.1702       0.0088       0.1998
      6.4729       0.0089       0.2015       0.0074       0.1717       0.0089       0.2015
      6.4930       0.0089       0.2033       0.0074       0.1732       0.0089       0.2033
      6.5130       0.0090       0.2051       0.0075       0.1747       0.0090       0.2051
      6.5331       0.0090       0.2069       0.0075       0.1762       0.0090       0.2069
      6.5531       0.0091       0.2087       0.0076       0.1777       0.0091       0.2087
      6.5731       0.0091       0.2106       0.0076       0.1792       0.0091       0.2106
      6.5932       0.0092       0.2124       0.0077       0.1807       0.0092       0.2124
      6.6132       0.0093       0.2142       0.0077       0.1823       0.0093       0.2142
      6.6333       0.0093       0.2161       0.0077       0.1838       0.0093       0.2161
      6.6533       0.0094       0.2180       0.0078       0.1854       0.0094       0.2180
      6.6733       0.0094       0.2199       0.0078       0.1869       0.0094       0.2199
      6.6934       0.0095       0.2218       0.0079       0.1885       0.0095       0.2218
      6.7134       0.0096       0.2237       0.0079       0.1901       0.0096       0.2237
      6.7335       0.0096       0.2256       0.0080       0.1917       0.0096       0.2256
      6.7535       0.0097       0.2275       0.0080       0.1933       0.0097       0.2275
      6.7735       0.0097       0.2295       0.0080       0.1949       0.0097       0.2295
      6.7936       0.0098       0.2314       0.0081       0.1965       0.0098       0.2314
      6.8136       0.0099       0.2334       0.0081       0.1981       0.0099       0.2334
      6.8337       0.0099       0.2354       0.0082       0.1998       0.0099       0.2354
      6.8537       0.0100       0.2374       0.0082       0.2014       0.0100       0.2374
      6.8737       0.0101       0.2394       0.0083       0.2031       0.0101       0.2394
      6.8938       0.0101       0.2414       0.0083       0.2047       0.0101       0.2414
      6.9138       0.0102       0.2434       0.0084       0.2064       0.0102       0.2434
      6.9339       0.0103       0.2455       0.0084       0.2081       0.0103       0.2455
      6.9539       0.0104       0.2475       0.0085       0.2098       0.0104       0.2475
      6.9739       0.0104       0.2496       0.0085       0.2115       0.0104       0.2496
      6.9940       0.0105       0.2517       0.0086       0.2132       0.0105       0.2517
      7.0140       0.0106       0.2538       0.0086       0.2149       0.0106       0.2538
      7.0341       0.0107       0.2559       0.0087       0.2166       0.0107       0.2559
      7.0541       0.0108       0.2581       0.0087       0.2184       0.0108       0.2581
      7.0741       0.0109       0.2602       0.0088       0.2201       0.0109       0.2602
      7.0942       0.0110       0.2624       0.0088       0.2219       0.0110       0.2624
      7.1142       0.0111       0.2645       0.0089       0.2237       0.0111       0.2645
      7.1343       0.0113       0.2667       0.0089       0.2255       0.0113       0.2667
      7.1543       0.0114       0.2689       0.0090       0.2272       0.0114       0.2689
      7.1743       0.0116       0.2710       0.0090       0.2290       0.0116       0.2710
      7.1944       0.0118       0.2732       0.0091       0.2309       0.0118       0.2732
      7.2144       0.0119       0.2753       0.0091       0.2327       0.0119       0.2753
      7.2345       0.0120       0.2773       0.0092       0.2345       0.0120       0.2774
      7.2545       0.0121       0.2794       0.0092       0.2364       0.0121       0.2794
      7.2745       0.0121       0.2816       0.0093       0.2382       0.0121       0.2816
      7.2946       0.0120       0.2838       0.0093       0.2401       0.0121       0.2838
      7.3146       0.0120       0.2860       0.0094       0.2420       0.0120       0.2860
      7.3347       0.0120       0.2884       0.0095       0.2438       0.0120       0.2883
      7.3547       0.0120       0.2907       0.0095       0.2457       0.0120       0.2907
      7.3747       0.0120       0.2930       0.0096       0.2477       0.0120       0.2930
      7.3948       0.0120       0.2954       0.0096       0.2496       0.0121       0.2954
      7.4148       0.0121       0.2978       0.0097       0.2515       0.0121       0.2978
      7.4349       0.0121       0.3002       0.0097       0.2535       0.0121       0.3002
      7.4549       0.0122       0.3027       0.0098       0.2554       0.0122       0.3026
      7.4749       0.0123       0.3051       0.0098       0.2574       0.0123       0.3051
      7.4950       0.0123       0.3076       0.0099       0.2594       0.0123       0.3075
      7.5150       0.0124       0.3100       0.0100       0.2613       0.0124       0.3100
     7.53507      0.01247      0.31251      0.01003      0.26335      0.01247      0.31250
     7.55511      0.01255      0.31502      0.01009      0.26536      0.01255      0.31501
     7.57515      0.01263      0.31753      0.01015      0.26739      0.01262      0.31752
     7.59519      0.01271      0.32007      0.01021      0.26942      0.01270      0.32006
     7.61523      0.01279      0.32262      0.01027      0.27147      0.01279      0.32261
     7.63527      0.01287      0.32519      0.01033      0.27354      0.01287      0.32518
     7.65531      0.01296      0.32777      0.01039      0.27561      0.01296      0.32776
     7.67535      0.01305      0.33038      0.01046      0.27770      0.01304      0.33037
     7.69539      0.01314      0.33300      0.01052      0.27980      0.01313      0.33299
     7.71543      0.01323      0.33563      0.01058      0.28192      0.01322      0.33562
     7.73547      0.01332      0.33829      0.01065      0.28404      0.01331      0.33828
     7.75551      0.01342      0.34096      0.01071      0.28618      0.01341      0.34096
     7.77555      0.01352      0.34366      0.01078      0.28833      0.01350      0.34365
     7.79559      0.01361      0.34637      0.01084      0.29050      0.01360      0.34636
     7.81563      0.01371      0.34909      0.01091      0.29268      0.01370      0.34909
     7.83567      0.01381      0.35184      0.01098      0.29487      0.01380      0.35185
     7.85571      0.01391      0.35461      0.01105      0.29708      0.01390      0.35462
     7.87575      0.01401      0.35740      0.01112      0.29930      0.01400      0.35741
     7.89579      0.01411      0.36022      0.01118      0.30153      0.01410      0.36022
     7.91583      0.01422      0.36305      0.01125      0.30378      0.01421      0.36306
     7.93587      0.01432      0.36590      0.01133      0.30604      0.01432      0.36591
     7.95591      0.01443      0.36878      0.01140      0.30831      0.01443      0.36879
     7.97595      0.01454      0.37168      0.01147      0.31060      0.01454      0.37169
     7.99599      0.01466      0.37460      0.01154      0.31291      0.01465      0.37461
     8.01603      0.01477      0.37755      0.01162      0.31523      0.01477      0.37756
     8.03607      0.01489      0.38052      0.01169      0.31756      0.01489      0.38052
     8.05611      0.01501      0.38351      0.01176      0.31991      0.01501      0.38351
     8.07615      0.01513      0.38652      0.01184      0.32227      0.01513      0.38653
     8.09619      0.01526      0.38956      0.01192      0.32465      0.01526      0.38957
     8.11623      0.01539      0.39263      0.01200      0.32705      0.01539      0.39264
     8.13627      0.01552      0.39572      0.01207      0.32946      0.01552      0.39573
     8.15631      0.01566      0.39884      0.01215      0.33188      0.01566      0.39884
     8.17635      0.01580      0.40198      0.01223      0.33433      0.01580      0.40199
     8.19639      0.01594      0.40515      0.01231      0.33678      0.01594      0.40516
     8.21643      0.01609      0.40836      0.01240      0.33926      0.01609      0.40836
     8.23647      0.01624      0.41159      0.01248      0.34175      0.01624      0.41159
     8.25651      0.01640      0.41485      0.01257      0.34426      0.01640      0.41485
     8.27655      0.01657      0.41814      0.01265      0.34678      0.01657      0.41814
     8.29659      0.01675      0.42146      0.01274      0.34932      0.01675      0.42147
     8.31663      0.01693      0.42482      0.01283      0.35188      0.01693      0.42483
     8.33667      0.01712      0.42821      0.01292      0.35446      0.01712      0.42822
     8.35671      0.01733      0.43164      0.01301      0.35705      0.01733      0.43165
     8.37675      0.01755      0.43510      0.01310      0.35967      0.01755      0.43511
     8.39679      0.01778      0.43861      0.01319      0.36230      0.01778      0.43861
     8.41683      0.01804      0.44215      0.01329      0.36495      0.01804      0.44216
     8.43687      0.01832      0.44573      0.01339      0.36762      0.01832      0.44574
     8.45691      0.01864      0.44936      0.01349      0.37031      0.01864      0.44937
     8.47695      0.01899      0.45302      0.01359      0.37302      0.01900      0.45303
     8.49699      0.01940      0.45672      0.01369      0.37575      0.01940      0.45673
     8.51703      0.01988      0.46045      0.01380      0.37850      0.01988      0.46046
     8.53707      0.02043      0.46418      0.01391      0.38127      0.02043      0.46420
     8.55711      0.02108      0.46790      0.01402      0.38406      0.02108      0.46792
     8.57715      0.02182      0.47154      0.01414      0.38688      0.02182      0.47157
     8.59719      0.02262      0.47505      0.01426      0.38972      0.02263      0.47509
     8.61723      0.02339      0.47837      0.01438      0.39258      0.02341      0.47841
     8.63727      0.02399      0.48150      0.01451      0.39547      0.02403      0.48154
     8.65731      0.02429      0.48458      0.01464      0.39838      0.02436      0.48461
     8.67735      0.02430      0.48780      0.01478      0.40132      0.02438      0.48781
     8.69739      0.02412      0.49129      0.01493      0.40428      0.02420      0.49128
     8.71743      0.02390      0.49509      0.01508      0.40727      0.02397      0.49505
     8.73747      0.02376      0.49914      0.01524      0.41029      0.02382      0.49909
     8.75751      0.02373      0.50338      0.01542      0.41335      0.02377      0.50333
     8.77755      0.02382      0.50777      0.01560      0.41643      0.02386      0.50771
     8.79760      0.02404      0.51226      0.01580      0.41955      0.02406      0.51220
     8.81764      0.02437      0.51686      0.01602      0.42270      0.02439      0.51680
     8.83768      0.02482      0.52155      0.01625      0.42589      0.02483      0.52149
     8.85772      0.02538      0.52634      0.01651      0.42912      0.02539      0.52627
     8.87776      0.02608      0.53123      0.01681      0.43239      0.02607      0.53116
     8.89780      0.02691      0.53623      0.01714      0.43571      0.02691      0.53616
     8.91784      0.02793      0.54135      0.01752      0.43908      0.02791      0.54128
     8.93788      0.02915      0.54660      0.01796      0.44249      0.02913      0.54653
     8.95792      0.03063      0.55197      0.01848      0.44595      0.03060      0.55191
     8.97796      0.03244      0.55748      0.01910      0.44945      0.03240      0.55742
     8.99800      0.03467      0.56311      0.01984      0.45300      0.03462      0.56304
     9.01803      0.03744      0.56881      0.02076      0.45655      0.03737      0.56874
     9.03808      0.04091      0.57449      0.02190      0.46009      0.04083      0.57442
     9.05812      0.04528      0.57998      0.02330      0.46354      0.04518      0.57992
     9.07816      0.05075      0.58498      0.02501      0.46677      0.05062      0.58493
     9.09820      0.05746      0.58893      0.02704      0.46960      0.05730      0.58891
     9.11824      0.06531      0.59104      0.02923      0.47177      0.06512      0.59107
     9.13828      0.07362      0.59030      0.03126      0.47308      0.07342      0.59040
     9.15832      0.08084      0.58605      0.03259      0.47357      0.08069      0.58623
     9.17836      0.08482      0.57880      0.03275      0.47371      0.08474      0.57903
     9.19840      0.08402      0.57072      0.03172      0.47420      0.08404      0.57095
     9.21844      0.07886      0.56454      0.02995      0.47554      0.07896      0.56472
     9.23848      0.07131      0.56183      0.02799      0.47780      0.07143      0.56194
     9.25852      0.06338      0.56253      0.02618      0.48078      0.06350      0.56259
     9.27856      0.05627      0.56575      0.02468      0.48422      0.05637      0.56577
     9.29860      0.05038      0.57054      0.02349      0.48794      0.05047      0.57054
     9.31864      0.04569      0.57619      0.02258      0.49180      0.04576      0.57618
     9.33868      0.04202      0.58227      0.02188      0.49573      0.04207      0.58225
     9.35872      0.03916      0.58852      0.02136      0.49969      0.03920      0.58850
     9.37876      0.03693      0.59481      0.02097      0.50367      0.03697      0.59479
     9.39880      0.03520      0.60108      0.02068      0.50764      0.03522      0.60106
     9.41884      0.03383      0.60728      0.02047      0.51162      0.03385      0.60727
     9.43888      0.03276      0.61343      0.02032      0.51560      0.03278      0.61341
     9.45892      0.03192      0.61950      0.02023      0.51957      0.03194      0.61949
     9.47896      0.03126      0.62552      0.02017      0.52355      0.03127      0.62550
     9.49900      0.03074      0.63148      0.02014      0.52754      0.03075      0.63147
     9.51904      0.03034      0.63740      0.02015      0.53153      0.03035      0.63739
     9.53908      0.03004      0.64329      0.02017      0.53553      0.03004      0.64328
     9.55912      0.02981      0.64916      0.02021      0.53955      0.02982      0.64915
     9.57916      0.02965      0.65501      0.02027      0.54358      0.02965      0.65500
     9.59920      0.02954      0.66085      0.02033      0.54762      0.02954      0.66084
     9.61924      0.02948      0.66668      0.02042      0.55169      0.02948      0.66668
     9.63928      0.02946      0.67252      0.02051      0.55577      0.02946      0.67252
     9.65932      0.02947      0.67837      0.02061      0.55988      0.02947      0.67836
     9.67936      0.02951      0.68423      0.02071      0.56400      0.02952      0.68423
     9.69940      0.02958      0.69011      0.02083      0.56815      0.02959      0.69010
     9.71944      0.02968      0.69601      0.02095      0.57233      0.02968      0.69600
     9.73948      0.02979      0.70193      0.02108      0.57653      0.02979      0.70193
     9.75952      0.02992      0.70789      0.02121      0.58076      0.02993      0.70788
     9.77956      0.03007      0.71387      0.02135      0.58501      0.03008      0.71386
     9.79960      0.03024      0.71989      0.02149      0.58930      0.03024      0.71988
     9.81964      0.03042      0.72594      0.02164      0.59361      0.03042      0.72594
     9.83968      0.03061      0.73203      0.02179      0.59796      0.03061      0.73203
     9.85972      0.03082      0.73817      0.02194      0.60233      0.03082      0.73816
     9.87976      0.03104      0.74435      0.02210      0.60674      0.03104      0.74434
     9.89980      0.03127      0.75057      0.02227      0.61118      0.03127      0.75057
     9.91984      0.03151      0.75684      0.02243      0.61565      0.03151      0.75684
     9.93988      0.03176      0.76316      0.02261      0.62016      0.03176      0.76316
     9.95992      0.03203      0.76954      0.02278      0.62470      0.03203      0.76953
     9.97996      0.03230      0.77597      0.02296      0.62927      0.03230      0.77596
    10.00000      0.03258      0.78245      0.02314      0.63389      0.03258      0.78245
# 
# 06/16/2017 at 12:55 YAMBO_RT @ anomaly [start]
# 06/16/2017 at 12:55                    [end]
#  
# Timing   [Min/Max/Average]: 01s/01s/01s
#
# .-Input file : yambo.in
# | optics                         # [R OPT] Optics
# | bse                            # [R BSE] Bethe Salpeter Equation.
# | bsk                            # [R BSK] Bethe Salpeter Equation kernel
# | bss                            # [R BSS] Bethe Salpeter Equation solver
# | em1s                           # [R Xs] Static Inverse Dielectric Matrix
# | BoseTemp= 0.000000     eV      # Bosonic Temperature
# | FFTGvecs=  387         RL      # [FFT] Plane-waves
# | X_Threads= 1                   # [OPENMP/X] Number of threads for response functions
# | DIP_Threads= 1                 # [OPENMP/X] Number of threads for dipoles
# | K_Threads= 1                   # [OPENMP/BSK] Number of threads for response functions
# | Chimod= "hartree"              # [X] IP/Hartree/ALDA/LRC/BSfxc
# | BSEmod= "retarded"             # [BSE] resonant/retarded/coupling
# | BSKmod= "SEX"                  # [BSE] IP/Hartree/HF/ALDA/SEX/BSfxc
# | BSSmod= "h"                    # [BSS] (h)aydock/(d)iagonalization/(i)nversion/(t)ddft`
# | BSENGexx=  531         RL      # [BSK] Exchange components
# | BSENGBlk=  59          RL      # [BSK] Screened interaction block size
# | #WehCpl                        # [BSK] eh interaction included also in coupling
# | KfnQPdb= "E < 08_ypp_gw_10fs_Xonly/ndb.QP_merged_1_gw_ppa" # [EXTQP BSK BSS] Database
# | % BEnRange
# |   0.00000 | 10.00000 | eV      # [BSS] Energy range
# | %
# | % BDmRange
# |   0.10000 |  0.10000 | eV      # [BSS] Damping range
# | %
# | BEnSteps=  500                 # [BSS] Energy steps
# | % BLongDir
# | 0.1000E-4 | 0.000    | 0.000    |        # [BSS] [cc] Electric Field
# | %
# | % BSEBands
# |   2 |  7 |                     # [BSK] Bands range
# | %
# | BSHayTrs=  0.02000             # [BSS] Relative [o/o] Haydock treshold. Strict(>0)/Average(<0)
# | XfnRTdb= "f @ 0.1 ps < 04_elel+elph_0K/ndb.RT_carriers" # [EXTRT Xd] Database
# | % BndsRnXs
# |   1 |  8 |                     # [Xs] Polarization function bands
# | %
# | NGsBlkXs=  59          RL      # [Xs] Response block size
# | GrFnTpXs= "R"                  # [Xs] Green`s function (T)ordered,(R)etarded,(r)senant,(a)ntiresonant [T, R, r, Ta, Ra]
# | % DmRngeXs
# |   0.10000 |  0.10000 | eV      # [Xs] Damping range
# | %
# | % LongDrXs
# | 0.1000E-4 | 0.000    | 0.000    |        # [Xs] [cc] Electric Field
# | %
