#                                                                     
#                                                                     
# Y88b    /   e           e    e      888~~\    ,88~-_                
#  Y88b  /   d8b         d8b  d8b     888   |  d888   \               
#   Y88b/   /Y88b       d888bdY88b    888 _/  88888    |              
#    Y8Y   /  Y88b     / Y88Y Y888b   888  \  88888    |              
#     Y   /____Y88b   /   YY   Y888b  888   |  Y888   /               
#    /   /      Y88b /          Y888b 888__/    `88_-~                
#                                                                     
#                                                                     
#      Version 5.0.0 Revision 19360 Hash 188c9dd11                    
#                Branch is devel-magnons                              
#         MPI+OpenMP+SLK+SLEPC+HDF5_MPI_IO Build                      
#               http://www.yambo-code.org                             
#
# Polarizability ( -<<X>> ) [volume @ Q(1):  0.577350283E-5  0.577350283E-5  0.577350283E-5 [q->0 direction]
#
# [GEN] GF Energies                               : Teter 93(XC)
# [GEN] Wavefunctions                             : Teter 93(XC)
# [GEN] Green`s Function                          : Resonant
# [GEN] Gauge                                     : Length
# [GEN] [r,Vnl] included                          : yes
#
# DIP band range                                  :   14   34
# DIP band range limits                           :  24  25
# DIP e/h energy range                            :  -1.00000000     -1.00000000    [eV]
# RL vectors in the sum                           :  17279
# [r,Vnl] included                                : yes
# Bands ordered                                   : yes
# Direct v evaluation                             : no
# Approach used                                   : G-space v
# Dipoles computed                                : R V P
# Wavefunctions                                   : Teter 93(XC)
#
#
#
# [K] Identifier                                  :   4130
# [K] Dimension                                   :  110
# [K] Bands                                       :   14   34
# [K] Exchange                                    : yes
# [K] Correlation                                 : no
# [K] Kernel`s coupling                           : no
# [K] Exchange                                    : no
# [K] Correlation                                 : no
# [K] W interaction is bare                       : no
# [K] ALDA kernel in R-space                      : yes
# [K] RL vectors                                  :   367 [exchange]
# [K] E/h energy range                            :  -1.00000000     -1.00000000    [eV]
# [K] Coupling range                              :   100.000000      100.000000    [o/o]
#                                                 
# [Haydock] Accuracy (requested)                  :  0.499999989E-2 [o/o]
# [Haydock] Accuracy (reached)                    :  0.197983129E-3 [o/o]
# [Haydock] Iterations                            :  121
#
#    Alpha is in a.u. of volume
#
#    E/ev[1]            ALPHA-Im[2]        ALPHA-Re[3]        ALPHAo-Im[4]       ALPHAo-Re[5]       ALPHA`-Im[6]       ALPHA`-Re[7]
#
     3.00000000         1.18800056         53.4210587         6.60977697         113.250023         1.18800056         53.4210587   
     3.01603222         1.19753158         53.6120224         6.75292492         114.311058         1.19753158         53.6120224   
     3.03206396         1.20718837         53.8045235         6.90097618         115.395012         1.20718837         53.8045235   
     3.04809618         1.21697330         53.9985771         7.05416822         116.502594         1.21697330         53.9985771   
     3.06412840         1.22688866         54.1941948         7.21273899         117.634598         1.22688866         54.1941948   
     3.08016038         1.23693705         54.3914185         7.37694931         118.791962         1.23693705         54.3914185   
     3.09619236         1.24712074         54.5902481         7.54707003         119.975479         1.24712074         54.5902481   
     3.11222434         1.25744295         54.7907257         7.72339582         121.186165         1.25744295         54.7907257   
     3.12825656         1.26790619         54.9928665         7.90623379         122.424973         1.26790619         54.9928665   
     3.14428878         1.27851260         55.1966820         8.09591389         123.692932         1.27851260         55.1966820   
     3.16032052         1.28926528         55.4022064         8.29277897         124.991089         1.28926528         55.4022064   
     3.17635274         1.30016732         55.6094513         8.49721146         126.320618         1.30016732         55.6094513   
     3.19238496         1.31122196         55.8184700         8.70960331         127.682655         1.31122196         55.8184700   
     3.20841670         1.32243133         56.0292473         8.93037605         129.078522         1.32243133         56.0292473   
     3.22444892         1.33379924         56.2418442         9.15998363         130.509491         1.33379924         56.2418442   
     3.24048090         1.34532869         56.4562607         9.39890957         131.976974         1.34532869         56.4562607   
     3.25651312         1.35702264         56.6725311         9.64766693         133.482407         1.35702264         56.6725311   
     3.27254510         1.36888468         56.8906784         9.90680885         135.027313         1.36888468         56.8906784   
     3.28857708         1.38091886         57.1107483         10.1769276         136.613388         1.38091886         57.1107483   
     3.30460930         1.39312792         57.3327446         10.4586620         138.242279         1.39312792         57.3327446   
     3.32064128         1.40551603         57.5567131         10.7526884         139.915833         1.40551603         57.5567131   
     3.33667326         1.41808581         57.7826614         11.0597372         141.635895         1.41808581         57.7826614   
     3.35270548         1.43084240         58.0106354         11.3806028         143.404617         1.43084240         58.0106354   
     3.36873746         1.44378948         58.2406693         11.7161274         145.224045         1.44378948         58.2406693   
     3.38476944         1.45693016         58.4727745         12.0672255         147.096512         1.45693016         58.4727745   
     3.40080166         1.47027028         58.7070045         12.4348888         149.024429         1.47027028         58.7070045   
     3.41683364         1.48381245         58.9433784         12.8201771         151.010330         1.48381245         58.9433784   
     3.43286562         1.49756157         59.1819191         13.2242479         153.056900         1.49756157         59.1819191   
     3.44889784         1.51152325         59.4226875         13.6483536         155.167099         1.51152325         59.4226875   
     3.46492982         1.52570021         59.6656876         14.0938349         157.343979         1.52570021         59.6656876   
     3.48096180         1.54009867         59.9109726         14.5621719         159.590790         1.54009867         59.9109726   
     3.49699402         1.55472350         60.1585846         15.0549765         161.911194         1.55472350         60.1585846   
     3.51302600         1.56957865         60.4085350         15.5739660         164.308670         1.56957865         60.4085350   
     3.52905798         1.58467054         60.6608772         16.1210575         166.787384         1.58467054         60.6608772   
     3.54509020         1.60000420         60.9156532         16.6983318         169.351639         1.60000420         60.9156532   
     3.56112218         1.61558485         61.1728897         17.3080349         172.005829         1.61558485         61.1728897   
     3.57715440         1.63141859         61.4326363         17.9526882         174.755066         1.63141859         61.4326363   
     3.59318638         1.64751053         61.6949196         18.6349831         177.604385         1.64751053         61.6949196   
     3.60921836         1.66386771         61.9598045         19.3579426         180.559662         1.66386771         61.9598045   
     3.62525058         1.68049586         62.2273178         20.1248875         183.626877         1.68049586         62.2273178   
     3.64128256         1.69740140         62.4975052         20.9394398         186.812515         1.69740140         62.4975052   
     3.65731454         1.71459043         62.7703972         21.8056278         190.123642         1.71459043         62.7703972   
     3.67334676         1.73207140         63.0460777         22.7279587         193.568085         1.73207140         63.0460777   
     3.68937874         1.74984908         63.3245506         23.7113438         197.153824         1.74984908         63.3245506   
     3.70541072         1.76793265         63.6058922         24.7613316         200.889847         1.76793265         63.6058922   
     3.72144294         1.78632891         63.8901443         25.8840866         204.785965         1.78632891         63.8901443   
     3.73747492         1.80504501         64.1773453         27.0864410         208.852448         1.80504501         64.1773453   
     3.75350714         1.82408977         64.4675598         28.3761559         213.100952         1.82408977         64.4675598   
     3.76953912         1.84347105         64.7608414         29.7618256         217.543640         1.84347105         64.7608414   
     3.78557110         1.86319745         65.0572281         31.2532215         222.194229         1.86319745         65.0572281   
     3.80160332         1.88327825         65.3568039         32.8613968         227.067520         1.88327825         65.3568039   
     3.81763530         1.90372097         65.6595917         34.5987244         232.179489         1.90372097         65.6595917   
     3.83366728         1.92453682         65.9656754         36.4794197         237.547928         1.92453682         65.9656754   
     3.84969950         1.94573510         66.2751160         38.5196648         243.192368         1.94573510         66.2751160   
     3.86573148         1.96732545         66.5879517         40.7378273         249.133865         1.96732545         66.5879517   
     3.88176322         1.98931789         66.9042664         43.1551056         255.395889         1.98931789         66.9042664   
     3.89779568         2.01172376         67.2241058         45.7959671         262.004456         2.01172376         67.2241058   
     3.91382766         2.03455448         67.5475540         48.6884499         268.987640         2.03455448         67.5475540   
     3.92985988         2.05782175         67.8746796         51.8654213         276.376984         2.05782175         67.8746796   
     3.94589186         2.08153629         68.2055359         55.3648109         284.206848         2.08153629         68.2055359   
     3.96192360         2.10571122         68.5401993         59.2313118         292.515411         2.10571122         68.5401993   
     3.97795606         2.13036013         68.8787689         63.5175018         301.345062         2.13036013         68.8787689   
     3.99398804         2.15549517         69.2212830         68.2851028         310.741791         2.15549517         69.2212830   
     4.01002026         2.18113112         69.5678406         73.6079254         320.756989         2.18113112         69.5678406   
     4.02605200         2.20728207         69.9185181         79.5734940         331.446350         2.20728207         69.9185181   
     4.04208422         2.23396254         70.2734146         86.2872772         342.871033         2.23396254         70.2734146   
     4.05811596         2.26118803         70.6325760         93.8763657         355.097168         2.26118803         70.6325760   
     4.07414818         2.28897619         70.9961243         102.495171         368.195709         2.28897619         70.9961243   
     4.09018040         2.31734204         71.3641281         112.331490         382.240051         2.31734204         71.3641281   
     4.10621262         2.34630418         71.7367096         123.616760         397.305847         2.34630418         71.7367096   
     4.12224436         2.37588024         72.1139221         136.635468         413.464508         2.37588024         72.1139221   
     4.13827658         2.40608978         72.4959030         151.741409         430.778229         2.40608978         72.4959030   
     4.15430880         2.43695307         72.8827286         169.375336         449.287628         2.43695307         72.8827286   
     4.17034054         2.46848989         73.2745056         190.086456         468.991211         2.46848989         73.2745056   
     4.18637276         2.50072336         73.6713638         214.563141         489.816589         2.50072336         73.6713638   
     4.20240498         2.53367519         74.0733719         243.659943         511.567291         2.53367519         74.0733719   
     4.21843672         2.56737041         74.4806900         278.432190         533.846985         2.56737041         74.4806900   
     4.23446894         2.60183358         74.8933945         320.152588         555.934387         2.60183358         74.8933945   
     4.25050116         2.63709450         75.3116531         370.294708         576.600647         2.63709450         75.3116531   
     4.26653290         2.67317867         75.7355499         430.421570         593.849792         2.67317867         75.7355499   
     4.28256512         2.71011901         76.1652374         501.912415         604.606018         2.71011901         76.1652374   
     4.29859734         2.74794650         76.6008224         585.361084         604.430908         2.74794650         76.6008224   
     4.31462908         2.78669667         77.0424576         679.593811         587.550659         2.78669667         77.0424576   
     4.33066130         2.82641029         77.4903030         780.410767         547.658081         2.82641029         77.4903030   
     4.34669352         2.86712527         77.9444427         879.804504         479.919067         2.86712527         77.9444427   
     4.36272573         2.90888667         78.4050827         966.981262         383.673279         2.90888667         78.4050827   
     4.37875748         2.95173597         78.8723068         1031.57568         263.835327         2.95173597         78.8723068   
     4.39478970         2.99571705         79.3462753         1066.96008         129.121140         2.99571705         79.3462753   
     4.41082144         3.04086256         79.8271103         1070.53003        -11.1830330         3.04086256         79.8271103   
     4.42685366         3.08718753         80.3149490         1041.86243        -148.206268         3.08718753         80.3149490   
     4.44288588         3.13467383         80.8099060         982.668274        -272.375183         3.13467383         80.8099060   
     4.45891809         3.18327594         81.3122025         898.810913        -374.203339         3.18327594         81.3122025   
     4.47494984         3.23293018         81.8220139         800.456543        -447.656372         3.23293018         81.8220139   
     4.49098206         3.28361559         82.3396835         698.860596        -492.450745         3.28361559         82.3396835   
     4.50701427         3.33538866         82.8655624         602.780457        -512.992065         3.33538866         82.8655624   
     4.52304602         3.38837743         83.3999557         517.092896        -515.606140         3.38837743         83.3999557   
     4.53907824         3.44274974         83.9431458         443.394379        -506.308594         3.44274974         83.9431458   
     4.55511045         3.49865270         84.4953232         381.297394        -489.816711         3.49865270         84.4953232   
     4.57114220         3.55620623         85.0567093         329.490265        -469.440857         3.55620623         85.0567093   
     4.58717394         3.61550140         85.6274948         286.402100        -447.346375         3.61550140         85.6274948   
     4.60320663         3.67661405         86.2079163         250.524948        -424.876312         3.67661405         86.2079163   
     4.61923838         3.73961163         86.7982101         220.545502        -402.827026         3.73961163         86.7982101   
     4.63527060         3.80456996         87.3986740         195.366913        -381.640656         3.80456996         87.3986740   
     4.65130281         3.87156248         88.0095520         174.099869        -361.541718         3.87156248         88.0095520   
     4.66733456         3.94067407         88.6311722         156.027863        -342.619690         3.94067407         88.6311722   
     4.68336678         4.01199961         89.2638550         140.577530        -324.884247         4.01199961         89.2638550   
     4.69939899         4.08563614         89.9079361         127.291245        -308.301392         4.08563614         89.9079361   
     4.71543121         4.16169930         90.5637817         115.800613        -292.810425         4.16169930         90.5637817   
     4.73146296         4.24030638         91.2317276         105.809944        -278.340698         4.24030638         91.2317276   
     4.74749470         4.32159376         91.9121704         97.0793228        -264.816406         4.32159376         91.9121704   
     4.76352692         4.40571070         92.6055374         89.4136505        -252.162567         4.40571070         92.6055374   
     4.77955914         4.49282265         93.3122559         82.6531906        -240.306961         4.49282265         93.3122559   
     4.79559088         4.58310747         94.0326996         76.6669769        -229.182556         4.58310747         94.0326996   
     4.81162357         4.67677736         94.7674026         71.3460922        -218.726151         4.67677736         94.7674026   
     4.82765532         4.77405834         95.5167923         66.6004333        -208.880569         4.77405834         95.5167923   
     4.84368706         4.87521744         96.2813568         62.3543167        -199.592957         4.87521744         96.2813568   
     4.85971928         4.98055172         97.0615616         58.5443192        -190.815201         4.98055172         97.0615616   
     4.87575150         5.09041214         97.8579330         55.1168213        -182.503433         5.09041214         97.8579330   
     4.89178371         5.20518589         98.6708755         52.0265656        -174.618118         5.20518589         98.6708755   
     4.90781593         5.32531023         99.5007935         49.2350388        -167.123428         5.32531023         99.5007935   
     4.92384768         5.45125723         100.348030         46.7092133        -159.985977         5.45125723         100.348030   
     4.93987942         5.58348465         101.212715         44.4209023        -153.175934         5.58348465         101.212715   
     4.95591164         5.72235107         102.094856         42.3458099        -146.665710         5.72235107         102.094856   
     4.97194386         5.86791611         102.994133         40.4631119        -140.430527         5.86791611         102.994133   
     4.98797607         6.01971865         103.910263         38.7546501        -134.446838         6.01971865         103.910263   
     5.00400782         6.17651415         104.843147         37.2049103        -128.693573         6.17651415         104.843147   
     5.02004004         6.33639479         105.793716         35.8005142        -123.150383         6.33639479         105.793716   
     5.03607178         6.49748850         106.764389         34.5302429        -117.798584         6.49748850         106.764389   
     5.05210400         6.65916443         107.759048         33.3847771        -112.620567         6.65916443         107.759048   
     5.06813669         6.82275534         108.781693         32.3564453        -107.600296         6.82275534         108.781693   
     5.08416843         6.99112368         109.835258         31.4389458        -102.722687         6.99112368         109.835258   
     5.10020018         7.16752768         110.921188         30.6271381        -97.9733734         7.16752768         110.921188   
     5.11623240         7.35475159         112.039810         29.9171333        -93.3386765         7.35475159         112.039810   
     5.13226461         7.55490446         113.191017         29.3061695        -88.8054886         7.55490446         113.191017   
     5.14829636         7.76960945         114.374603         28.7927456        -84.3614044         7.76960945         114.374603   
     5.16432858         8.00030136         115.590431         28.3765621        -79.9939804         8.00030136         115.590431   
     5.18036079         8.24833202         116.838173         28.0586662        -75.6915741         8.24833202         116.838173   
     5.19639254         8.51497078         118.117188         27.8414898        -71.4426117         8.51497078         118.117188   
     5.21242476         8.80107784         119.426178         27.7289047        -67.2360001         8.80107784         119.426178   
     5.22845697         9.10650063         120.763153         27.7263012        -63.0611343         9.10650063         120.763153   
     5.24448919         9.42908573         122.125702         27.8404446        -58.9081383         9.42908573         122.125702   
     5.26052094         9.76382542         123.512466         28.0791779        -54.7678566         9.76382542         123.512466   
     5.27655315         10.1031208         124.925613         28.4509468        -50.6310081         10.1031208         124.925613   
     5.29258490         10.4393539         126.373009         28.9645138        -46.4874306         10.4393539         126.373009   
     5.30861712         10.7693348         127.867874         29.6297817        -42.3235321         10.7693348         127.867874   
     5.32464933         11.0971251         129.424377         30.4609013        -38.1208801         11.0971251         129.424377   
     5.34068155         11.4325886         131.052902         31.4815159        -33.8558884         11.4325886         131.052902   
     5.35671329         11.7869921         132.758041         32.7286720        -29.5051098         11.7869921         132.758041   
     5.37274551         12.1697369         134.540588         34.2536201        -25.0498238         12.1697369         134.540588   
     5.38877726         12.5874500         136.399872         36.1201248        -20.4796677         12.5874500         136.399872   
     5.40480947         13.0447645         138.335663         38.4041557        -15.7937765         13.0447645         138.335663   
     5.42084169         13.5453558         140.348648         41.1962242        -11.0025139         13.5453558         140.348648   
     5.43687391         14.0927896         142.440430         44.6056023        -6.13215971         14.0927896         142.440430   
     5.45290565         14.6910686         144.613495         48.7647972        -1.23382056         14.6910686         144.613495   
     5.46893787         15.3447847         146.870361         53.8313370         3.60096478         15.3447847         146.870361   
     5.48497009         16.0590839         149.213440         59.9844627         8.21877193         16.0590839         149.213440   
     5.50100183         16.8391800         151.644287         67.4090652         12.3753605         16.8391800         151.644287   
     5.51703405         17.6896038         154.163818         76.2615738         15.7065105         17.6896038         154.163818   
     5.53306627         18.6126366         156.772385         86.6056137         17.7100372         18.6126366         156.772385   
     5.54909801         19.6070404         159.471985         98.3291397         17.7656059         19.6070404         159.471985   
     5.56512976         20.6681271         162.270157         111.069252         15.2061272         20.6681271         162.270157   
     5.58116245         21.7915802         165.183914         124.184784         9.41577244         21.7915802         165.183914   
     5.59719467         22.9806919         168.240005         136.746628       -0.954146609E-1      22.9806919         168.240005   
     5.61322641         24.2525654         171.468979         147.466721        -13.5857754         24.2525654         171.468979   
     5.62925863         25.6376171         174.896744         154.655151        -30.7624493         25.6376171         174.896744   
     5.64529037         27.1733475         178.540009         156.574448        -50.3074913         27.1733475         178.540009   
     5.66132259         28.8990479         182.407837         152.307159        -69.8293228         28.8990479         182.407837   
     5.67735481         30.8544865         186.505066         142.469635        -86.6724548         30.8544865         186.505066   
     5.69338703         33.0822754         190.835266         128.986771        -99.0577927         33.0822754         190.835266   
     5.70941877         35.6306458         195.399384         114.130157        -106.581703         35.6306458         195.399384   
     5.72545052         38.5566101         200.193710         99.6732941        -109.889015         38.5566101         200.193710   
     5.74148273         41.9276848         205.205032         86.6215286        -110.047409         41.9276848         205.205032   
     5.75751495         45.8217697         210.403336         75.3513489        -108.093857         45.8217697         210.403336   
     5.77354717         50.3230286         215.732468         65.8621216        -104.845482         50.3230286         215.732468   
     5.78957939         55.5113106         221.100052         57.9762459        -100.878242         55.5113106         221.100052   
     5.80561113         61.4412918         226.371872         51.4584236        -96.5722580         61.4412918         226.371872   
     5.82164288         68.1110535         231.380066         46.0750885        -92.1679230         68.1110535         231.380066   
     5.83767557         75.4338760         235.960754         41.6164055        -87.8115997         75.4338760         235.960754   
     5.85370731         83.2434616         240.017868         37.9025002        -83.5873795         83.2434616         240.017868   
     5.86973953         91.3639297         243.572617         34.7824707        -79.5363541         91.3639297         243.572617   
     5.88577175         99.7013016         246.725662         32.1338120        -75.6713638         99.7013016         246.725662   
     5.90180349         108.252251         249.544952         29.8594284        -71.9866638         108.252251         249.544952   
     5.91783524         116.981903         252.014038         27.8843460        -68.4658356         116.981903         252.014038   
     5.93386745         125.707619         254.156433         26.1530972        -65.0862045         125.707619         254.156433   
     5.94990015         134.177124         256.251831         24.6282597        -61.8238831         134.177124         256.251831   
     5.96593189         142.362762         258.902496         23.2867756        -58.6594086         142.362762         258.902496   
     5.98196363         150.733978         262.795929         22.1134796        -55.5803070         150.733978         262.795929   
     5.99799585         160.241714         268.318848         21.0955582        -52.5799484         160.241714         268.318848   
     6.01402807         172.041626         275.328308         20.2200813        -49.6542816         172.041626         275.328308   
     6.03005981         187.210968         283.167267         19.4741650        -46.7994919         187.210968         283.167267   
     6.04609251         206.600677         290.773041         18.8457355        -44.0105858         206.600677         290.773041   
     6.06212425         230.750732         296.748016         18.3244476        -41.2819786         230.750732         296.748016   
     6.07815599         259.789948         299.418213         17.9019108        -38.6072197         259.789948         299.418213   
     6.09418821         293.313690         296.951447         17.5718727        -35.9798584         293.313690         296.951447   
     6.11022043         330.354828         287.538574         17.3301163        -33.3934975         330.354828         287.538574   
     6.12625265         369.455750         269.460510         17.1742649        -30.8425159         369.455750         269.460510   
     6.14228439         408.547211         240.943161         17.1034203        -28.3222942         408.547211         240.943161   
     6.15831661         444.287415         200.272827         17.1176357        -25.8290958         444.287415         200.272827   
     6.17434835         471.399719         147.013931         17.2172012        -23.3602829         471.399719         147.013931   
     6.19038057         483.538696         84.0722122         17.4020882        -20.9132042         483.538696         84.0722122   
     6.20641279         476.282928         18.5365925         17.6723957        -18.4840469         476.282928         18.5365925   
     6.22244501         450.148895        -40.6192589         18.0305214        -16.0666523         450.148895        -40.6192589   
     6.23847675         410.573151        -86.5567856         18.4841328        -13.6545095         410.573151        -86.5567856   
     6.25450897         364.912384        -116.892570         19.0468807        -11.2454786         364.912384        -116.892570   
     6.27054071         319.372742        -133.033234         19.7341843        -8.84650326         319.372742        -133.033234   
     6.28657293         277.750824        -138.179459         20.5552902        -6.47389555         277.750824        -138.179459   
     6.30260563         241.692261        -135.701752         21.5056438        -4.14659166         241.692261        -135.701752   
     6.31863737         211.457077        -128.366623         22.5652351        -1.87272739         211.457077        -128.366623   
     6.33466911         186.607086        -118.160812         23.7098083        0.366011292         186.607086        -118.160812   
     6.35070133         166.463257        -106.395035         24.9360619         2.61807323         166.463257        -106.395035   
     6.36673355         150.347137        -93.8908234         26.2868004         4.94282627         150.347137        -93.8908234   
     6.38276529         137.683762        -81.1574631         27.8545952         7.37553406         137.683762        -81.1574631   
     6.39879751         128.019897        -68.5209427         29.7621651         9.90152454         128.019897        -68.5209427   
     6.41482973         121.015373        -56.2124023         32.1373825         12.4481888         121.015373        -56.2124023   
     6.43086147         116.420860        -44.4237938         35.0973129         14.8850327         116.420860        -44.4237938   
     6.44689369         114.052261        -33.3546906         38.7341881         17.0170612         114.052261        -33.3546906   
     6.46292543         113.749092        -23.2467861         43.0884743         18.5712986         113.749092        -23.2467861   
     6.47895813         115.313286        -14.3962040         48.0942841         19.1912289         115.313286        -14.3962040   
     6.49498987         118.434181        -7.12094641         53.4938202         18.4722614         118.434181        -7.12094641   
     6.51102209         122.645737        -1.65176535         58.7580338         16.0809498         122.645737        -1.65176535   
     6.52705383         127.395851         2.01583195         63.0989494         11.9696798         127.395851         2.01583195   
     6.54308558         132.271744         4.17970753         65.6854019         6.58622503         132.271744         4.17970753   
     6.55911827         137.243744         5.23940372         66.0275345        0.862611294         137.243744         5.23940372   
     6.57515049         142.654709         5.30908060         64.2634735        -4.12425232         142.654709         5.30908060   
     6.59118223         148.860428         3.94544625         61.0857239        -7.60998011         148.860428         3.94544625   
     6.60721445         155.729294        0.246370554         57.3779259        -9.36947250         155.729294        0.246370554   
     6.62324619         162.322433        -6.67641926         53.8668060        -9.62793541         162.322433        -6.67641926   
     6.63927794         166.996155        -17.0482235         50.9715652        -8.82914829         166.996155        -17.0482235   
     6.65531063         168.012070        -29.9790058         48.8174515        -7.43498468         168.012070        -29.9790058   
     6.67134285         164.366455        -43.6065140         47.3171806        -5.80199242         164.366455        -43.6065140   
     6.68737459         156.247986        -55.8258209         46.2746925        -4.11421490         156.247986        -55.8258209   
     6.70340633         144.841125        -65.0488892         45.5084496        -2.37313724         144.841125        -65.0488892   
     6.71943855         131.768356        -70.5613480         44.9600830       -0.466723651         131.768356        -70.5613480   
     6.73547125         118.558517        -72.4677963         44.7252617         1.70720255         118.558525        -72.4677734   
     6.75150299         106.327415        -71.4080582         44.9932365         4.14287758         106.327415        -71.4080582   
     6.76753521         95.6922379        -68.2275467         45.9580536         6.70419455         95.6922302        -68.2275543   
     6.78356695         86.8646698        -63.7357140         47.7579880         9.14598846         86.8646927        -63.7356987   
     6.79959869         79.7959900        -58.5969467         50.4405212         11.1375551         79.7959900        -58.5969467   
     6.81563091         74.2967987        -53.3155289         53.9197578         12.2791824         74.2967987        -53.3155289   
     6.83166361         70.1072006        -48.2608223         57.9082260         12.1450062         70.1072006        -48.2608223   
     6.84769535         66.9237366        -43.6958847         61.8481255         10.4010067         66.9237289        -43.6958923   
     6.86372757         64.3993454        -39.7787056         64.9357452         7.01433897         64.3993301        -39.7786980   
     6.87975931         62.1594734        -36.5313148         66.3443832         2.45372629         62.1594810        -36.5313263   
     6.89579105         59.8706398        -33.8092384         65.6127167        -2.34106135         59.8706398        -33.8092384   
     6.91182375         57.3398895        -31.3416481         62.9096718        -6.32332993         57.3398895        -31.3416767   
     6.92785597         54.5556755        -28.8467159         58.9175568        -8.78418827         54.5556641        -28.8466835   
     6.94388771         51.6297646        -26.1297531         54.4548950        -9.52781487         51.6297646        -26.1297531   
     6.95991945         48.7091560        -23.1014175         50.1715355        -8.73956490         48.7091675        -23.1014156   
     6.97595167         45.9272652        -19.7432728         46.4558105        -6.76352358         45.9272652        -19.7432728   
     6.99198341         43.3961296        -16.0780411         43.4814491        -3.94539952         43.3961334        -16.0780258   
     7.00801611         41.2065964        -12.1586370         41.2910042       -0.564545691         41.2066002        -12.1586313   
     7.02404833         39.4226761        -8.06137276         39.8651848         3.17657065         39.4226799        -8.06138325   
     7.04008007         38.0770416        -3.87189031         39.1662331         7.14035797         38.0770416        -3.87189031   
     7.05611181         37.1756744        0.326387018         39.1623535         11.2342186         37.1756744        0.326396883   
     7.07214403         36.7052345         4.45838451         39.8400154         15.3925409         36.7052269         4.45840263   
     7.08817673         36.6387100         8.45892715         41.2108994         19.5606213         36.6387138         8.45893002   
     7.10420847         36.9388390         12.2728062         43.3154716         23.6756325         36.9388428         12.2728071   
     7.12024021         37.5619659         15.8579473         46.2212181         27.6456490         37.5619583         15.8579617   
     7.13627243         38.4655952         19.1843376         50.0093117         31.3228874         38.4655914         19.1843567   
     7.15230417         39.6170082         22.2250710         54.7445145         34.4791832         39.6170235         22.2250805   
     7.16833639         40.9896393         24.9349442         60.4222031         36.7919655         40.9896393         24.9349365   
     7.18436909         42.5301399         27.2346039         66.8899918         37.8624191         42.5301170         27.2345810   
     7.20040083         44.1063995         29.0359573         73.7624207         37.3008957         44.1063843         29.0359859   
     7.21643257         45.4892921         30.3258247         80.4021454         34.8985786         45.4893188         30.3258171   
     7.23246479         46.4224396         31.2577744         86.0539551         30.8188000         46.4224472         31.2577457   
     7.24849653         46.7687912         32.1592903         90.1333237         25.6397190         46.7687721         32.1592751   
     7.26452923         46.6227837         33.4057045         92.4704590         20.1427822         46.6227608         33.4057350   
     7.28056145         46.2819138         35.2497025         93.2980499         15.0043755         46.2819252         35.2497177   
     7.29659319         46.1125374         37.7424736         93.0547333         10.6514235         46.1125374         37.7424736   
     7.31262493         46.4317284         40.7699661         92.2520752         7.29370022         46.4317169         40.7699585   
     7.32865715         47.4676857         44.1288261         91.4552078         4.92884541         47.4676743         44.1288338   
     7.34468889         49.3742218         47.5740318         91.2132187         3.26314926         49.3742371         47.5740662   
     7.36072159         52.2531586         50.8243980         91.8701324         1.68771112         52.2531662         50.8243980   
     7.37675333         56.1514091         53.5396919         93.3532257       -0.585913002         56.1514015         53.5396652   
     7.39278555         61.0193405         55.2980843         95.0637512        -4.23929548         61.0193062         55.2980881   
     7.40881729         66.6235809         55.6069031         95.9826813        -9.47896671         66.6235580         55.6069221   
     7.42484951         72.4418640         53.9985046         95.0726547        -15.7758884         72.4418793         53.9985085   
     7.44088221         77.6257477         50.2452812         91.8367386        -21.9956036         77.6257553         50.2452583   
     7.45691395         81.1658249         44.6250000         86.6055679        -26.9570007         81.1658173         44.6249733   
     7.47294569         82.2930527         38.0011711         80.2813034        -29.9980392         82.2930298         38.0011787   
     7.48897791         80.8510513         31.5298901         73.8098984        -31.1134834         80.8510818         31.5299320   
     7.50500965         77.2966995         26.1758118         67.8164291        -30.7098083         77.2967453         26.1758003   
     7.52104139         72.3667526         22.4511814         62.5444946        -29.2805710         72.3667297         22.4511204   
     7.53707409         66.7715988         20.4793320         57.9828606        -27.2024937         66.7715759         20.4793320   
     7.55310631         61.0878296         20.1511135         54.0298424        -24.6876144         61.0878372         20.1511421   
     7.56913805         55.7424202         21.2207298         50.5944481        -21.8326912         55.7424583         21.2207127   
     7.58517027         51.0056496         23.3706207         47.6214828        -18.6811314         51.0056534         23.3705997   
     7.60120201         46.9982948         26.2775841         45.0850029        -15.2520037         46.9982643         26.2775764   
     7.61723471         43.7264061         29.6635132         42.9870453        -11.5535431         43.7264061         29.6635361   
     7.63326645         41.1253395         33.3165932         41.3545761        -7.60096407         41.1253510         33.3165970   
     7.64929867         39.0930367         37.0951042         40.2242012        -3.42607594         39.0930481         37.0950813   
     7.66533041         37.5174026         40.9244728         39.6281090        0.926588655         37.5173912         40.9244652   
     7.68136215         36.3025703         44.7896233         39.5917244         5.41096210         36.3025589         44.7896233   
     7.69739437         35.3917999         48.7135963         40.1409683         9.98553371         35.3917999         48.7136116   
     7.71342707         34.7724648         52.7266655         41.3119125         14.6120024         34.7724648         52.7266655   
     7.72945881         34.4612465         56.8426056         43.1584435         19.2459946         34.4612541         56.8426018   
     7.74549103         34.4840813         61.0556717         45.7572174         23.8260384         34.4840889         61.0556717   
     7.76152277         34.8655281         65.3464890         49.2077103         28.2543335         34.8655205         65.3464890   
     7.77755451         35.6270180         69.6888428         53.6253853         32.3733215         35.6270065         69.6888351   
     7.79358721         36.7884445         74.0519333         59.1206131         35.9348946         36.7884445         74.0519485   
     7.80961943         38.3681488         78.3995361         65.7502365         38.5679626         38.3681564         78.3995438   
     7.82565117         40.3826523         82.6920776         73.4311142         39.7642517         40.3826561         82.6920776   
     7.84168339         42.8491707         86.8885651         81.8064270         38.9227028         42.8491669         86.8885422   
     7.85771513         45.7956505         90.9444656         90.1103897         35.5187683         45.7956390         90.9444656   
     7.87374687         49.2713242         94.7930832         97.1606064         29.4297066         49.2713127         94.7931213   
     7.88977957         53.3370476         98.3094330         101.658485         21.2841797         53.3370590         98.3094406   
     7.90581179         58.0160217         101.277245         102.790520         12.4998608         58.0160522         101.277214   
     7.92184353         63.2117195         103.396835         100.728638         4.77277803         63.2116966         103.396805   
     7.93787527         68.6166534         104.361824         96.5529785       -0.664763570         68.6166229         104.361877   
     7.95390749         73.6780319         104.026917         91.6794357        -3.43549299         73.6780548         104.026978   
     7.96994019         77.7175674         102.616570         87.3023071        -3.88812375         77.7176208         102.616554   
     7.98597193         80.2392349         100.804581         84.1575241        -2.74303436         80.2392120         100.804512   
     8.00200367         81.2449493         99.4951401         82.5381546       -0.799993098         81.2448883         99.4951706   
     8.01803589         81.2625198         99.4150391         82.3951797         1.22727644         81.2625198         99.4151230   
     8.03406811         81.0641861         100.853188         83.4420395         2.80717635         81.0642776         100.853218   
     8.05009937         81.3527908         103.699066         85.2812653         3.65369821         81.3528290         103.698952   
     8.06613255         82.6254959         107.627327         87.5723038         3.71094799         82.6253662         107.627274   
     8.08216476         85.1855774         112.245491         90.1513214         2.99954367         85.1854858         112.245621   
     8.09819603         89.1986465         117.166016         92.9659195         1.40729475         89.1988220         117.166138   
     8.11422825         94.7474289         122.033073         95.8305283        -1.36869979         94.7469711         122.033104   
     8.13026047         101.873924         126.527412         98.2156372        -5.61836052         101.873940         126.527878   
     8.14629269         110.656136         130.330139         99.2893982        -11.2729616         110.656693         130.330200   
     8.16232491         121.197502         133.019806         98.2630539        -17.6783848         121.197525         133.019211   
     8.17835617         133.551865         133.991013         94.8474503        -23.7272968         133.551239         133.990936   
     8.19438839         147.578125         132.414505         89.4664230        -28.3283482         147.578079         132.415115   
     8.21042061         162.729797         127.288193         83.0308228        -30.8706684         162.730377         127.288292   
     8.22645283         177.840347         117.674393         76.4868622        -31.3371468         177.840424         117.673874   
     8.24248505         191.087402         103.128540         70.5020065        -30.0891876         191.086884         103.128464   
     8.25851727         200.267029         84.1648331         65.4206772        -27.5881596         200.266891         84.1652603   
     8.27454853         203.410522         62.5364799         61.3725204        -24.2353039         203.410843         62.5365791   
     8.29058075         199.635712         41.0560532         58.3927841        -20.3448200         199.635864         41.0557594   
     8.30661297         189.770081         22.6991558         56.4829521        -16.1774120         189.769836         22.6989880   
     8.32264519         176.074829         9.41453362         55.6213264        -11.9739380         176.074738         9.41476536   
     8.33867741         161.192474         1.57189214         55.7528305        -7.97125196         161.192612         1.57199681   
     8.35470963         147.186722        -1.68902969         56.7730026        -4.39818192         147.186859        -1.68912005   
     8.37074089         135.219421        -1.75770950         58.5191803        -1.45642412         135.219391        -1.75781989   
     8.38677311         125.676941       -0.525095835E-1      60.7833366        0.706154644         125.676849       -0.524991900E-1
     8.40280533         118.382957         2.20178103         63.3460121         1.99812067         118.382950         2.20188260   
     8.41883755         112.738449         4.08747911         65.9868164         2.34877968         112.738533         4.08750677   
     8.43486977         107.854370         5.13233709         68.4319077         1.68804967         107.854378         5.13227463   
     8.45090199         102.799698         5.43577003         70.2896423        0.169735085E-1      102.799660         5.43572950   
     8.46693325         96.9623718         5.60342598         71.0844650        -2.44992542         96.9623413         5.60345125   
     8.48296547         90.2881165         6.40939951         70.4360886        -5.19736528         90.2881393         6.40942764   
     8.49899864         83.1899185         8.39540672         68.2897949        -7.50540495         83.1899490         8.39539528   
     8.51502991         76.2324295         11.6975155         65.0065231        -8.72036171         76.2324219         11.6975098   
     8.53106213         69.8599014         16.1398640         61.2096062        -8.50648117         69.8599014         16.1398640   
     8.54709435         64.3064346         21.4198227         57.5200920        -6.89057064         64.3064270         21.4198322   
     8.56312561         59.6313629         27.2441177         54.3832169        -4.12907839         59.6313744         27.2441158   
     8.57915783         55.7912903         33.3862534         52.0434036       -0.548655033         55.7912903         33.3862495   
     8.59519005         52.6984634         39.6934738         50.6020126         3.54822540         52.6984634         39.6934738   
     8.61122227         50.2563934         46.0714340         50.0842552         7.90821314         50.2563972         46.0714226   
     8.62725449         48.3756485         52.4687729         50.4826431         12.3155727         48.3756485         52.4687729   
     8.64328671         46.9805107         58.8614807         51.7731171         16.5655804         46.9805107         58.8614807   
     8.65931797         46.0095673         65.2429504         53.9059067         20.4397392         46.0095787         65.2429428   
     8.67535114         45.4144669         71.6176605         56.7742081         23.6938190         45.4144669         71.6176605   
     8.69138241         45.1576424         77.9957199         60.1632462         26.0748386         45.1576424         77.9957199   
     8.70741463         45.2099915         84.3931198         63.7072639         27.3936653         45.2099915         84.3931198   
     8.72344685         45.5498772         90.8305130         66.9096146         27.6493454         45.5498772         90.8305130   
     8.73947811         46.1647415         97.3339462         69.2841797         27.1302929         46.1647415         97.3339462   
     8.75551033         47.0539780         103.932579         70.5610352         26.3687134         47.0539780         103.932579   
     8.77154350         48.2299919         110.653618         70.7876358         25.9455814         48.2299919         110.653618   
     8.78757477         49.7147255         117.515488         70.2565613         26.3133411         49.7147255         117.515488   
     8.80360699         51.5341301         124.527512         69.3815231         27.7427902         51.5341148         124.527512   
     8.81963921         53.7116470         131.689178         68.6190872         30.3315067         53.7116470         131.689178   
     8.83567047         56.2617950         138.994034         68.4119644         34.0154190         56.2617950         138.994034   
     8.85170364         59.1839676         146.438416         69.1364365         38.6027451         59.1839676         146.438416   
     8.86773586         62.4606247         154.035919         71.0832062         43.8274117         62.4606247         154.035919   
     8.88376713         66.0709152         161.839005         74.4788513         49.3890533         66.0709152         161.839005   
     8.89979935         70.0197144         169.945923         79.5199890         54.9519882         70.0196991         169.945953   
     8.91583157         74.3706360         178.484619         86.3912430         60.1076317         74.3706360         178.484619   
     8.93186283         79.2594452         187.576935         95.2444611         64.3137436         79.2594452         187.576935   
     8.94789600         84.8820190         197.306732         106.118790         66.8278580         84.8820267         197.306732   
     8.96392822         91.4689407         207.705353         118.774734         66.6784515         91.4689407         207.705353   
     8.97995949         99.2711716         218.759064         132.449142         62.7587318         99.2711716         218.759064   
     8.99599171         108.557457         230.414749         145.613022         54.1641350         108.557457         230.414749   
     9.01202393         119.622307         242.579224         156.004959         40.8157463         119.622307         242.579224   
     9.02805614         132.794022         255.108292         161.266937         24.0727901         132.794022         255.108292   
     9.04408836         148.433624         267.788635         160.085632         6.67595911         148.433624         267.788635   
     9.06012058         166.940613         280.327942         152.996384        -8.31859493         166.940613         280.327942   
     9.07615185         188.769333         292.335236         142.049164        -18.8633480         188.769333         292.335236   
     9.09218407         214.471695         303.262665         129.684982        -24.4518623         214.471695         303.262665   
     9.10821629         244.718414         312.251923         117.809982        -25.7257919         244.718414         312.251923   
     9.12424850         280.183105         317.891815         107.513710        -23.7938004         280.183105         317.891815   
     9.14028072         321.182251         318.009521         99.2191696        -19.7561798         321.182251         318.009521   
     9.15631199         367.116608         309.692535         92.9283829        -14.5064821         367.116608         309.692535   
     9.17234421         415.826630         289.699890         88.4124527        -8.69330883         415.826630         289.699890   
     9.18837643         463.135345         255.357361         85.3267822        -2.72707462         463.135345         255.357361   
     9.20440865         502.924896         205.891235         83.3015289         3.21247125         502.924774         205.891235   
     9.22044086         528.192261         143.931854         82.0408325         9.14447117         528.192200         143.931824   
     9.23647308         533.477478         76.2312469         81.4024124         15.1994572         533.477478         76.2312469   
     9.25250435         517.775391         12.1902142         81.3971405         21.4939137         517.775391         12.1902142   
     9.26853657         485.514740        -39.8331528         82.1020508         28.0575333         485.514832        -39.8332558   
     9.28456879         444.296478        -75.7009277         83.5674744         34.8592529         444.296539        -75.7010727   
     9.30060101         401.405029        -95.7762909         85.7983627         41.8912048         401.405029        -95.7762909   
     9.31663322         361.795563        -103.013390         88.8219299         49.2202415         361.795563        -103.013390   
     9.33266544         328.010773        -100.974815         92.7756348         56.9559784         328.010773        -100.974815   
     9.34869671         301.007782        -92.8196564         97.9334412         65.1547394         301.007782        -92.8196564   
     9.36472893         280.902618        -81.1218185         104.659370         73.7417908         280.902679        -81.1218185   
     9.38076210         267.354492        -68.0080948         113.345169         82.4846878         267.354492        -68.0081177   
     9.39679337         259.668854        -55.3122864         124.363754         90.9839020         259.668884        -55.3123741   
     9.41282558         256.731567        -44.6078758         138.029495         98.6506805         256.731506        -44.6078415   
     9.42885780         256.907257        -37.0467148         154.513092         104.669579         256.907196        -37.0466385   
     9.44488907         258.111725        -32.9701691         173.685287         108.001503         258.111725        -32.9700546   
     9.46092129         258.317749        -31.5258331         194.908844         107.517693         258.317749        -31.5256310   
     9.47695446         256.414764        -30.7950039         216.913712         102.344460         256.414764        -30.7948475   
     9.49298573         252.774872        -28.6582203         237.990234         92.3344193         252.774918        -28.6581993   
     9.50901794         248.941711        -23.8191872         256.605743         78.2767944         248.941757        -23.8192482   
     9.52505016         246.741394        -16.1858311         272.009521         61.4921722         246.741364        -16.1858959   
     9.54108143         247.584335        -6.54007244         284.223663         43.1108665         247.584229        -6.54002047   
     9.55711460         252.300110         3.98816109         293.516144         23.7856464         252.300095         3.98825550   
     9.57314587         261.319031         14.2145033         300.082153         3.93060756         261.319183         14.2145462   
     9.58917809         274.867126         22.8866463         304.106110        -16.1394405         274.867157         22.8864784   
     9.60521030         292.944092         28.5148468         305.691223        -36.2693748         292.944000         28.5149307   
     9.62124252         315.059570         29.2932014         304.659149        -56.2538147         315.059540         29.2933083   
     9.63727379         339.851990         23.2960033         300.791443        -75.4232559         339.852112         23.2960186   
     9.65330696         364.850769         9.03786087         294.469421        -92.7721558         364.850891         9.03776741   
     9.66933823         386.691376        -13.7603683         286.826080        -107.725403         386.691162        -13.7605209   
     9.68537045         401.896606        -43.6246719         279.062012        -120.651405         401.896637        -43.6244888   
     9.70140266         407.964264        -77.3430481         271.693970        -132.501755         407.964355        -77.3430252   
     9.71743393         404.382690        -110.742188         264.503906        -144.072983         404.382538        -110.742523   
     9.73346710         392.929016        -140.159958         257.042572        -155.697418         392.928680        -140.159683   
     9.74949932         376.727936        -163.766861         248.953735        -167.498474         376.728363        -163.766632   
     9.76553059         358.698669        -181.698685         239.778870        -179.604706         358.698822        -181.699265   
     9.78156281         340.676178        -195.132797         228.759979        -191.850403         340.675415        -195.132538   
     9.79759502         323.476654        -205.430023         215.207001        -203.382843         323.477325        -205.429382   
     9.81362629         307.193604        -213.795105         199.155075        -212.874847         307.193573        -213.796112   
     9.82965851         291.351776        -221.067291         181.517197        -219.264923         291.351135        -221.066498   
     9.84569168         275.171387        -227.452438         163.566254        -222.252213         275.172180        -227.452469   
     9.86172295         258.055939        -232.463959         146.359512        -222.176605         258.055542        -232.464371   
     9.87775517         239.998627        -235.255203         130.547073        -219.638138         239.998550        -235.254898   
     9.89378738         221.618484        -235.116516         116.473976        -215.256943         221.618652        -235.116592   
     9.90981865         203.881927        -231.796066         104.290321        -209.614624         203.881805        -231.796127   
     9.92585087         187.751114        -225.558533         93.9967575        -203.243835         187.751099        -225.558426   
     9.94188404         173.913712        -217.028488         85.4673691        -196.606705         173.913727        -217.028488   
     9.95791531         162.703949        -206.939651         78.4805908        -190.073029         162.703949        -206.939682   
     9.97394753         154.187561        -195.938675         72.7468948        -183.901535         154.187531        -195.938675   
     9.98997974         148.318039        -184.520569         67.9491119        -178.224197         148.318039        -184.520569   
     10.0060110         145.063492        -173.075607         63.7996712        -173.042862         145.063492        -173.075607   
     10.0220442         144.452103        -161.996155         60.1028900        -168.270660         144.452103        -161.996155   
     10.0380764         146.531372        -151.778992         56.7710609        -163.814621         146.531387        -151.779007   
     10.0541077         151.271973        -143.077454         53.7698708        -159.635956         151.271973        -143.077454   
     10.0701399         158.437469        -136.704269         51.0485153        -155.739441         158.437469        -136.704269   
     10.0861721         167.429184        -133.552185         48.5216522        -152.116348         167.429123        -133.552185   
     10.1022034         177.150345        -134.387589         46.1107559        -148.710983         177.150345        -134.387589   
     10.1182365         186.004837        -139.496414         43.7877197        -145.447861         186.004837        -139.496414   
     10.1342678         192.197723        -148.287323         41.5660439        -142.282852         192.197723        -148.287308   
     10.1503000         194.385971        -159.172302         39.4510078        -139.212830         194.385971        -159.172302   
     10.1663322         192.332932        -170.025879         37.4118042        -136.237274         192.332932        -170.025879   
     10.1823645         187.024338        -179.054855         35.4055481        -133.317398         187.024338        -179.054855   
     10.1983967         180.112701        -185.462006         33.4244690        -130.380692         180.112701        -185.462006   
     10.2144289         173.150085        -189.499741         31.5135632        -127.364746         173.150085        -189.499741   
     10.2304602         167.099777        -192.085205         29.7440758        -124.251114         167.099777        -192.085205   
     10.2464924         162.205261        -194.359207         28.1780033        -121.064682         162.205261        -194.359207   
     10.2625246         158.014481        -197.326843         26.8511124        -117.852371         158.014481        -197.326843   
     10.2785559         153.520035        -201.485275         25.7751007        -114.664948         153.520035        -201.485275   
     10.2945890         147.575470        -206.506363         24.9461670        -111.549934         147.575470        -206.506363   
     10.3106213         139.540176        -211.309860         24.3506851        -108.552910         139.540176        -211.309860   
     10.3266525         129.676956        -214.661621         23.9643936        -105.720032         129.676956        -214.661621   
     10.3426847         118.931129        -215.848160         23.7457218        -103.099190         118.931129        -215.848160   
     10.3587170         108.336250        -214.892334         23.6259918        -100.730888         108.336250        -214.892334   
     10.3747492         98.5671005        -212.300140         23.5066490        -98.6267014         98.5671005        -212.300140   
     10.3907814         89.8433914        -208.678131         23.2776413        -96.7433929         89.8433914        -208.678131   
     10.4068136         82.0707169        -204.468918         22.8607349        -94.9750977         82.0707169        -204.468918   
     10.4228449         75.0628281        -199.876038         22.2501888        -93.1879730         75.0628281        -199.876038   
     10.4388771         68.7026520        -194.943298         21.5120029        -91.2763519         68.7026520        -194.943298   
     10.4549093         62.9767570        -189.684875         20.7426338        -89.1960831         62.9767570        -189.684875   
     10.4709415         57.9169159        -184.159088         20.0253315        -86.9562836         57.9169159        -184.159088   
     10.4869738         53.5390739        -178.465805         19.4118919        -84.5923538         53.5390739        -178.465805   
     10.5030060         49.8206787        -172.710831         18.9254875        -82.1424789         49.8206787        -172.710831   
     10.5190372         46.7105103        -166.981949         18.5714874        -79.6372528         46.7105103        -166.981949   
     10.5350695         44.1446381        -161.340744         18.3467674        -77.0976486         44.1446381        -161.340744   
     10.5511017         42.0581398        -155.824615         18.2453308        -74.5363998         42.0581398        -155.824615   
     10.5671339         40.3918571        -150.452667         18.2609177        -71.9611740         40.3918571        -150.452667   
     10.5831661         39.0956841        -145.227432         18.3874207        -69.3754578         39.0956841        -145.227432   
     10.5991983         38.1335106        -140.139633         18.6182995        -66.7799072         38.1335106        -140.139633   
     10.6152296         37.4879723        -135.174408         18.9461021        -64.1706848         37.4879723        -135.174408   
     10.6312618         37.1617813        -130.321411         19.3640537        -61.5370789         37.1617813        -130.321411   
     10.6472940         37.1734695        -125.584572         19.8705330        -58.8603401         37.1734695        -125.584572   
     10.6633263         37.5498085        -120.989761         20.4739380        -56.1170578         37.5498085        -120.989761   
     10.6793585         38.3172264        -116.588936         21.1945248        -53.2845078         38.3172264        -116.588936   
     10.6953897         39.4898415        -112.466492         22.0608234        -50.3458595         39.4898415        -112.466492   
     10.7114220         41.0486526        -108.742737         23.1055698        -47.2900620         41.0486526        -108.742737   
     10.7274551         42.9086685        -105.564598         24.3642330        -44.1092224         42.9086685        -105.564598   
     10.7434864         44.8813019        -103.066521         25.8763027        -40.7971573         44.8813019        -103.066521   
     10.7595186         46.6658897        -101.286926         27.6885414        -37.3478737         46.6658897        -101.286926   
     10.7755508         47.9184761        -100.070969         29.8583832        -33.7575150         47.9184761        -100.070969   
     10.7915821         48.4095955        -99.0463104         32.4576149        -30.0269051         48.4095955        -99.0463104   
     10.8076143         48.1693611        -97.7467194         35.5766907        -26.1659107         48.1693611        -97.7467194   
     10.8236475         47.4826088        -95.8137894         39.3292999        -22.2003422         47.4826088        -95.8137894   
     10.8396788         46.7408104        -93.1123047         43.8561516        -18.1837425         46.7408104        -93.1123047   
     10.8557110         46.2908707        -89.6989441         49.3290215        -14.2130909         46.2908707        -89.6989441   
     10.8717432         46.3752174        -85.7263412         55.9489326        -10.4554729         46.3752174        -85.7263412   
     10.8877745         47.1477242        -81.3677902         63.9332771        -7.18550253         47.1477242        -81.3677902   
     10.9038076         48.7145309        -76.7877579         73.4799271        -4.83421373         48.7145309        -76.7877579   
     10.9198399         51.1678581        -72.1477509         84.6831207        -4.04147291         51.1678581        -72.1477509   
     10.9358711         54.6041107        -67.6287537         97.3840103        -5.67600822         54.6041107        -67.6287537   
     10.9519033         59.1212463        -63.4663734         110.939857        -10.7494841         59.1212463        -63.4663734   
     10.9679356         64.7912521        -59.9891853         124.000114        -20.1084480         64.7912521        -59.9891853   
     10.9839668         71.5951157        -57.6508331         134.524307        -33.8602676         71.5951157        -57.6508331   
     11.0000000         79.3100967        -57.0249443         140.353165        -50.7943802         79.3100967        -57.0249443   
# 
# 01/04/2021 at 22:26 yambo @ unimi-XPS-8930 [start]
# 01/04/2021 at 22:26                        [end]
#  
# Timing   [Min/Max/Average]: 03s/03s/03s
#
# .-Input file  yambo.in
# | optics                           # [R] Linear Response optical properties
# | bss                              # [R] BSE solver
# | bse                              # [R][BSE] Bethe Salpeter Equation.
# | tddft                            # [R][K] Use TDDFT kernel
# | BS_nCPU_LinAlg_INV= 1            # [PARALLEL] CPUs for Linear Algebra (if -1 it is automatically set)
# | BS_nCPU_LinAlg_DIAGO= 1          # [PARALLEL] CPUs for Linear Algebra (if -1 it is automatically set)
# | X_Threads= 1                     # [OPENMP/X] Number of threads for response functions
# | DIP_Threads= 1                   # [OPENMP/X] Number of threads for dipoles
# | K_Threads= 1                     # [OPENMP/BSK] Number of threads for response functions
# | NonPDirs= "XYZ"                  # [X/BSS] Non periodic chartesian directions (X,Y,Z,XY...)
# | BSEmod= "resonant"               # [BSE] resonant/retarded/coupling
# | BSKmod= "ALDA"                   # [BSE] IP/Hartree/HF/ALDA/SEX/BSfxc
# | BSSmod= "h"                      # [BSS] (h)aydock/(d)iagonalization/(s)lepc/(i)nversion/(t)ddft`
# | BSENGexx= 1535             mHa   # [BSK] Exchange components
# | BSEprop= "abs"                   # [BSS] abs/kerr/magn/dichr trace
# | % BSEQptR
# |  1 | 1 |                             # [BSK] Transferred momenta range
# | %
# | % BSEBands
# |   14 |  34 |                         # [BSK] Bands range
# | %
# | % BEnRange
# |   3.00000 | 11.00000 |         eV    # [BSS] Energy range
# | %
# | % BDmRange
# |  0.100000 | 0.100000 |         eV    # [BSS] Damping range
# | %
# | BEnSteps=  500                   # [BSS] Energy steps
# | % BLongDir
# |  0.577350E-5 | 0.577350E-5 | 0.577350E-5 # [BSS] [cc] Electric Field
# | %
# | BSHayTrs= 0.005000               # [BSS] Relative [o/o] Haydock threshold. Strict(>0)/Average(<0)
# | BSHayTer                       # [BSS] Terminate Haydock continuos fraction
