#                                                           
#  **    **    **     ****     ****  ******     *******     
# //**  **    ****   /**/**   **/** /*////**   **/////**    
#  //****    **//**  /**//** ** /** /*   /**  **     //**   
#   //**    **  //** /** //***  /** /******  /**      /**   
#    /**   **********/**  //*   /** /*//// **/**      /**   
#    /**  /**//////**/**   /    /** /*    /**//**     **    
#    /**  /**     /**/**        /** /*******  //*******     
#    //   //      // //         //  ///////    ///////      
#                                                           
#        Version 4.1.1 Revision 14052 Hash e109ff3          
#                        MPI Build                          
#                http://www.yambo-code.org                  
#
# Absorption @ Q(1) [q->0 direction] :0.5774E-5 0.5774E-5 0.5774E-5
#
#
# - Energies      are GoWo Plasmon Pole appox.
# - Wavefunctions are Teter 93(XC)
#
# - The Green`s function is Resonant -
# - Using the Length Gauge -
# - [r,Vnl] *is* included -
#
#   BSK|Identifier              :8077
#      |Dimension               :110
#      |Bands                   :14 - 34
#      |Exchange           [res]: yes
#      |Correlation        [res]: yes
#      |Kernel`s coupling       : no
#      |Exchange           [cpl]: no
#      |Correlation        [cpl]: no
#      |W interaction is bare   : no
#      |ALDA kernel in R-space  : no
#      |RL vectors    [exchange]:367
#      |RL vectors [correlation]:87
#      |E/h energy range    [ev]:-1.000000 - -1.000000
#      |Coupling range     [o/o]: 100.0000 -  100.0000
#    W |Interaction is diagonal : no
#      |Matrix size             :367
#      |Bands                   :1 - 50
#      |e/h energy range    [ev]:-1.000000 - -1.000000
#      |Poles              [o/o]: 100.0000
#      |RL vectors in the sum   :17279
#      |[r,Vnl] included        : yes
#      |Field direction         :0.1000E-4  0.000000  0.000000
#      |Coulomb Cutoff          :none
#      |xc-Kernel               :none
#   RIM|RL components      [col]:0
#      |Random points      [col]:0
#
#  E/ev[1]    EPS-Im[2]  EPS-Re[3]  EPSo-Im[4] EPSo-Re[5]
#
  5.000     0.2076E-1   1.263     0.3198E-2   1.154   
  5.020     0.2025E-1   1.264     0.3227E-2   1.155   
  5.040     0.1954E-1   1.265     0.3257E-2   1.156   
  5.060     0.1885E-1   1.267     0.3287E-2   1.156   
  5.080     0.1825E-1   1.269     0.3317E-2   1.157   
  5.100     0.1777E-1   1.272     0.3348E-2   1.158   
  5.120     0.1740E-1   1.274     0.3379E-2   1.158   
  5.140     0.1718E-1   1.277     0.3411E-2   1.159   
  5.160     0.1710E-1   1.280     0.3444E-2   1.160   
  5.180     0.1716E-1   1.283     0.3476E-2   1.160   
  5.200     0.1736E-1   1.286     0.3510E-2   1.161   
  5.220     0.1768E-1   1.290     0.3543E-2   1.162   
  5.240     0.1813E-1   1.293     0.3578E-2   1.163   
  5.261     0.1872E-1   1.296     0.3613E-2   1.163   
  5.281     0.1945E-1   1.300     0.3648E-2   1.164   
  5.301     0.2035E-1   1.304     0.3684E-2   1.165   
  5.321     0.2145E-1   1.307     0.3720E-2   1.165   
  5.341     0.2280E-1   1.311     0.3757E-2   1.166   
  5.361     0.2446E-1   1.315     0.3795E-2   1.167   
  5.381     0.2651E-1   1.319     0.3833E-2   1.168   
  5.401     0.2903E-1   1.322     0.3872E-2   1.168   
  5.421     0.3205E-1   1.325     0.3912E-2   1.169   
  5.441     0.3551E-1   1.328     0.3952E-2   1.170   
  5.461     0.3909E-1   1.329     0.3993E-2   1.171   
  5.481     0.4214E-1   1.329     0.4034E-2   1.172   
  5.501     0.4382E-1   1.329     0.4076E-2   1.172   
  5.521     0.4369E-1   1.328     0.4119E-2   1.173   
  5.541     0.4203E-1   1.328     0.4163E-2   1.174   
  5.561     0.3966E-1   1.330     0.4207E-2   1.175   
  5.581     0.3731E-1   1.333     0.4252E-2   1.176   
  5.601     0.3537E-1   1.337     0.4298E-2   1.177   
  5.621     0.3398E-1   1.342     0.4345E-2   1.178   
  5.641     0.3310E-1   1.347     0.4392E-2   1.178   
  5.661     0.3268E-1   1.352     0.4441E-2   1.179   
  5.681     0.3264E-1   1.358     0.4490E-2   1.180   
  5.701     0.3294E-1   1.364     0.4540E-2   1.181   
  5.721     0.3355E-1   1.370     0.4591E-2   1.182   
  5.741     0.3444E-1   1.376     0.4642E-2   1.183   
  5.762     0.3561E-1   1.383     0.4695E-2   1.184   
  5.782     0.3708E-1   1.389     0.4749E-2   1.185   
  5.802     0.3889E-1   1.396     0.4803E-2   1.186   
  5.822     0.4107E-1   1.403     0.4859E-2   1.187   
  5.842     0.4370E-1   1.410     0.4916E-2   1.188   
  5.862     0.4686E-1   1.418     0.4974E-2   1.189   
  5.882     0.5060E-1   1.425     0.5032E-2   1.190   
  5.902     0.5497E-1   1.432     0.5092E-2   1.191   
  5.922     0.5984E-1   1.439     0.5153E-2   1.192   
  5.942     0.6493E-1   1.446     0.5216E-2   1.193   
  5.962     0.6985E-1   1.451     0.5279E-2   1.194   
  5.982     0.7445E-1   1.457     0.5344E-2   1.195   
  6.002     0.7902E-1   1.464     0.5410E-2   1.196   
  6.022     0.8413E-1   1.471     0.5477E-2   1.197   
  6.042     0.9014E-1   1.477     0.5546E-2   1.198   
  6.062     0.9697E-1   1.484     0.5616E-2   1.199   
  6.082     0.1042      1.489     0.5687E-2   1.200   
  6.102     0.1110      1.492     0.5760E-2   1.202   
  6.122     0.1165      1.495     0.5834E-2   1.203   
  6.142     0.1197      1.497     0.5910E-2   1.204   
  6.162     0.1203      1.500     0.5988E-2   1.205   
  6.182     0.1196      1.506     0.6067E-2   1.206   
  6.202     0.1189      1.516     0.6148E-2   1.207   
    6.2224     0.1196     1.5275     0.0062     1.2087
    6.2425     0.1220     1.5410     0.0063     1.2100
    6.2625     0.1261     1.5557     0.0064     1.2112
    6.2826     0.1319     1.5714     0.0065     1.2125
    6.3026     0.1397     1.5879     0.0066     1.2138
    6.3226     0.1496     1.6050     0.0067     1.2152
    6.3427     0.1616     1.6220     0.0068     1.2165
    6.3627     0.1754     1.6384     0.0069     1.2179
    6.3828     0.1902     1.6542     0.0070     1.2192
    6.4028     0.2053     1.6702     0.0071     1.2206
    6.4228     0.2208     1.6877     0.0072     1.2221
    6.4429     0.2381     1.7079     0.0073     1.2235
    6.4629     0.2592     1.7311     0.0074     1.2250
    6.4830     0.2866     1.7563     0.0075     1.2265
    6.5030     0.3222     1.7814     0.0076     1.2280
    6.5230     0.3671     1.8030     0.0077     1.2295
    6.5431     0.4208     1.8167     0.0078     1.2310
    6.5631     0.4800     1.8180     0.0080     1.2326
    6.5832     0.5384     1.8049     0.0081     1.2342
    6.6032     0.5894     1.7799     0.0082     1.2358
    6.6232     0.6300     1.7488     0.0083     1.2375
    6.6433     0.6614     1.7160     0.0085     1.2392
    6.6633     0.6851     1.6830     0.0086     1.2409
    6.6834     0.6995     1.6505     0.0087     1.2426
    6.7034     0.7028     1.6241     0.0089     1.2444
    6.7234     0.6986     1.6119     0.0090     1.2462
    6.7435     0.6969     1.6180     0.0092     1.2480
    6.7635     0.7086     1.6396     0.0094     1.2498
    6.7836     0.7412     1.6689     0.0095     1.2517
    6.8036     0.7981     1.6957     0.0097     1.2536
    6.8236     0.8780     1.7086     0.0098     1.2556
   6.84369    0.97431    1.69780    0.01002    1.25757
   6.86373    1.07620    1.65787    0.01020    1.25958
   6.88377    1.17288    1.58971    0.01039    1.26164
   6.90381    1.25723    1.49779    0.01058    1.26373
   6.92385    1.32598    1.38647    0.01077    1.26586
   6.94389    1.37750    1.25681    0.01098    1.26803
   6.96393    1.40539    1.10621    0.01118    1.27024
   6.98397    1.39376    0.93812    0.01140    1.27249
   7.00401    1.32848    0.77350    0.01162    1.27478
   7.02405    1.21585    0.64248    0.01184    1.27712
   7.04409    1.08208    0.56208    0.01208    1.27951
   7.06413    0.95431    0.52784    0.01232    1.28194
   7.08417    0.84738    0.52345    0.01257    1.28442
   7.10421    0.76344    0.53225    0.01283    1.28695
   7.12425    0.69706    0.54287    0.01310    1.28954
   7.14429    0.64008    0.55057    0.01337    1.29217
   7.16433    0.58565    0.55640    0.01366    1.29486
   7.18437    0.53091    0.56455    0.01395    1.29761
   7.20441    0.47735    0.57844    0.01425    1.30042
   7.22445    0.42793    0.59841    0.01457    1.30329
   7.24449    0.38423    0.62257    0.01490    1.30623
   7.26453    0.34598    0.64929    0.01523    1.30922
   7.28457    0.31265    0.67805    0.01558    1.31229
   7.30461    0.28437    0.70870    0.01595    1.31543
   7.32465    0.26160    0.74060    0.01632    1.31864
   7.34469    0.24452    0.77275    0.01671    1.32192
   7.36473    0.23296    0.80406    0.01712    1.32529
   7.38477    0.22651    0.83344    0.01754    1.32873
   7.40481    0.22441    0.85980    0.01798    1.33226
   7.42485    0.22531    0.88215    0.01844    1.33588
   7.44489    0.22713    0.90015    0.01891    1.33959
   7.46493    0.22760    0.91498    0.01941    1.34340
   7.48497    0.22572    0.92930    0.01993    1.34730
   7.50501    0.22267    0.94577    0.02047    1.35131
   7.52505    0.22098    0.96548    0.02103    1.35543
   7.54509    0.22306    0.98786    0.02162    1.35965
   7.56513    0.23054    1.01146    0.02223    1.36400
   7.58517    0.24445    1.03452    0.02288    1.36847
   7.60521    0.26549    1.05498    0.02355    1.37306
   7.62525    0.29394    1.07011    0.02426    1.37779
   7.64529    0.32902    1.07628    0.02501    1.38266
   7.66533    0.36764    1.06950    0.02580    1.38768
   7.68537    0.40386    1.04745    0.02663    1.39285
   7.70541    0.43066    1.01175    0.02751    1.39818
   7.72545    0.44318    0.96747    0.02844    1.40368
   7.74549    0.43941    0.92060    0.02944    1.40935
   7.76553    0.41934    0.87750    0.03050    1.41519
   7.78557    0.38604    0.84470    0.03164    1.42121
   7.80561    0.34603    0.82611    0.03287    1.42741
   7.82565    0.30622    0.82119    0.03417    1.43377
   7.84569    0.27104    0.82641    0.03554    1.44029
   7.86573    0.24206    0.83780    0.03694    1.44697
   7.88577    0.21892    0.85236    0.03834    1.45385
   7.90581    0.20069    0.86847    0.03972    1.46098
   7.92585    0.18680    0.88531    0.04110    1.46843
   7.94589    0.17705    0.90210    0.04252    1.47624
   7.96593    0.17119    0.91763    0.04403    1.48444
   7.98597    0.16830    0.93057    0.04566    1.49302
   8.00601    0.16653    0.93997    0.04744    1.50199
   8.02605    0.16352    0.94622    0.04936    1.51136
   8.04609    0.15760    0.95134    0.05146    1.52115
   8.06613    0.14903    0.95783    0.05372    1.53137
   8.08617    0.13948    0.96708    0.05617    1.54204
   8.10621    0.13059    0.97899    0.05882    1.55320
   8.12625    0.12325    0.99287    0.06168    1.56489
   8.14629    0.11774    1.00805    0.06478    1.57714
   8.16633    0.11414    1.02413    0.06813    1.58999
   8.18637    0.11249    1.04085    0.07176    1.60350
   8.20641    0.11290    1.05799    0.07571    1.61770
   8.22645    0.11551    1.07537    0.08001    1.63267
   8.24649    0.12051    1.09279    0.08470    1.64845
   8.26653    0.12824    1.10998    0.08983    1.66513
   8.28657    0.13914    1.12648    0.09545    1.68279
  8.306614   0.153727   1.141498   0.101638   1.701498
  8.326653   0.172421   1.153683   0.108457   1.721364
  8.346693   0.195161   1.160928   0.116000   1.742494
  8.366734   0.220548   1.160420   0.124376   1.765013
  8.386773   0.244810   1.149705   0.133708   1.789057
  8.406814   0.261928   1.129066   0.144149   1.814783
  8.426853   0.266542   1.103475   0.155880   1.842363
  8.446894   0.258031   1.080720   0.169120   1.871998
  8.466934   0.240882   1.066538   0.184138   1.903912
  8.486974   0.220893   1.062162   0.201263   1.938353
  8.507013   0.202031   1.065953   0.220904   1.975608
  8.527054   0.186222   1.075742   0.243571   2.015993
  8.547094   0.174315   1.089687   0.269906   2.059857
  8.567134   0.166621   1.106250   0.300725   2.107580
  8.587174   0.163046   1.124165   0.337077   2.159563
  8.607215   0.163222   1.142537   0.380316   2.216196
  8.627254   0.166748   1.160917   0.432204   2.277813
  8.647294   0.173530   1.179193   0.495060   2.344604
  8.667335   0.183966   1.197186   0.571927   2.416436
  8.687375   0.198777   1.214225   0.666786   2.492529
  8.707415   0.218645   1.228905   0.784746   2.570908
  8.727454   0.243747   1.238960   0.932097   2.647461
  8.747495   0.272963   1.241344   1.115833   2.714480
  8.767535   0.302888   1.233152   1.341911   2.758808
  8.787575   0.327747   1.213730   1.611305   2.760650
  8.807615   0.341633   1.186685   1.913833   2.695760
  8.827656   0.342203   1.159048   2.223536   2.544073
  8.847696   0.332125   1.137434   2.503048   2.302067
  8.867736   0.316884   1.124849   2.718114   1.988183
  8.887775   0.301525   1.120517   2.852393   1.634754
  8.907816   0.288895   1.121640   2.910994   1.269616
  8.927856   0.279507   1.125152   2.904322   0.902093
  8.947896   0.272075   1.128923   2.827951   0.534457
  8.967936   0.264521   1.132627   2.669055   0.184627
  8.987976   0.255567   1.137787   2.429197  -0.113746
  9.008016   0.245925   1.146363   2.133043  -0.329964
  9.028055   0.237680   1.158933   1.819296  -0.452438
  9.048096   0.232543   1.174350   1.523786  -0.492117
  9.068136   0.230813   1.190873   1.267307  -0.472664
  9.088176   0.231661   1.207444   1.055358  -0.417911
  9.108216   0.234219   1.224141   0.884426  -0.345580
  9.128257   0.238452   1.241481   0.747743  -0.266810
  9.148297   0.244850   1.259463   0.638381  -0.187894
  9.168337   0.253539   1.277603   0.550399  -0.112075
   9.18838    0.26413    1.29576    0.47906   -0.04082
   9.20842    0.27648    1.31449    0.42073    0.02537
   9.22846    0.29126    1.33452    0.37264    0.08651
  9.248497   0.309937   1.356083   0.332704   0.142842
  9.268537   0.334431   1.378532   0.299328   0.194749
  9.288577   0.366712   1.399903   0.271313   0.242624
  9.308618   0.408001   1.416745   0.247752   0.286847
  9.328657   0.457824   1.424207   0.227964   0.327755
  9.348697   0.512485   1.416690   0.211446   0.365627
  9.368737   0.563520   1.390617   0.197827   0.400646
  9.388778   0.599576   1.349350   0.186823   0.432865
  9.408818   0.613749   1.304805   0.178136   0.462176
  9.428858   0.609559   1.270701   0.171312   0.488326
  9.448898   0.597818   1.254225   0.165554   0.511075
  9.468938   0.589581   1.254912   0.159711   0.530579
  9.488977   0.593024   1.267887   0.152708   0.547744
  9.509018   0.613455   1.285886   0.144222   0.563984
  9.529058   0.653126   1.299655   0.134819   0.580454
  9.549098   0.709853   1.298519   0.125399   0.597586
  9.569138   0.775209   1.272835   0.116661   0.615249
  9.589178   0.835077   1.218917   0.108949   0.633102
  9.609219   0.875480   1.142620   0.102335   0.650823
   9.62926    0.88938    1.05566    0.09675    0.66820
   9.64930    0.87610    0.96902    0.09209    0.68512
   9.66934    0.83776    0.89245    0.08823    0.70154
   9.68938    0.78052    0.83509    0.08510    0.71745
   9.70942    0.71468    0.80173    0.08264    0.73289
   9.72946    0.65026    0.79137    0.08081    0.74785
   9.74950    0.59456    0.79974    0.07959    0.76234
   9.76954    0.55242    0.82105    0.07895    0.77635
   9.78958    0.52613    0.84851    0.07882    0.78986
   9.80962    0.51515    0.87517    0.07910    0.80290
   9.82966    0.51595    0.89498    0.07967    0.81560
   9.84970    0.52238    0.90453    0.08055    0.82819
   9.86974    0.52763    0.90462    0.08190    0.84089
   9.88978    0.52743    0.89985    0.08404    0.85383
   9.90982    0.52197    0.89544    0.08735    0.86696
   9.92986    0.51412    0.89384    0.09221    0.88013
   9.94990    0.50604    0.89463    0.09903    0.89302
  9.969940   0.497719   0.897205   0.108255   0.905146
  9.989980   0.488963   0.902802   0.120280   0.915650
  10.01002    0.48168    0.91319    0.13525    0.92320
  10.03006    0.47944    0.92807    0.15257    0.92600
  10.05010    0.48491    0.94450    0.17032    0.92224
  10.07014    0.49833    0.95865    0.18515    0.91137
  10.09018    0.51817    0.96784    0.19350    0.89521
  10.11022    0.54307    0.97063    0.19360    0.87762
  10.13026    0.57245    0.96496    0.18636    0.86260
  10.15030    0.60427    0.94682    0.17458    0.85252
  10.17034    0.63222    0.91232    0.16134    0.84758
  10.19038    0.64577    0.86235    0.14864    0.84646
  10.21042    0.63543    0.80653    0.13694    0.84754
  10.23046    0.60083    0.76022    0.12570    0.84995
  10.25050    0.55234    0.73469    0.11442    0.85388
  10.27054    0.50340    0.73121    0.10336    0.85980
  10.29058    0.46316    0.74389    0.09325    0.86773
  10.31062    0.43498    0.76508    0.08460    0.87717
  10.33066    0.41805    0.78845    0.07758    0.88753
  10.35070    0.40946    0.81022    0.07206    0.89834
  10.37074    0.40596    0.82917    0.06784    0.90931
  10.39078    0.40539    0.84589    0.06472    0.92029
  10.41082    0.40717    0.86133    0.06253    0.93122
  10.43086    0.41148    0.87555    0.06113    0.94208
  10.45090    0.41793    0.88802    0.06044    0.95291
  10.47094    0.42538    0.89879    0.06043    0.96374
  10.49098    0.43308    0.90919    0.06109    0.97460
  10.51102    0.44188    0.92100    0.06244    0.98556
  10.53106    0.45402    0.93496    0.06456    0.99665
  10.55110    0.47220    0.95041    0.06756    1.00789
  10.57114    0.49928    0.96520    0.07160    1.01929
  10.59118    0.53762    0.97489    0.07692    1.03079
  10.61122    0.58727    0.97264    0.08381    1.04225
  10.63126    0.64395    0.95040    0.09263    1.05338
  10.65130    0.69745    0.90185    0.10373    1.06360
  10.67134    0.73218    0.82757    0.11733    1.07200
  10.69138    0.73377    0.74003    0.13313    1.07729
  10.71142    0.69980    0.65985    0.15001    1.07814
  10.73146    0.64203    0.60280    0.16592    1.07389
  10.75150    0.57625    0.57231    0.17856    1.06515
  10.77154    0.51326    0.56361    0.18620    1.05352
  10.79158    0.45798    0.57039    0.18773    1.04124
  10.81162    0.41197    0.58733    0.18306    1.03130
  10.83166    0.37503    0.61047    0.17400    1.02665
  10.85170    0.34610    0.63735    0.16383    1.02859
  10.87174    0.32434    0.66679    0.15552    1.03640
  10.89178    0.30958    0.69792    0.15089    1.04843
  10.91182    0.30186    0.72953    0.15072    1.06300
  10.93186    0.30076    0.76006    0.15535    1.07873
  10.95190    0.30508    0.78818    0.16492    1.09436
  10.97194    0.31305    0.81353    0.17945    1.10859
  10.99198    0.32338    0.83718    0.19859    1.11996
  11.01202    0.33648    0.86069    0.22138    1.12720
  11.03206    0.35424    0.88449    0.24658    1.12981
  11.05210    0.37861    0.90717    0.27367    1.12790
  11.07214    0.41050    0.92607    0.30327    1.12069
  11.09218    0.44922    0.93786    0.33522    1.10510
  11.11222    0.49187    0.93965    0.36576    1.07721
  11.13226    0.53388    0.93109    0.38705    1.03643
  11.15230    0.57213    0.91542    0.39151    0.98912
  11.17235    0.60788    0.89621    0.37831    0.94604
  11.19238    0.64471    0.87294    0.35428    0.91505
  11.21243    0.68320    0.84106    0.32844    0.89704
  11.23247    0.71907    0.79700    0.30688    0.88757
  11.25251    0.74677    0.74137    0.29096    0.88052
  11.27254    0.76282    0.67665    0.27777    0.87128
  11.29259    0.76364    0.60498    0.26233    0.85920
  11.31262    0.74429    0.53171    0.24138    0.84780
  11.33266    0.70407    0.46701    0.21579    0.84153
  11.35271    0.65002    0.41947    0.18916    0.84235
  11.37275    0.59169    0.39067    0.16471    0.84936
  11.39279    0.53559    0.37782    0.14401    0.86053
  11.41283    0.48550    0.37758    0.12731    0.87399
  11.43287    0.44435    0.38649    0.11418    0.88845
  11.45291    0.41408    0.39992    0.10408    0.90316
  11.47295    0.39436    0.41240    0.09645    0.91772
  11.49299    0.38183    0.41908    0.09087    0.93193
  11.51303    0.37060    0.41802    0.08706    0.94572
  11.53307    0.35506    0.41178    0.08484    0.95901
  11.55311    0.33338    0.40569    0.08410    0.97169
  11.57315    0.30778    0.40392    0.08473    0.98358
  11.59319    0.28173    0.40757    0.08651    0.99439
  11.61323    0.25791    0.41567    0.08901    1.00394
  11.63327    0.23770    0.42626    0.09166    1.01231
  11.65331    0.22100    0.43714    0.09406    1.02001
  11.67335    0.20629    0.44691    0.09636    1.02764
  11.69339    0.19171    0.45586    0.09916    1.03546
  11.71343    0.17656    0.46556    0.10308    1.04306
  11.73347    0.16173    0.47730    0.10828    1.04958
  11.75351    0.14862    0.49120    0.11417    1.05399
  11.77355    0.13823    0.50647    0.11927    1.05582
  11.79359    0.13095    0.52211    0.12189    1.05588
  11.81363    0.12674    0.53710    0.12126    1.05615
  11.83367    0.12530    0.55047    0.11821    1.05857
  11.85371    0.12589    0.56123    0.11446    1.06401
  11.87375    0.12713    0.56864    0.11165    1.07219
  11.89379    0.12711    0.57288    0.11080    1.08217
  11.91383    0.12419    0.57549    0.11231    1.09279
  11.93387    0.11822    0.57882    0.11603    1.10291
  11.95391    0.11058    0.58454    0.12117    1.11159
  11.97395    0.10301    0.59294    0.12640    1.11851
  11.99399    0.09670    0.60346    0.13036    1.12448
  12.01403    0.09216    0.61534    0.13271    1.13119
  12.03407    0.08953    0.62801    0.13449    1.14008
  12.05411    0.08884    0.64111    0.13736    1.15147
  12.07415    0.09010    0.65441    0.14271    1.16466
  12.09419    0.09347    0.66776    0.15127    1.17845
  12.11423    0.09920    0.68099    0.16314    1.19152
  12.13427    0.10770    0.69382    0.17782    1.20266
  12.15431    0.11956    0.70573    0.19422    1.21099
  12.17435    0.13542    0.71575    0.21084    1.21634
  12.19439    0.15581    0.72220    0.22611    1.21962
  12.21443    0.18057    0.72251    0.23948    1.22301
  12.23447    0.20787    0.71334    0.25243    1.22876
  12.25451    0.23311    0.69195    0.26803    1.23744
  12.27455    0.24922    0.65890    0.28916    1.24733
  12.29459    0.25003    0.62009    0.31736    1.25539
  12.31463    0.23477    0.58469    0.35282    1.25804
  12.33467    0.20871    0.55966    0.39451    1.25116
  12.35471    0.17905    0.54667    0.43909    1.22994
  12.37475    0.15103    0.54350    0.47904    1.19060
  12.39479    0.12699    0.54678    0.50309    1.13497
  12.41483    0.10735    0.55371    0.50219    1.07386
  12.43487    0.09161    0.56240    0.47728    1.02255
  12.45491    0.07907    0.57174    0.43902    0.99103
  12.47495    0.06904    0.58111    0.39968    0.97985
  12.49499    0.06095    0.59021    0.36725    0.98393
  12.51503    0.05436    0.59889    0.34512    0.99714
  12.53507    0.04893    0.60710    0.33396    1.01431
  12.55511    0.04442    0.61482    0.33325    1.03115
  12.57515    0.04062    0.62208    0.34138    1.04380
  12.59519    0.03739    0.62891    0.35517    1.04909
  12.61523    0.03462    0.63534    0.37010    1.04595
  12.63527    0.03223    0.64141    0.38231    1.03623
  12.65531    0.03014    0.64714    0.39074    1.02297
  12.67535    0.02830    0.65258    0.39658    1.00733
  12.69539    0.02668    0.65773    0.39986    0.98779
  12.71543    0.02523    0.66264    0.39705    0.96316
  12.73547    0.02394    0.66732    0.38322    0.93670
  12.75551    0.02277    0.67179    0.35729    0.91575
  12.77555    0.02172    0.67606    0.32399    0.90643
  12.79559    0.02076    0.68016    0.29018    0.90994
  12.81563    0.01988    0.68410    0.26078    0.92369
  12.83567    0.01908    0.68788    0.23790    0.94419
  12.85571    0.01834    0.69153    0.22183    0.96855
  12.87575    0.01765    0.69504    0.21212    0.99487
  12.89579    0.01702    0.69843    0.20820    1.02192
  12.91583    0.01643    0.70171    0.20952    1.04882
  12.93587    0.01588    0.70489    0.21560    1.07495
  12.95591    0.01537    0.70796    0.22590    1.09988
  12.97595    0.01489    0.71094    0.24003    1.12353
  12.99599    0.01444    0.71383    0.25796    1.14601
  13.01603    0.01402    0.71664    0.28021    1.16734
  13.03607    0.01362    0.71937    0.30774    1.18713
  13.05611    0.01324    0.72202    0.34201    1.20419
  13.08     0.1288E-1  0.7246     0.3844      1.216   
  13.10     0.1255E-1  0.7271     0.4348      1.217   
  13.12     0.1222E-1  0.7296     0.4895      1.202   
  13.14     0.1192E-1  0.7320     0.5410      1.168   
  13.16     0.1163E-1  0.7343     0.5791      1.116   
  13.18     0.1135E-1  0.7366     0.5967      1.055   
  13.20     0.1109E-1  0.7388     0.5926     0.9943   
  13.22     0.1083E-1  0.7410     0.5699     0.9421   
  13.24     0.1059E-1  0.7431     0.5337     0.9040   
  13.26     0.1036E-1  0.7452     0.4907     0.8834   
  13.28     0.1014E-1  0.7472     0.4483     0.8809   
  13.30     0.9922E-2  0.7492     0.4129     0.8933   
  13.32     0.9717E-2  0.7512     0.3885     0.9161   
  13.34     0.9520E-2  0.7531     0.3769     0.9447   
  13.36     0.9330E-2  0.7550     0.3787     0.9748   
  13.38     0.9147E-2  0.7568     0.3939      1.002   
  13.40     0.8971E-2  0.7586     0.4219      1.022   
  13.42     0.8801E-2  0.7604     0.4601      1.028   
  13.44     0.8637E-2  0.7621     0.5019      1.016   
  13.46     0.8479E-2  0.7638     0.5360     0.9822   
  13.48     0.8325E-2  0.7655     0.5507     0.9354   
  13.50     0.8177E-2  0.7672     0.5424     0.8897   
  13.52     0.8034E-2  0.7688     0.5186     0.8571   
  13.54     0.7895E-2  0.7704     0.4913     0.8402   
  13.56     0.7761E-2  0.7719     0.4684     0.8333   
  13.58     0.7630E-2  0.7735     0.4506     0.8295   
  13.60     0.7504E-2  0.7750     0.4340     0.8249   
  13.62     0.7381E-2  0.7765     0.4140     0.8211   
  13.64     0.7262E-2  0.7779     0.3900     0.8229   
  13.66     0.7146E-2  0.7794     0.3655     0.8338   
  13.68     0.7034E-2  0.7808     0.3454     0.8535   
  13.70     0.6924E-2  0.7822     0.3330     0.8794   
  13.72     0.6818E-2  0.7835     0.3295     0.9079   
  13.74     0.6714E-2  0.7849     0.3344     0.9359   
  13.76     0.6614E-2  0.7862     0.3462     0.9611   
  13.78     0.6516E-2  0.7875     0.3624     0.9824   
  13.80     0.6420E-2  0.7888     0.3810      1.001   
  13.82     0.6327E-2  0.7901     0.4017      1.019   
  13.84     0.6236E-2  0.7914     0.4272      1.038   
  13.86     0.6148E-2  0.7926     0.4613      1.057   
  13.88     0.6062E-2  0.7938     0.5065      1.071   
  13.90     0.5978E-2  0.7950     0.5619      1.073   
  13.92     0.5895E-2  0.7962     0.6224      1.059   
  13.94     0.5815E-2  0.7974     0.6804      1.025   
  13.96     0.5737E-2  0.7985     0.7291     0.9765   
  13.98     0.5660E-2  0.7997     0.7639     0.9153   
  14.00     0.5586E-2  0.8008     0.7801     0.8476   
  14.02     0.5513E-2  0.8019     0.7761     0.7835   
  14.04     0.5441E-2  0.8030     0.7593     0.7330   
  14.06     0.5371E-2  0.8041     0.7426     0.6973   
  14.08     0.5303E-2  0.8051     0.7351     0.6670   
  14.10     0.5236E-2  0.8062     0.7349     0.6295   
  14.12     0.5171E-2  0.8072     0.7302     0.5779   
  14.14     0.5107E-2  0.8083     0.7073     0.5183   
  14.16     0.5044E-2  0.8093     0.6621     0.4660   
  14.18     0.4983E-2  0.8103     0.6039     0.4338   
  14.20     0.4923E-2  0.8113     0.5466     0.4238   
  14.22     0.4864E-2  0.8122     0.5006     0.4299   
  14.24     0.4806E-2  0.8132     0.4701     0.4426   
  14.26     0.4750E-2  0.8142     0.4542     0.4528   
  14.28     0.4694E-2  0.8151     0.4478     0.4532   
  14.30     0.4640E-2  0.8160     0.4420     0.4403   
  14.32     0.4587E-2  0.8170     0.4270     0.4174   
  14.34     0.4534E-2  0.8179     0.3981     0.3936   
  14.36     0.4483E-2  0.8188     0.3585     0.3783   
  14.38     0.4433E-2  0.8197     0.3157     0.3748   
  14.40     0.4384E-2  0.8206     0.2756     0.3813   
  14.42     0.4335E-2  0.8214     0.2410     0.3940   
  14.44     0.4288E-2  0.8223     0.2118     0.4098   
  14.46     0.4241E-2  0.8231     0.1870     0.4270   
  14.48     0.4195E-2  0.8240     0.1660     0.4451   
  14.50     0.4150E-2  0.8248     0.1483     0.4636   
  14.52     0.4106E-2  0.8256     0.1337     0.4820   
  14.54     0.4063E-2  0.8265     0.1220     0.5000   
  14.56     0.4020E-2  0.8273     0.1127     0.5171   
  14.58     0.3978E-2  0.8281     0.1055     0.5331   
  14.60     0.3937E-2  0.8289     0.9989E-1  0.5478   
  14.62     0.3896E-2  0.8296     0.9530E-1  0.5612   
  14.64     0.3857E-2  0.8304     0.9124E-1  0.5733   
  14.66     0.3818E-2  0.8312     0.8749E-1  0.5848   
  14.68     0.3779E-2  0.8320     0.8416E-1  0.5959   
  14.70     0.3741E-2  0.8327     0.8155E-1  0.6068   
  14.72     0.3704E-2  0.8334     0.7978E-1  0.6170   
  14.74     0.3667E-2  0.8342     0.7875E-1  0.6266   
  14.76     0.3631E-2  0.8349     0.7823E-1  0.6352   
  14.78     0.3596E-2  0.8356     0.7804E-1  0.6429   
  14.80     0.3561E-2  0.8364     0.7810E-1  0.6497   
  14.82     0.3527E-2  0.8371     0.7818E-1  0.6554   
  14.84     0.3493E-2  0.8378     0.7767E-1  0.6599   
  14.86     0.3460E-2  0.8385     0.7585E-1  0.6636   
  14.88     0.3427E-2  0.8392     0.7254E-1  0.6676   
  14.90     0.3395E-2  0.8398     0.6830E-1  0.6728   
  14.92     0.3363E-2  0.8405     0.6397E-1  0.6793   
  14.94     0.3332E-2  0.8412     0.6015E-1  0.6869   
  14.96     0.3301E-2  0.8418     0.5712E-1  0.6952   
  14.98     0.3271E-2  0.8425     0.5491E-1  0.7040   
  15.00     0.3241E-2  0.8432     0.5348E-1  0.7129   
# 
# 11/17/2016 at 21:46 YAMBO @ anomaly [start]
# 11/17/2016 at 21:46                 [end]
#  
# Timing   [Min/Max/Average]: 02s/02s/02s
#
# .-Input file : yambo.in
# | optics                       # [R OPT] Optics
# | bse                          # [R BSE] Bethe Salpeter Equation.
# | bsk                          # [R BSK] Bethe Salpeter Equation kernel
# | bss                          # [R BSS] Bethe Salpeter Equation solver
# | em1s                         # [R Xs] Static Inverse Dielectric Matrix
# | NonPDirs= "XYZ"              # [X/BSS] Non periodic chartesian directions (X,Y,Z,XY...)
# | Chimod= "Hartree"            # [X] IP/Hartree/ALDA/LRC/BSfxc
# | BSEmod= "resonant"           # [BSE] resonant/retarded/coupling
# | BSKmod= "SEX"                # [BSE] IP/Hartree/HF/ALDA/SEX/BSfxc
# | BSSmod= "d"                  # [BSS] (h)aydock/(d)iagonalization/(i)nversion/(t)ddft`
# | BSENGexx= 1535         mHa   # [BSK] Exchange components
# | BSENGBlk=  595         mHa   # [BSK] Screened interaction block size
# | #WehCpl                      # [BSK] eh interaction included also in coupling
# | KfnQPdb= "E < 04_QP/ndb.QP uki" # [EXTQP BSK BSS] Database
# | % BEnRange
# |   5.00000 | 15.00000 | eV    # [BSS] Energy range
# | %
# | % BDmRange
# |   0.10000 |  0.10000 | eV    # [BSS] Damping range
# | %
# | BEnSteps=  500               # [BSS] Energy steps
# | % BLongDir
# | 0.5774E-5 |0.5774E-5 |0.5774E-5 |        # [BSS] [cc] Electric Field
# | %
# | % BSEBands
# |   14 |  34 |                 # [BSK] Bands range
# | %
# | % BndsRnXs
# |    1 |  50 |                 # [Xs] Polarization function bands
# | %
# | NGsBlkXs= 1535         mHa   # [Xs] Response block size
# | % DmRngeXs
# | 0.1000E-2 |0.1000E-2 | eV    # [Xs] Damping range
# | %
# | % LongDrXs
# | 0.1000E-4 | 0.000    | 0.000    |        # [Xs] [cc] Electric Field
# | %
