#                                                           
#  **    **    **     ****     ****  ******     *******     
# //**  **    ****   /**/**   **/** /*////**   **/////**    
#  //****    **//**  /**//** ** /** /*   /**  **     //**   
#   //**    **  //** /** //***  /** /******  /**      /**   
#    /**   **********/**  //*   /** /*//// **/**      /**   
#    /**  /**//////**/**   /    /** /*    /**//**     **    
#    /**  /**     /**/**        /** /*******  //*******     
#    //   //      // //         //  ///////    ///////      
#                                                           
#        Version 4.1.1 Revision 14052 Hash e109ff3          
#                        MPI Build                          
#                http://www.yambo-code.org                  
#
# Joint density of states @ Q(1) [q->0 direction] :0.5774E-5 0.5774E-5 0.5774E-5
#
# - Energies      are GoWo Plasmon Pole appox.
# - The Green`s function is Resonant -
#
#   BSK|Identifier              :8077
#      |Dimension               :110
#      |Bands                   :14 - 34
#      |Exchange           [res]: yes
#      |Correlation        [res]: yes
#      |Kernel`s coupling       : no
#      |Exchange           [cpl]: no
#      |Correlation        [cpl]: no
#      |W interaction is bare   : no
#      |ALDA kernel in R-space  : no
#      |RL vectors    [exchange]:367
#      |RL vectors [correlation]:87
#      |E/h energy range    [ev]:-1.000000 - -1.000000
#      |Coupling range     [o/o]: 100.0000 -  100.0000
#    W |Interaction is diagonal : no
#      |Matrix size             :367
#      |Bands                   :1 - 50
#      |e/h energy range    [ev]:-1.000000 - -1.000000
#      |Poles              [o/o]: 100.0000
#      |RL vectors in the sum   :17279
#      |[r,Vnl] included        : yes
#      |Field direction         :0.1000E-4  0.000000  0.000000
#      |Coulomb Cutoff          :none
#      |xc-Kernel               :none
#   RIM|RL components      [col]:0
#      |Random points      [col]:0
#
#  E/ev[1]    jdos-Im[2] jdos-Re[3] jdoso-Im[4]jdoso-Re[5]jdos`-Im[6]jdos`-Re[7]
#
   5.00000    3.43255    4.83338    0.04475    2.74544
   5.02004    3.42606    4.60598    0.04508    2.75444
   5.04008    3.38351    4.38404    0.04542    2.76350
   5.06012    3.29780    4.14932    0.04576    2.77263
   5.08016    3.13560    3.91212    0.04610    2.78182
   5.10020    2.88377    3.72082    0.04645    2.79109
   5.12024    2.57435    3.62208    0.04681    2.80043
   5.14028    2.25963    3.62602    0.04717    2.80984
   5.16032    1.97824    3.71210    0.04753    2.81932
   5.18036    1.74616    3.85156    0.04790    2.82887
   5.20040    1.56412    4.02095    0.04827    2.83850
   5.22044    1.42648    4.20506    0.04865    2.84820
   5.24048    1.32644    4.39520    0.04903    2.85798
   5.26052    1.25817    4.58688    0.04942    2.86783
   5.28056    1.21752    4.77799    0.04981    2.87777
   5.30060    1.20211    4.96763    0.05021    2.88778
   5.32064    1.21125    5.15520    0.05061    2.89787
   5.34068    1.24588    5.33974    0.05102    2.90805
   5.36072    1.30856    5.51902    0.05144    2.91830
   5.38076    1.40314    5.68843    0.05186    2.92865
   5.40080    1.53394    5.83919    0.05229    2.93907
   5.42084    1.70318    5.95625    0.05273    2.94958
   5.44088    1.90536    6.01716    0.05317    2.96018
   5.46092    2.11805    5.99614    0.05361    2.97087
   5.48096    2.29510    5.87968    0.05407    2.98165
   5.50100    2.37834    5.69071    0.05453    2.99252
   5.52104    2.33512    5.49416    0.05500    3.00348
   5.54108    2.18665    5.36071    0.05547    3.01454
   5.56112    1.98901    5.32398    0.05596    3.02569
   5.58116    1.79314    5.37678    0.05645    3.03694
   5.60120    1.62658    5.49430    0.05694    3.04829
   5.62124    1.49767    5.65265    0.05745    3.05974
   5.64128    1.40514    5.83512    0.05796    3.07129
   5.66132    1.34457    6.03177    0.05848    3.08294
   5.68136    1.31147    6.23729    0.05901    3.09470
   5.70140    1.30241    6.44926    0.05955    3.10657
   5.72144    1.31533    6.66687    0.06010    3.11854
   5.74148    1.34950    6.89014    0.06066    3.13063
   5.76152    1.40556    7.11944    0.06123    3.14282
   5.78156    1.48551    7.35502    0.06180    3.15513
   5.80160    1.59286    7.59654    0.06239    3.16756
   5.82164    1.73272    7.84236    0.06299    3.18011
   5.84168    1.91180    8.08840    0.06359    3.19277
   5.86172    2.13775    8.32638    0.06421    3.20556
   5.88176    2.41699    8.54159    0.06484    3.21847
   5.90180    2.74959    8.71128    0.06548    3.23151
   5.92184    3.12043    8.80789    0.06613    3.24468
   5.94188    3.49227    8.81308    0.06680    3.25798
   5.96192    3.81614    8.74025    0.06747    3.27141
   5.98196    4.06682    8.63940    0.06816    3.28498
   6.00200    4.26917    8.55978    0.06887    3.29869
   6.02204    4.47344    8.50554    0.06958    3.31253
   6.04208    4.70472    8.43760    0.07031    3.32653
   6.06212    4.94079    8.31584    0.07106    3.34067
   6.08216    5.13560    8.13706    0.07182    3.35496
   6.10220    5.25919    7.93170    0.07259    3.36940
   6.12224    5.30605    7.73461    0.07338    3.38400
   6.14228    5.28069    7.57938    0.07419    3.39876
   6.16232    5.20650    7.50498    0.07502    3.41368
   6.18236    5.13737    7.53224    0.07586    3.42877
   6.20240    5.13221    7.63800    0.07672    3.44403
   6.22245    5.21713    7.76598    0.07760    3.45946
   6.24248    5.37213    7.86341    0.07850    3.47507
   6.26252    5.55144    7.91625    0.07942    3.49086
   6.28257    5.72941    7.95400    0.08036    3.50683
   6.30261    5.93075    8.00706    0.08132    3.52299
   6.32265    6.20481    8.05763    0.08231    3.53935
   6.34269    6.57042    8.03753    0.08332    3.55591
   6.36273    6.98254    7.86994    0.08435    3.57266
   6.38277    7.34058    7.52171    0.08541    3.58963
   6.40281    7.53136    7.03570    0.08650    3.60681
   6.42285    7.48480    6.52728    0.08761    3.62421
   6.44289    7.22016    6.14165    0.08876    3.64183
   6.46293    6.84765    5.97967    0.08993    3.65968
   6.48297    6.50724    6.04955    0.09113    3.67777
   6.50301    6.30311    6.28535    0.09237    3.69610
   6.52305    6.28324    6.59179    0.09364    3.71468
   6.54309    6.44655    6.87229    0.09495    3.73352
   6.56313    6.74861    7.04390    0.09629    3.75261
   6.58317    7.10700    7.05827    0.09768    3.77198
   6.60321    7.42713    6.92501    0.09910    3.79163
  6.623246   7.646935   6.707552   0.100569   3.811557
  6.643287   7.763465   6.481549   0.102084   3.831785
  6.663326   7.814531   6.289608   0.103646   3.852315
  6.683367   7.833994   6.134417   0.105259   3.873161
  6.703406   7.831989   6.010617   0.106925   3.894329
  6.723447   7.812311   5.924410   0.108647   3.915832
  6.743487   7.784964   5.888063   0.110429   3.937679
  6.763527   7.771487   5.918141   0.112273   3.959885
  6.783567   7.818954   6.021803   0.114184   3.982460
  6.803607   7.988380   6.163647   0.116166   4.005418
  6.823647   8.309193   6.258422   0.118222   4.028773
  6.843688   8.742644   6.208414   0.120358   4.052541
  6.863728   9.187159   5.960878   0.122579   4.076733
  6.883767   9.530781   5.544167   0.124890   4.101371
  6.903808   9.714540   5.046436   0.127298   4.126471
  6.923848   9.750803   4.553895   0.129809   4.152053
  6.943888   9.686400   4.104561   0.132431   4.178134
  6.963927   9.547233   3.694856   0.135171   4.204738
  6.983968   9.322288   3.333766   0.138040   4.231889
  7.004008   9.015656   3.074880   0.141046   4.259610
  7.024048   8.695599   2.968841   0.144200   4.287928
  7.044088   8.464159   2.996538   0.147516   4.316872
  7.064128   8.384766   3.065991   0.151005   4.346475
  7.084168   8.441497   3.064755   0.154684   4.376768
  7.104208   8.549019   2.919754   0.158568   4.407790
  7.124248   8.598636   2.630439   0.162678   4.439575
  7.144289   8.509051   2.261191   0.167034   4.472171
  7.164329   8.256326   1.908516   0.171660   4.505622
  7.184369   7.880472   1.658579   0.176583   4.539982
  7.204409   7.461048   1.545560   0.181834   4.575300
  7.224449   7.063186   1.542315   0.187449   4.611644
  7.244489   6.698836   1.602811   0.193467   4.649077
  7.264528   6.345896   1.715742   0.199935   4.687673
  7.284569   6.002390   1.908229   0.206905   4.727517
  7.304609   5.707769   2.200952   0.214441   4.768697
  7.324649   5.514838   2.576716   0.222613   4.811310
  7.344689   5.458793   2.987117   0.231506   4.855472
  7.364729   5.546763   3.369975   0.241220   4.901309
  7.384770   5.754612   3.661487   0.251870   4.948956
  7.404809   6.022695   3.812177   0.263596   4.998568
  7.424850   6.263732   3.813200   0.276564   5.050323
  7.444890   6.396554   3.714231   0.290974   5.104420
  7.464930   6.387503   3.607756   0.307070   5.161078
  7.484970   6.268466   3.587440   0.325146   5.220551
  7.505010   6.121933   3.704803   0.345567   5.283117
  7.525050   6.039285   3.948620   0.368785   5.349098
  7.545090   6.080718   4.260151   0.395360   5.418842
  7.565130   6.259683   4.565023   0.426006   5.492748
  7.585170   6.547259   4.802947   0.461622   5.571236
  7.605211   6.894191   4.951148   0.503370   5.654765
  7.625250   7.269335   5.022388   0.552746   5.743783
  7.645291   7.677903   5.023816   0.611711   5.838703
  7.665330   8.124021   4.922826   0.682838   5.939786
  7.685371   8.562125   4.675945   0.769535   6.047005
  7.705410   8.909860   4.291180   0.876303   6.159690
  7.725451   9.116482   3.838348   1.009057   6.276011
  7.745491   9.196487   3.389795   1.175393   6.391969
  7.765532   9.193807   2.974888   1.384511   6.499719
  7.785571   9.141617   2.587343   1.646181   6.584998
  7.805611   9.048305   2.206877   1.967349   6.623849
  7.825651   8.897571   1.820301   2.344292   6.580558
  7.845692   8.661879   1.436067   2.749895   6.412453
  7.865731   8.318635   1.087037   3.123655   6.088996
  7.885771   7.866888   0.826423   3.382201   5.620983
  7.905812   7.343252   0.710605   3.455955   5.073381
  7.925851   6.821232   0.768036   3.324891   4.543891
  7.945892   6.381981   0.975863   3.028316   4.123179
  7.965931   6.076890   1.268251   2.645342   3.858788
  7.985972   5.909559   1.565950   2.254714   3.744629
  8.006012   5.838560   1.806802   1.905482   3.742993
  8.026052   5.797811   1.971967   1.615337   3.812277
  8.046092   5.737000   2.091085   1.383261   3.920726
  8.066133   5.651901   2.206361   1.200767   4.048056
  8.086172   5.563486   2.328658   1.058097   4.182558
  8.106213   5.471513   2.442533   0.946580   4.317995
  8.126252   5.346027   2.550587   0.859269   4.451288
  8.146293   5.167969   2.695338   0.790805   4.581168
  8.166332   4.964097   2.927244   0.737152   4.707306
  8.186372   4.791467   3.262920   0.695275   4.829893
  8.206412   4.701175   3.681187   0.662900   4.949368
  8.226453   4.722515   4.142596   0.638324   5.066276
  8.246493   4.865224   4.603231   0.620266   5.181198
  8.266533   5.122096   5.018717   0.607768   5.294734
  8.286573   5.465682   5.349393   0.600121   5.407471
  8.306614   5.848698   5.575792   0.596808   5.519970
  8.326653   6.225482   5.714224   0.597469   5.632776
  8.346693   6.586016   5.800646   0.601874   5.746433
  8.366734   6.953967   5.843538   0.609906   5.861480
  8.386773   7.335133   5.806514   0.621548   5.978441
  8.406814   7.677846   5.654119   0.636883   6.097872
  8.426853   7.901015   5.412870   0.656095   6.220328
  8.446894   7.967167   5.170984   0.679474   6.346408
  8.466934   7.910798   5.010719   0.707431   6.476732
  8.486974   7.790752   4.964144   0.740520   6.611959
  8.507013   7.649125   5.039573   0.779467   6.752810
  8.527054   7.528666   5.249028   0.825216   6.900065
  8.547094   7.491673   5.587697   0.878979   7.054534
  8.567134   7.597206   6.011096   0.942327   7.217103
  8.587174   7.869138   6.447409   1.017298   7.388673
  8.607215   8.286890   6.829978   1.106542   7.570109
  8.627254   8.804393   7.127008   1.213524   7.762144
  8.647294   9.388518   7.343725   1.342812   7.965185
   8.66733   10.03889    7.48837    1.50041    8.17894
   8.68738   10.76646    7.54465    1.69415    8.40171
   8.70741   11.57059    7.47777    1.93400    8.62926
   8.72745   12.43250    7.24039    2.23203    8.85281
   8.74749   13.29614    6.78030    2.60112    9.05608
   8.76754   14.05826    6.08088    3.05075    9.21169
   8.78757   14.61023    5.20225    3.57807    9.27977
   8.80762   14.90685    4.26543    4.15505    9.21509
   8.82766   14.99175    3.37850    4.72199    8.98860
   8.84770   14.94589    2.57766    5.20504    8.61314
   8.86774   14.81848    1.84235    5.55336    8.14405
   8.88778   14.61229    1.15162    5.76240    7.64787
   8.90782   14.31677    0.51006    5.86359    7.16473
   8.92786   13.92627   -0.06357    5.88602    6.69309
   8.94790   13.44116   -0.53561    5.82142    6.21787
   8.96794   12.88871   -0.85710    5.63550    5.75487
   8.98798   12.33991   -0.99463    5.31056    5.35974
   9.00802   11.88864   -0.97021    4.87374    5.09958
   9.02806   11.59845   -0.87039    4.39240    5.01423
   9.04810   11.45809   -0.80421    3.94087    5.09688
   9.06814   11.38946   -0.83990    3.56890    5.30860
   9.08818   11.29937   -0.97460    3.29625    5.60512
   9.10822   11.12906   -1.15022    3.12425    5.95182
   9.12826   10.87765   -1.29327    3.04802    6.32567
   9.14830   10.59188   -1.36069    3.06353    6.71148
   9.16834   10.32120   -1.36003    3.17040    7.09700
   9.18838   10.08084   -1.32078    3.37206    7.46811
  9.208417   9.861542  -1.257187   3.673321   7.803954
  9.228457   9.656109  -1.164178   4.073886   8.073027
  9.248497   9.471654  -1.028961   4.556848   8.234389
  9.268537   9.332469  -0.847512   5.076506   8.251197
  9.288577   9.262838  -0.638647   5.561014   8.117784
  9.308618   9.267518  -0.428490   5.942998   7.879354
  9.328657   9.347196  -0.231068   6.199521   7.617990
   9.34870    9.51730   -0.06868    6.36963    7.41209
  9.369      9.781     0.3073E-2   6.540      7.292   
   9.38878   10.09283   -0.08142    6.79657    7.21427
   9.40882   10.35761   -0.35006    7.17570    7.07947
   9.42886   10.47092   -0.76791    7.63202    6.77930
   9.44890   10.35751   -1.23744    8.05077    6.25261
   9.46894   10.01189   -1.62404    8.29105    5.52264
  9.488977   9.513390  -1.811619   8.245324   4.699070
  9.509018   8.994065  -1.756110   7.889782   3.939514
  9.529058   8.578053  -1.499452   7.294335   3.383926
  9.549098   8.332515  -1.138761   6.584950   3.104845
  9.569138   8.254060  -0.777200   5.890134   3.097793
  9.589178   8.286973  -0.481937   5.300651   3.305927
  9.609219   8.363928  -0.265814   4.859765   3.658002
  9.629258   8.442748  -0.107279   4.578094   4.093736
   9.64930    8.50515    0.01749    4.45298    4.56972
  9.669338   8.539755   0.131575   4.481160   5.054060
  9.689379   8.544758   0.263443   4.663881   5.517487
  9.709419   8.530405   0.441542   5.005829   5.923859
  9.729459   8.519629   0.696684   5.507405   6.221370
  9.749499   8.563874   1.054700   6.147859   6.338807
  9.769540   8.741328   1.504052   6.861300   6.197718
  9.789579   9.121437   1.977708   7.523149   5.750475
  9.809619   9.728372   2.367660   7.975596   5.029542
   9.82966   10.51998    2.55669    8.09314    4.16436
   9.84970   11.38587    2.46312    7.84486    3.34124
   9.86974   12.18277    2.08600    7.31072    2.72934
   9.88978   12.80299    1.50844    6.64200    2.41633
   9.90982   13.21944    0.84092    5.99116    2.39279
   9.92986   13.46392    0.15703    5.46080    2.58833
   9.94990   13.57102   -0.51874    5.09814    2.91917
   9.96994   13.54845   -1.17598    4.91589    3.31293
   9.98998   13.39317   -1.78432    4.91189    3.70991
  10.01002   13.12655   -2.29692    5.07637    4.05441
  10.03006   12.80247   -2.68643    5.38660    4.28753
  10.05010   12.47531   -2.96532    5.79386    4.35136
  10.07014   12.17241   -3.16445    6.21687    4.21038
  10.09018   11.90383   -3.30820    6.56032    3.87678
  10.11022   11.67983   -3.41990    6.75113    3.41068
  10.13026   11.50151   -3.53856    6.76000    2.89347
  10.15030   11.33238   -3.70723    6.59896    2.40049
  10.17034   11.09871   -3.92843    6.30906    1.98394
  10.19038   10.73686   -4.13804    5.94175    1.66073
  10.21042   10.24701   -4.23040    5.52879    1.41742
  10.23046    9.70923   -4.11939    5.07007    1.24567
  10.25050    9.24538   -3.79126    4.56557    1.16651
  10.27054    8.95823   -3.30804    4.04597    1.20562
  10.29058    8.89568   -2.77264    3.55803    1.36060
  10.31062    9.04538   -2.29215    3.13485    1.60310
  10.33066    9.34247   -1.94759    2.78702    1.89922
  10.35070    9.69276   -1.76650    2.51019    2.22246
  10.37074   10.01542   -1.71648    2.29420    2.55608
  10.39078   10.27742   -1.73537    2.12838    2.89088
  10.41082   10.49009   -1.77391    2.00364    3.22258
  10.43086   10.67709   -1.81260    1.91296    3.54974
  10.45090   10.85341   -1.84550    1.85129    3.87250
  10.47094   11.03272   -1.86526    1.81529    4.19180
  10.49098   11.23807   -1.86899    1.80310    4.50900
  10.51102   11.49752   -1.87249    1.81418    4.82559
  10.53106   11.82288   -1.91208    1.84930    5.14288
  10.55110   12.19949   -2.02023    1.91058    5.46183
  10.57114   12.60907   -2.21029    2.00171    5.78264
  10.59118   13.04675   -2.49872    2.12808    6.10407
  10.61122   13.49558   -2.92796    2.29689    6.42230
  10.63126   13.88794   -3.54124    2.51678    6.72907
  10.65130   14.11501   -4.32575    2.79598    7.00914
  10.67134   14.08551   -5.18868    3.13763    7.23763
  10.69138   13.78382   -5.98732    3.53066    7.38081
  10.71142   13.29234   -6.59710    3.93938    7.40649
  10.73146   12.74919   -6.98305    4.30439    7.30620
  10.75150   12.25909   -7.20528    4.56681    7.11098
  10.77154   11.84652   -7.35005    4.69564    6.87745
  10.79158   11.48395   -7.46990    4.68705    6.66469
  10.81162   11.13607   -7.57642    4.55849    6.53214
  10.83166   10.78182   -7.65655    4.35824    6.53062
  10.85170   10.42036   -7.68965    4.15641    6.67705
  10.87174   10.06740   -7.66230    4.01463    6.95062
  10.89178    9.74170   -7.57554    3.97011    7.31339
  10.91182    9.45512   -7.43451    4.04103    7.72754
  10.93186    9.22314   -7.24250    4.23711    8.15924
  10.95190    9.06530   -7.01600    4.56520    8.57415
  10.97194    8.98416   -6.78175    5.02722    8.93094
  10.99198    8.96898   -6.55096    5.61049    9.17916
  11.01202    9.02464   -6.32264    6.27596    9.26879
  11.03206    9.16956   -6.11427    6.95865    9.17197
  11.05210    9.40559   -5.96272    7.59013    8.89670
  11.07214    9.71491   -5.89919    8.12053    8.47378
  11.09218   10.07656   -5.95023    8.51598    7.93754
  11.11222   10.45209   -6.14957    8.74613    7.32483
  11.13226   10.76637   -6.50713    8.78350    6.68692
  11.15230   10.94569   -6.97037    8.62066    6.09494
  11.17235   10.97699   -7.45115    8.28666    5.62260
  11.19238   10.90747   -7.89294    7.84272    5.32353
  11.21243   10.78661   -8.29945    7.36996    5.21729
  11.23247   10.61709   -8.69619    6.94850    5.27659
  11.25251   10.37372   -9.07229    6.62182    5.43418
  11.27254   10.06262   -9.38463    6.37553    5.62202
  11.29259    9.72841   -9.61198    6.15730    5.81694
  11.31262    9.41249   -9.77064    5.92948    6.05188
  11.33266    9.13564   -9.89310    5.70653    6.37606
  11.35271    8.89665  -10.02089    5.53935    6.80791
  11.37275    8.65687  -10.18853    5.47706    7.32800
  11.39279    8.35355  -10.38151    5.54916    7.89773
  11.41283    7.95918  -10.52808    5.76681    8.47340
  11.43287    7.52050  -10.55570    6.12517    9.01019
  11.45291    7.12751  -10.45351    6.59992    9.46725
  11.47295    6.84905  -10.27907    7.14752    9.82309
  11.49299    6.69415  -10.11731    7.72605   10.09106
  11.51303    6.61550  -10.03119    8.32782   10.30484
  11.53307    6.54558  -10.03275    8.97981   10.47728
  11.55311    6.43774  -10.09404    9.70801   10.58595
  11.57315    6.27399  -10.17864   10.52069   10.59266
  11.59319    6.05338  -10.25047   11.41343   10.44494
  11.61323    5.79778  -10.27715   12.34307   10.06779
  11.63327    5.54730  -10.25461   13.19153    9.41040
  11.65331    5.32365  -10.21405   13.80476    8.52357
  11.67335    5.10557  -10.18560   14.09636    7.56268
  11.69339    4.85345  -10.15720   14.10696    6.69853
  11.71343    4.55945  -10.07999   13.97087    6.02101
  11.73347    4.26282   -9.91523   13.82689    5.50231
  11.75351    4.01876   -9.66387   13.73456    5.03838
  11.77355    3.86796   -9.35684   13.65419    4.53366
  11.79359    3.83096   -9.03608   13.49077    3.96312
  11.81363    3.91364   -8.74733   13.15976    3.38485
  11.83367    4.10757   -8.54252   12.63996    2.90567
  11.85371    4.37936   -8.47986   11.98231    2.62434
  11.87375    4.65410   -8.60748   11.28275    2.59648
  11.89379    4.81701   -8.92260   10.65415    2.82380
  11.91383    4.76453   -9.33534   10.19876    3.24946
  11.93387    4.48075   -9.70027    9.97403    3.77018
  11.95391    4.04859   -9.90767    9.97080    4.26996
  11.97395    3.58003   -9.93425   10.11410    4.66436
  11.99399    3.15337   -9.81673   10.29602    4.94365
  12.01403    2.80213   -9.60615   10.44462    5.18247
  12.03407    2.53159   -9.34354   10.58335    5.48209
  12.05411    2.33563   -9.05564   10.81708    5.88309
  12.07415    2.20605   -8.75811   11.25750    6.32636
  12.09419    2.13663   -8.45996   11.95361    6.67804
  12.11423    2.12453   -8.16695   12.85652    6.78499
  12.13427    2.17067   -7.88466   13.82010    6.54437
  12.15431    2.27942   -7.62106   14.65649    5.96462
  12.17435    2.45750   -7.38992   15.22421    5.16189
  12.19439    2.71074   -7.21474   15.47197    4.29804
  12.21443    3.03621   -7.13255   15.43651    3.53559
  12.23447    3.40785   -7.19173   15.24763    2.99262
  12.25451    3.75975   -7.43411   15.08630    2.66916
  12.27455    3.98832   -7.85614   15.07128    2.43737
  12.29459    3.99809   -8.37600   15.18476    2.13935
  12.31463    3.76962   -8.85904   15.31145    1.69774
  12.33467    3.37494   -9.19637   15.33878    1.13987
  12.35471    2.92095   -9.35668   15.21461    0.54111
  12.37475    2.48852   -9.37013   14.93534   -0.02842
  12.39479    2.11527   -9.28634   14.51654   -0.51215
  12.41483    1.80852   -9.14786   13.99164   -0.85532
  12.43487    1.56150   -8.98337   13.42486   -1.02004
  12.45491    1.36352   -8.80995   12.89022   -1.01050
  12.47495    1.20421   -8.63701   12.43929   -0.86010
  12.49499    1.07492   -8.46933   12.10122   -0.60613
  12.51503    0.96890   -8.30909   11.89401   -0.28120
  12.53507    0.88098   -8.15709   11.83893    0.08773
  12.55511    0.80727   -8.01337   11.97247    0.45695
  12.57515    0.74480   -7.87756   12.31839    0.73616
  12.59519    0.69132   -7.74917   12.83401    0.80580
  12.61523    0.64510   -7.62764   13.39494    0.58398
  12.63527    0.60482   -7.51241   13.84757    0.08151
  12.65531    0.56941   -7.40293   14.08422   -0.61300
  12.67535    0.53808   -7.29873   14.06514   -1.39651
  12.69539    0.51014   -7.19935   13.78081   -2.18929
  12.71543    0.48510   -7.10439   13.21658   -2.91067
  12.73547    0.46251   -7.01349   12.38116   -3.44043
  12.75551    0.44202   -6.92632   11.36693   -3.65065
  12.77555    0.42336   -6.84260   10.33644   -3.48911
  12.79559    0.40629   -6.76207    9.44065   -3.00303
  12.81563    0.39059   -6.68449    8.76648   -2.28946
  12.83567    0.37612   -6.60966    8.34436   -1.44415
  12.85571    0.36272   -6.53739    8.17611   -0.54326
  12.87575    0.35029   -6.46751    8.25478    0.35111
  12.89579    0.33870   -6.39987    8.56905    1.17848
  12.91583    0.32788   -6.33433    9.09313    1.87097
  12.93587    0.31775   -6.27077    9.76732    2.36104
  12.95591    0.30824   -6.20906   10.48996    2.61511
  12.97595    0.29929   -6.14910   11.15257    2.67220
  12.99599    0.29085   -6.09081   11.70722    2.62840
  13.01603    0.28289   -6.03408   12.18207    2.56379
  13.03607    0.27535   -5.97885   12.62866    2.50560
  13.05611    0.26820   -5.92503   13.08753    2.45175
  13.07615    0.26141   -5.87255   13.59596    2.38462
  13.09619    0.25496   -5.82135   14.18411    2.25603
  13.11623    0.24881   -5.77138   14.83894    1.98752
  13.13627    0.24295   -5.72257   15.47774    1.52030
  13.15631    0.23735   -5.67488   15.98721    0.87703
  13.17635    0.23200   -5.62826   16.31063    0.15870
  13.19639    0.22687   -5.58266   16.49047   -0.54596
  13.21643    0.22196   -5.53803   16.59739   -1.24153
  13.23647    0.21726   -5.49435   16.62545   -1.99186
  13.25651    0.21274   -5.45157   16.47728   -2.80911
  13.27655    0.20839   -5.40967   16.05960   -3.58237
  13.29659    0.20421   -5.36859   15.40569   -4.13171
  13.31663    0.20019   -5.32833   14.68311   -4.35306
  13.33667    0.19631   -5.28884   14.07101   -4.28665
  13.35671    0.19258   -5.25010   13.66113   -4.05038
  13.37675    0.18897   -5.21209   13.46805   -3.75340
  13.39679    0.18549   -5.17477   13.47763   -3.48081
  13.41683    0.18212   -5.13813   13.65310   -3.31206
  13.43687    0.17887   -5.10214   13.91905   -3.30912
  13.45691    0.17572   -5.06678   14.17041   -3.48512
  13.47695    0.17268   -5.03204   14.30954   -3.78228
  13.49699    0.16973   -4.99789   14.30717   -4.08676
  13.51703    0.16686   -4.96431   14.23385   -4.30807
  13.53708    0.16409   -4.93129   14.19650   -4.45933
  13.55711    0.16140   -4.89882   14.22968   -4.63975
  13.57715    0.15879   -4.86686   14.25427   -4.93027
  13.59719    0.15625   -4.83542   14.14250   -5.30205
  13.61724    0.15379   -4.80447   13.83012   -5.61616
  13.63727    0.15139   -4.77401   13.38537   -5.71293
  13.65731    0.14906   -4.74401   12.98115   -5.52033
  13.67735    0.14680   -4.71447   12.80090   -5.09636
  13.69740    0.14459   -4.68537   12.96059   -4.59517
  13.71743    0.14245   -4.65671   13.47872   -4.21323
  13.73748    0.14036   -4.62846   14.26612   -4.14245
  13.75752    0.13832   -4.60063   15.12614   -4.51095
  13.77756    0.13633   -4.57319   15.79950   -5.31113
  13.79760    0.13440   -4.54615   16.06960   -6.36723
  13.81764    0.13251   -4.51948   15.88092   -7.39723
  13.83768    0.13067   -4.49319   15.37713   -8.16162
  13.85772    0.12887   -4.46725   14.79919   -8.59313
  13.87776    0.12712   -4.44168   14.32962   -8.78624
  13.89780    0.12540   -4.41644   14.02808   -8.88624
  13.91784    0.12373   -4.39155   13.86784   -9.00801
  13.93787    0.12210   -4.36698   13.78158   -9.21962
  13.95792    0.12050   -4.34273   13.68334   -9.54025
  13.97796    0.11894   -4.31880   13.49179   -9.93309
  13.99800    0.11741   -4.29517   13.16702  -10.30908
  14.01804    0.11592   -4.27185   12.75093  -10.56480
  14.03808    0.11446   -4.24882   12.36474  -10.65950
  14.05812    0.11303   -4.22608   12.13161  -10.66827
  14.07816    0.11163   -4.20362   12.07944  -10.74989
  14.09820    0.11026   -4.18143   12.09861  -11.04862
  14.11824    0.10892   -4.15952   11.98660  -11.58591
  14.13828    0.10761   -4.13787   11.57488  -12.21618
  14.15832    0.10632   -4.11648   10.85284  -12.70939
  14.17836    0.10506   -4.09534    9.96949  -12.90195
  14.19840    0.10382   -4.07445    9.12107  -12.77362
  14.21844    0.10261   -4.05381    8.45034  -12.41073
  14.23848    0.10143   -4.03340    8.02106  -11.93652
  14.25852    0.10026   -4.01323    7.83491  -11.47124
  14.27856    0.09912   -3.99329    7.84511  -11.11818
  14.29860    0.09800   -3.97358    7.96003  -10.94678
  14.31864    0.09690   -3.95408    8.06265  -10.96174
  14.33868    0.09583   -3.93480    8.06614  -11.09218
  14.35872    0.09477   -3.91574    7.96624  -11.24210
  14.37876    0.09373   -3.89688    7.82246  -11.36982
  14.39880    0.09271   -3.87823    7.67675  -11.51004
  14.41884    0.09171   -3.85979    7.49571  -11.71237
  14.43888    0.09073   -3.84153    7.19874  -11.95977
  14.45892    0.08976   -3.82348    6.74689  -12.15628
  14.47896    0.08882   -3.80561    6.19325  -12.20220
  14.49900    0.08788   -3.78794    5.64128  -12.06656
  14.51904    0.08697   -3.77044    5.17733  -11.78585
  14.53908    0.08607   -3.75313    4.84467  -11.42414
  14.55912    0.08519   -3.73600    4.65163  -11.04558
  14.57916    0.08432   -3.71904    4.58241  -10.70651
  14.59920    0.08346   -3.70225    4.59900  -10.45185
  14.61924    0.08262   -3.68563    4.64217  -10.30121
  14.63928    0.08180   -3.66918    4.65171  -10.23077
  14.65932    0.08098   -3.65289    4.60592  -10.18193
  14.67936    0.08019   -3.63676    4.53661  -10.10844
  14.69940    0.07940   -3.62079    4.49369  -10.01384
  14.71944    0.07863   -3.60498    4.49816   -9.94101
  14.73948    0.07787   -3.58932    4.52504   -9.93217
  14.75952    0.07712   -3.57381    4.52443   -9.99175
  14.77956    0.07638   -3.55845    4.46628  -10.08449
  14.79960    0.07565   -3.54324    4.36166  -10.17690
  14.81964    0.07494   -3.52817    4.23058  -10.27076
  14.83968    0.07424   -3.51324    4.06206  -10.38220
  14.85972    0.07354   -3.49845    3.82264  -10.49747
  14.87976    0.07286   -3.48379    3.50232  -10.56727
  14.89980    0.07219   -3.46928    3.13544  -10.54805
  14.91984    0.07153   -3.45489    2.77296  -10.43346
  14.93988    0.07088   -3.44064    2.45041  -10.24571
  14.95992    0.07024   -3.42652    2.18094  -10.01330
  14.97996    0.06960   -3.41252    1.96349   -9.75870
  15.00000    0.06898   -3.39865    1.79130   -9.49620
# 
# 11/17/2016 at 21:46 YAMBO @ anomaly [start]
# 11/17/2016 at 21:46                 [end]
#  
# Timing   [Min/Max/Average]: 02s/02s/02s
#
# .-Input file : yambo.in
# | optics                       # [R OPT] Optics
# | bse                          # [R BSE] Bethe Salpeter Equation.
# | bsk                          # [R BSK] Bethe Salpeter Equation kernel
# | bss                          # [R BSS] Bethe Salpeter Equation solver
# | em1s                         # [R Xs] Static Inverse Dielectric Matrix
# | NonPDirs= "XYZ"              # [X/BSS] Non periodic chartesian directions (X,Y,Z,XY...)
# | Chimod= "Hartree"            # [X] IP/Hartree/ALDA/LRC/BSfxc
# | BSEmod= "resonant"           # [BSE] resonant/retarded/coupling
# | BSKmod= "SEX"                # [BSE] IP/Hartree/HF/ALDA/SEX/BSfxc
# | BSSmod= "d"                  # [BSS] (h)aydock/(d)iagonalization/(i)nversion/(t)ddft`
# | BSENGexx= 1535         mHa   # [BSK] Exchange components
# | BSENGBlk=  595         mHa   # [BSK] Screened interaction block size
# | #WehCpl                      # [BSK] eh interaction included also in coupling
# | KfnQPdb= "E < 04_QP/ndb.QP uki" # [EXTQP BSK BSS] Database
# | % BEnRange
# |   5.00000 | 15.00000 | eV    # [BSS] Energy range
# | %
# | % BDmRange
# |   0.10000 |  0.10000 | eV    # [BSS] Damping range
# | %
# | BEnSteps=  500               # [BSS] Energy steps
# | % BLongDir
# | 0.5774E-5 |0.5774E-5 |0.5774E-5 |        # [BSS] [cc] Electric Field
# | %
# | % BSEBands
# |   14 |  34 |                 # [BSK] Bands range
# | %
# | % BndsRnXs
# |    1 |  50 |                 # [Xs] Polarization function bands
# | %
# | NGsBlkXs= 1535         mHa   # [Xs] Response block size
# | % DmRngeXs
# | 0.1000E-2 |0.1000E-2 | eV    # [Xs] Damping range
# | %
# | % LongDrXs
# | 0.1000E-4 | 0.000    | 0.000    |        # [Xs] [cc] Electric Field
# | %
