#                                                           
#  /$$     /$$ /$$$$$$  /$$      /$$ /$$$$$$$   /$$$$$$     
# |  $$   /$$//$$__  $$| $$$    /$$$| $$__  $$ /$$__  $$    
#  \  $$ /$$/| $$  \ $$| $$$$  /$$$$| $$  \ $$| $$  \ $$    
#   \  $$$$/ | $$$$$$$$| $$ $$/$$ $$| $$$$$$$ | $$  | $$    
#    \  $$/  | $$__  $$| $$  $$$| $$| $$__  $$| $$  | $$    
#     | $$   | $$  | $$| $$\  $ | $$| $$  \ $$| $$  | $$    
#     | $$   | $$  | $$| $$ \/  | $$| $$$$$$$/|  $$$$$$/    
#     |__/   |__/  |__/|__/     |__/|_______/  \______/     
#                                                           
#       Version 4.1.1 Revision 13960 Hash bb9ad93           
#                       MPI Build                           
#               http://www.yambo-code.org                   
#
# Absorption @ Q(1) [q->0 direction] :0.5774E-5 0.5774E-5 0.5774E-5
#
#
# - Energies      are GoWo Plasmon Pole appox.
# - Wavefunctions are Teter 93(XC)
#
# - The Green`s function is Retarded -
# - Using the Length Gauge -
# - [r,Vnl] *is* included -
#
#   BSK|Identifier              :7718
#      |Dimension               :110
#      |Bands                   :14 - 34
#      |Exchange           [res]: yes
#      |Correlation        [res]: yes
#      |Kernel`s coupling       : yes
#      |Exchange           [cpl]: yes
#      |Correlation        [cpl]: no
#      |W interaction is bare   : no
#      |ALDA kernel in R-space  : no
#      |RL vectors    [exchange]:367
#      |RL vectors [correlation]:87
#      |E/h energy range    [ev]:-1.000000 - -1.000000
#      |Coupling range     [o/o]: 100.0000 -  100.0000
#    W |Interaction is diagonal : no
#      |Matrix size             :367
#      |Bands                   :1 - 50
#      |e/h energy range    [ev]:-1.000000 - -1.000000
#      |Poles              [o/o]: 100.0000
#      |RL vectors in the sum   :17279
#      |[r,Vnl] included        : yes
#      |Field direction         :0.1000E-4  0.000000  0.000000
#      |Coulomb Cutoff          :none
#      |xc-Kernel               :none
#   RIM|RL components      [col]:0
#      |Random points      [col]:0
#
#  E/ev[1]    EPS-Im[2]  EPS-Re[3]  EPSo-Im[4] EPSo-Re[5]
  5.000     0.2032E-1   1.292     0.2860E-2   1.207   
  5.020     0.1992E-1   1.293     0.2890E-2   1.208   
  5.040     0.1950E-1   1.296     0.2921E-2   1.208   
  5.060     0.1914E-1   1.298     0.2952E-2   1.209   
  5.080     0.1887E-1   1.301     0.2983E-2   1.210   
  5.100     0.1870E-1   1.303     0.3015E-2   1.210   
  5.120     0.1863E-1   1.307     0.3047E-2   1.211   
  5.140     0.1870E-1   1.310     0.3080E-2   1.211   
  5.160     0.1889E-1   1.313     0.3113E-2   1.212   
  5.180     0.1922E-1   1.317     0.3147E-2   1.213   
  5.200     0.1968E-1   1.320     0.3181E-2   1.213   
  5.220     0.2027E-1   1.324     0.3215E-2   1.214   
  5.240     0.2098E-1   1.328     0.3251E-2   1.215   
  5.261     0.2184E-1   1.332     0.3286E-2   1.215   
  5.281     0.2286E-1   1.336     0.3322E-2   1.216   
  5.301     0.2406E-1   1.340     0.3359E-2   1.217   
  5.321     0.2549E-1   1.345     0.3396E-2   1.217   
  5.341     0.2721E-1   1.349     0.3434E-2   1.218   
  5.361     0.2926E-1   1.354     0.3473E-2   1.219   
  5.381     0.3173E-1   1.358     0.3512E-2   1.219   
  5.401     0.3467E-1   1.362     0.3552E-2   1.220   
  5.421     0.3805E-1   1.366     0.3592E-2   1.221   
  5.441     0.4168E-1   1.370     0.3633E-2   1.221   
  5.461     0.4508E-1   1.372     0.3675E-2   1.222   
  5.481     0.4759E-1   1.373     0.3717E-2   1.223   
  5.501     0.4871E-1   1.374     0.3760E-2   1.224   
  5.521     0.4859E-1   1.377     0.3803E-2   1.224   
  5.541     0.4788E-1   1.380     0.3848E-2   1.225   
  5.561     0.4728E-1   1.384     0.3893E-2   1.226   
  5.581     0.4720E-1   1.390     0.3939E-2   1.227   
  5.601     0.4779E-1   1.396     0.3986E-2   1.228   
  5.621     0.4897E-1   1.402     0.4033E-2   1.228   
  5.641     0.5049E-1   1.408     0.4081E-2   1.229   
  5.661     0.5199E-1   1.414     0.4130E-2   1.230   
  5.681     0.5318E-1   1.421     0.4180E-2   1.231   
  5.701     0.5407E-1   1.427     0.4231E-2   1.232   
  5.721     0.5489E-1   1.435     0.4283E-2   1.232   
  5.741     0.5596E-1   1.444     0.4335E-2   1.233   
  5.762     0.5747E-1   1.453     0.4389E-2   1.234   
  5.782     0.5953E-1   1.463     0.4443E-2   1.235   
  5.802     0.6216E-1   1.474     0.4498E-2   1.236   
  5.822     0.6541E-1   1.485     0.4555E-2   1.237   
  5.842     0.6930E-1   1.498     0.4612E-2   1.238   
  5.862     0.7389E-1   1.510     0.4671E-2   1.239   
  5.882     0.7927E-1   1.524     0.4730E-2   1.240   
  5.902     0.8556E-1   1.539     0.4791E-2   1.241   
  5.922     0.9292E-1   1.554     0.4853E-2   1.242   
  5.942     0.1016      1.571     0.4916E-2   1.243   
  5.962     0.1117      1.588     0.4980E-2   1.244   
  5.982     0.1238      1.606     0.5046E-2   1.245   
  6.002     0.1379      1.625     0.5112E-2   1.246   
  6.022     0.1544      1.645     0.5180E-2   1.247   
  6.042     0.1733      1.664     0.5250E-2   1.248   
  6.062     0.1944      1.683     0.5320E-2   1.249   
  6.082     0.2175      1.702     0.5393E-2   1.250   
  6.102     0.2424      1.722     0.5466E-2   1.251   
  6.122     0.2693      1.742     0.5541E-2   1.252   
  6.142     0.2985      1.764     0.5618E-2   1.253   
  6.162     0.3318      1.789     0.5696E-2   1.254   
  6.182     0.3723      1.818     0.5776E-2   1.255   
  6.202     0.4236      1.849     0.5857E-2   1.257   
  6.222     0.4892      1.878     0.5941E-2   1.258   
  6.242     0.5713      1.901     0.6025E-2   1.259   
  6.263     0.6703      1.911     0.6112E-2   1.260   
  6.283     0.7833      1.899     0.6201E-2   1.261   
  6.303     0.9031      1.859     0.6292E-2   1.263   
    6.3226     1.0204     1.7891     0.0064     1.2639
    6.3427     1.1273     1.6892     0.0065     1.2651
    6.3627     1.2155     1.5593     0.0066     1.2664
    6.3828     1.2720     1.4022     0.0067     1.2678
    6.4028     1.2830     1.2311     0.0068     1.2691
    6.4228     1.2460     1.0675     0.0069     1.2705
    6.4429     1.1712     0.9293     0.0070     1.2719
    6.4629     1.0746     0.8243     0.0071     1.2733
    6.4830     0.9699     0.7512     0.0072     1.2747
    6.5030     0.8649     0.7054     0.0073     1.2762
    6.5230     0.7645     0.6836     0.0074     1.2776
    6.5431     0.6737     0.6826     0.0076     1.2791
    6.5631     0.5972     0.6970     0.0077     1.2806
    6.5832     0.5362     0.7199     0.0078     1.2822
    6.6032     0.4889     0.7459     0.0079     1.2838
    6.6232     0.4525     0.7724     0.0081     1.2854
    6.6433     0.4255     0.7986     0.0082     1.2870
    6.6633     0.4075     0.8229     0.0083     1.2886
    6.6834     0.3975     0.8430     0.0085     1.2903
    6.7034     0.3935     0.8565     0.0086     1.2920
    6.7234     0.3922     0.8621     0.0088     1.2937
    6.7435     0.3895     0.8596     0.0089     1.2955
    6.7635     0.3814     0.8510     0.0091     1.2973
    6.7836     0.3651     0.8413     0.0092     1.2991
    6.8036     0.3424     0.8361     0.0094     1.3010
    6.8236     0.3180     0.8379     0.0096     1.3029
    6.8437     0.2964     0.8454     0.0098     1.3048
    6.8637     0.2795     0.8549     0.0099     1.3068
   6.88377    0.26600    0.86334    0.01012    1.30879
   6.90381    0.25333    0.86972    0.01031    1.31083
   6.92385    0.23919    0.87535    0.01051    1.31290
   6.94389    0.22333    0.88278    0.01071    1.31502
   6.96393    0.20753    0.89363    0.01092    1.31718
   6.98397    0.19399    0.90783    0.01113    1.31937
   7.00401    0.18419    0.92410    0.01135    1.32162
   7.02405    0.17872    0.94077    0.01158    1.32390
   7.04409    0.17743    0.95621    0.01182    1.32623
   7.06413    0.17952    0.96897    0.01206    1.32861
   7.08417    0.18368    0.97803    0.01231    1.33104
   7.10421    0.18824    0.98297    0.01257    1.33352
   7.12425    0.19138    0.98409    0.01283    1.33605
   7.14429    0.19151    0.98266    0.01311    1.33864
   7.16433    0.18798    0.98073    0.01340    1.34128
   7.18437    0.18160    0.98032    0.01369    1.34397
   7.20441    0.17411    0.98209    0.01400    1.34673
   7.22445    0.16667    0.98534    0.01431    1.34955
   7.24449    0.15909    0.98927    0.01464    1.35243
   7.26453    0.15070    0.99416    0.01498    1.35538
   7.28457    0.14162    1.00105    0.01533    1.35839
   7.30461    0.13296    1.01057    0.01569    1.36148
   7.32465    0.12597    1.02243    0.01607    1.36464
   7.34469    0.12140    1.03576    0.01646    1.36787
   7.36473    0.11945    1.04958    0.01687    1.37118
   7.38477    0.11994    1.06305    0.01729    1.37458
   7.40481    0.12230    1.07547    0.01773    1.37806
   7.42485    0.12567    1.08656    0.01819    1.38163
   7.44489    0.12911    1.09673    0.01866    1.38529
   7.46493    0.13223    1.10707    0.01916    1.38904
   7.48497    0.13566    1.11875    0.01968    1.39290
   7.50501    0.14073    1.13222    0.02022    1.39685
   7.52505    0.14885    1.14717    0.02078    1.40092
   7.54509    0.16119    1.16270    0.02137    1.40510
   7.56513    0.17876    1.17754    0.02198    1.40939
   7.58517    0.20237    1.18992    0.02263    1.41381
   7.60521    0.23248    1.19720    0.02331    1.41836
   7.62525    0.26843    1.19569    0.02402    1.42304
   7.64529    0.30714    1.18111    0.02477    1.42786
   7.66533    0.34201    1.15065    0.02555    1.43283
   7.68537    0.36436    1.10621    0.02638    1.43795
   7.70541    0.36777    1.05552    0.02727    1.44323
   7.72545    0.35192    1.00870    0.02820    1.44868
   7.74549    0.32214    0.97354    0.02920    1.45430
   7.76553    0.28618    0.95306    0.03026    1.46009
   7.78557    0.25081    0.94583    0.03140    1.46607
   7.80561    0.21995    0.94816    0.03263    1.47222
   7.82565    0.19492    0.95632    0.03393    1.47853
   7.84569    0.17553    0.96740    0.03530    1.48500
   7.86573    0.16077    0.97949    0.03670    1.49164
   7.88577    0.14948    0.99171    0.03810    1.49846
   7.90581    0.14087    1.00392    0.03948    1.50554
   7.92585    0.13481    1.01606    0.04086    1.51294
   7.94589    0.13144    1.02767    0.04228    1.52071
   7.96593    0.13062    1.03776    0.04379    1.52886
   7.98597    0.13144    1.04523    0.04543    1.53739
   8.00601    0.13214    1.04956    0.04720    1.54632
   8.02605    0.13070    1.05161    0.04913    1.55565
   8.04609    0.12616    1.05353    0.05122    1.56538
   8.06613    0.11933    1.05743    0.05349    1.57555
   8.08617    0.11193    1.06410    0.05594    1.58618
   8.10621    0.10531    1.07318    0.05859    1.59730
   8.12625    0.10008    1.08398    0.06145    1.60894
   8.14629    0.09642    1.09598    0.06455    1.62114
   8.16633    0.09439    1.10888    0.06790    1.63395
   8.18637    0.09411    1.12245    0.07153    1.64740
   8.20641    0.09568    1.13652    0.07548    1.66156
   8.22645    0.09927    1.15090    0.07978    1.67648
   8.24649    0.10513    1.16540    0.08447    1.69222
   8.26653    0.11359    1.17973    0.08960    1.70886
   8.28657    0.12511    1.19341    0.09523    1.72646
  8.306614   0.140196   1.205617   0.101412   1.745130
  8.326653   0.159236   1.214961   0.108231   1.764951
  8.346693   0.182066   1.219302   0.115776   1.786036
  8.366734   0.207108   1.215886   0.124153   1.808510
  8.386773   0.230408   1.202524   0.133486   1.832509
  8.406814   0.246034   1.179998   0.143929   1.858190
  8.426853   0.249212   1.153635   0.155660   1.885726
  8.446894   0.240069   1.130949   0.168902   1.915317
  8.466934   0.223338   1.116932   0.183922   1.947186
  8.486974   0.204477   1.112251   0.201049   1.981584
  8.507013   0.186978   1.115147   0.220692   2.018795
  8.527054   0.172469   1.123589   0.243362   2.059138
  8.547094   0.161686   1.135911   0.269700   2.102958
  8.567134   0.154917   1.150702   0.300523   2.150639
  8.587174   0.152079   1.166788   0.336881   2.202579
  8.607215   0.152838   1.183349   0.380126   2.259170
  8.627254   0.156868   1.199986   0.432023   2.320745
  8.647294   0.164170   1.216557   0.494889   2.387492
  8.667335   0.175178   1.232774   0.571771   2.459280
  8.687375   0.190536   1.247853   0.666649   2.535328
  8.707415   0.210779   1.260359   0.784632   2.613656
  8.727454   0.235934   1.268081   0.932012   2.690150
  8.747495   0.264749   1.268085   1.115782   2.757097
  8.767535   0.293671   1.257665   1.341893   2.801329
  8.787575   0.316867   1.236579   1.611307   2.803046
  8.807615   0.328772   1.208946   1.913818   2.738004
  8.827656   0.327777   1.181932   2.223442   2.586156
  8.847696   0.317189   1.161698   2.502800   2.344025
  8.867736   0.302624   1.150536   2.717664   2.030100
  8.887775   0.288797   1.147152   2.851748   1.676743
  8.907816   0.278101   1.148605   2.910238   1.311774
  8.927856   0.270703   1.151951   2.903581   0.944445
  8.947896   0.265152   1.155324   2.827338   0.576948
  8.967936   0.259435   1.158676   2.668622   0.227156
   8.98798    0.25253    1.16366    2.42893   -0.07127
  9.008016   0.245388   1.172104   2.132891  -0.287605
  9.028055   0.240156   1.184347   1.819198  -0.410210
  9.048096   0.238399   1.199085   1.523699  -0.450008
  9.068136   0.240253   1.214624   1.267208  -0.430651
  9.088176   0.244874   1.230104   1.055239  -0.375974
  9.108216   0.251645   1.245763   0.884288  -0.303705
  9.128257   0.260920   1.262024   0.747589  -0.224986
  9.148297   0.273478   1.278507   0.638214  -0.146118
   9.16834    0.28949    1.29424    0.55022   -0.07034
  9.188     0.3084      1.309     0.4789     0.8686E-3
   9.20842    0.32975    1.32205    0.42054    0.06702
  9.228457   0.354069   1.335070   0.372450   0.128112
  9.248497   0.382958   1.347834   0.332508   0.184408
  9.268537   0.418594   1.358961   0.299131   0.236273
  9.288577   0.462582   1.365237   0.271114   0.284107
  9.308618   0.514885   1.361985   0.247552   0.328289
  9.328657   0.572801   1.343640   0.227763   0.369157
  9.348697   0.629574   1.305428   0.211244   0.406988
  9.368737   0.674700   1.247038   0.197625   0.441966
  9.388778   0.698158   1.175454   0.186620   0.474144
  9.408818   0.696129   1.102935   0.177934   0.503415
  9.428858   0.672812   1.040847   0.171110   0.529524
  9.448898   0.636615   0.994975   0.165352   0.552234
  9.468938   0.595240   0.965989   0.159509   0.571697
  9.488977   0.554053   0.952557   0.152507   0.588821
  9.509018   0.517405   0.953121   0.144021   0.605021
  9.529058   0.489766   0.965180   0.134618   0.621450
  9.549098   0.474930   0.984260   0.125198   0.638541
  9.569138   0.474654   1.004310   0.116460   0.656164
  9.589178   0.488071   1.018762   0.108749   0.673976
  9.609219   0.511526   1.021462   0.102135   0.691658
   9.62926    0.53829    1.00772    0.09655    0.70899
   9.64930    0.55842    0.97650    0.09189    0.72587
   9.66934    0.56140    0.93385    0.08803    0.74225
   9.68938    0.54290    0.89279    0.08490    0.75813
   9.70942    0.50899    0.86576    0.08244    0.77352
   9.72946    0.47122    0.85705    0.08061    0.78844
   9.74950    0.43897    0.86337    0.07939    0.80290
   9.76954    0.41677    0.87875    0.07875    0.81687
   9.78958    0.40577    0.89775    0.07862    0.83034
   9.80962    0.40557    0.91575    0.07890    0.84334
   9.82966    0.41438    0.92854    0.07948    0.85600
   9.84970    0.42862    0.93279    0.08035    0.86854
   9.86974    0.44320    0.92743    0.08170    0.88121
   9.88978    0.45335    0.91467    0.08384    0.89411
   9.90982    0.45715    0.89904    0.08715    0.90720
   9.92986    0.45635    0.88422    0.09201    0.92033
   9.94990    0.45390    0.87069    0.09883    0.93319
  9.969940   0.450885   0.856656   0.108056   0.945270
  9.989980   0.446148   0.840853   0.120080   0.955736
  10.01002    0.43801    0.82361    0.13505    0.96325
  10.03006    0.42539    0.80629    0.15236    0.96601
  10.05010    0.40814    0.79059    0.17012    0.96222
  10.07014    0.38677    0.77789    0.18495    0.95131
  10.09018    0.36185    0.76936    0.19331    0.93511
  10.11022    0.33440    0.76646    0.19341    0.91749
  10.13026    0.30652    0.77019    0.18617    0.90242
  10.15030    0.28051    0.78008    0.17440    0.89230
  10.17034    0.25770    0.79490    0.16116    0.88732
  10.19038    0.23868    0.81359    0.14845    0.88617
  10.21042    0.22394    0.83538    0.13676    0.88721
  10.23046    0.21398    0.85944    0.12552    0.88958
  10.25050    0.20920    0.88481    0.11423    0.89347
  10.27054    0.20979    0.91047    0.10318    0.89935
  10.29058    0.21580    0.93534    0.09307    0.90724
  10.31062    0.22709    0.95823    0.08442    0.91665
  10.33066    0.24313    0.97784    0.07739    0.92697
  10.35070    0.26280    0.99309    0.07188    0.93774
  10.37074    0.28465    1.00358    0.06766    0.94868
  10.39078    0.30767    1.00964    0.06454    0.95962
  10.41082    0.33152    1.01143    0.06234    0.97051
  10.43086    0.35580    1.00852    0.06094    0.98133
  10.45090    0.37951    1.00036    0.06026    0.99212
  10.47094    0.40109    0.98669    0.06025    1.00291
  10.49098    0.41818    0.96806    0.06090    1.01374
  10.51102    0.42856    0.94724    0.06226    1.02466
  10.53106    0.43285    0.92861    0.06438    1.03571
  10.55110    0.43508    0.91468    0.06738    1.04692
  10.57114    0.43980    0.90415    0.07142    1.05828
  10.59118    0.44930    0.89300    0.07674    1.06974
  10.61122    0.46300    0.87647    0.08363    1.08117
  10.63126    0.47721    0.85031    0.09244    1.09226
  10.65130    0.48503    0.81289    0.10355    1.10245
  10.67134    0.47861    0.76808    0.11714    1.11081
  10.69138    0.45423    0.72526    0.13294    1.11606
  10.71142    0.41583    0.69405    0.14982    1.11687
  10.73146    0.37198    0.67842    0.16572    1.11259
  10.75150    0.32995    0.67631    0.17836    1.10382
  10.77154    0.29303    0.68354    0.18600    1.09217
  10.79158    0.26175    0.69687    0.18754    1.07986
  10.81162    0.23595    0.71444    0.18288    1.06988
  10.83166    0.21561    0.73500    0.17383    1.06519
  10.85170    0.20072    0.75734    0.16366    1.06709
  10.87174    0.19102    0.78028    0.15536    1.07486
  10.89178    0.18606    0.80282    0.15072    1.08685
  10.91182    0.18514    0.82415    0.15055    1.10138
  10.93186    0.18736    0.84373    0.15517    1.11707
  10.95190    0.19170    0.86151    0.16474    1.13266
  10.97194    0.19731    0.87808    0.17927    1.14685
  10.99198    0.20408    0.89453    0.19841    1.15818
  11.01202    0.21291    0.91174    0.22119    1.16539
  11.03206    0.22528    0.92970    0.24637    1.16796
  11.05210    0.24253    0.94747    0.27345    1.16603
  11.07214    0.26563    0.96354    0.30304    1.15879
  11.09218    0.29511    0.97579    0.33499    1.14319
  11.11222    0.33071    0.98141    0.36554    1.11529
  11.13226    0.37049    0.97732    0.38685    1.07450
  11.15230    0.41081    0.96159    0.39134    1.02715
  11.17235    0.44751    0.93419    0.37816    0.98402
  11.19238    0.47681    0.89649    0.35413    0.95298
  11.21243    0.49521    0.85125    0.32829    0.93492
  11.23247    0.50069    0.80309    0.30673    0.92541
  11.25251    0.49401    0.75662    0.29080    0.91832
  11.27254    0.47704    0.71486    0.27761    0.90905
  11.29259    0.45173    0.68050    0.26217    0.89695
  11.31262    0.42173    0.65599    0.24123    0.88550
  11.33266    0.39202    0.64100    0.21565    0.87919
  11.35271    0.36568    0.63209    0.18902    0.87997
  11.37275    0.34232    0.62579    0.16457    0.88695
  11.39279    0.31998    0.62119    0.14387    0.89808
  11.41283    0.29819    0.61940    0.12715    0.91150
  11.43287    0.27839    0.62082    0.11403    0.92593
  11.45291    0.26198    0.62389    0.10392    0.94061
  11.47295    0.24842    0.62624    0.09629    0.95513
  11.49299    0.23536    0.62691    0.09071    0.96931
  11.51303    0.22082    0.62733    0.08690    0.98306
  11.53307    0.20499    0.62981    0.08468    0.99632
  11.55311    0.18979    0.63533    0.08394    1.00897
  11.57315    0.17695    0.64311    0.08457    1.02082
  11.59319    0.16721    0.65161    0.08635    1.03160
  11.61323    0.16027    0.65919    0.08885    1.04112
  11.63327    0.15487    0.66461    0.09150    1.04946
  11.65331    0.14905    0.66768    0.09390    1.05712
  11.67335    0.14118    0.66980    0.09620    1.06472
  11.69339    0.13121    0.67312    0.09900    1.07250
  11.71343    0.12058    0.67900    0.10291    1.08008
  11.73347    0.11096    0.68740    0.10812    1.08656
  11.75351    0.10341    0.69752    0.11400    1.09094
  11.77355    0.09834    0.70836    0.11911    1.09274
  11.79359    0.09578    0.71902    0.12172    1.09277
  11.81363    0.09552    0.72867    0.12110    1.09300
  11.83367    0.09707    0.73646    0.11805    1.09539
  11.85371    0.09940    0.74167    0.11430    1.10080
  11.87375    0.10096    0.74424    0.11148    1.10894
  11.89379    0.10025    0.74524    0.11063    1.11889
  11.91383    0.09689    0.74665    0.11215    1.12948
  11.93387    0.09190    0.75007    0.11586    1.13957
  11.95391    0.08683    0.75596    0.12100    1.14822
  11.97395    0.08287    0.76392    0.12623    1.15511
  11.99399    0.08062    0.77330    0.13020    1.16104
  12.01403    0.08037    0.78353    0.13255    1.16772
  12.03407    0.08224    0.79422    0.13433    1.17658
  12.05411    0.08644    0.80505    0.13720    1.18793
  12.07415    0.09327    0.81569    0.14255    1.20109
  12.09419    0.10320    0.82565    0.15111    1.21484
  12.11423    0.11675    0.83407    0.16298    1.22789
  12.13427    0.13441    0.83952    0.17765    1.23899
  12.15431    0.15610    0.83975    0.19405    1.24730
  12.17435    0.18033    0.83180    0.21067    1.25262
  12.19439    0.20316    0.81310    0.22595    1.25587
  12.21443    0.21830    0.78392    0.23932    1.25923
  12.23447    0.22018    0.74944    0.25228    1.26495
  12.25451    0.20822    0.71768    0.26788    1.27359
  12.27455    0.18701    0.69443    0.28901    1.28345
  12.29459    0.16237    0.68089    0.31720    1.29147
  12.31463    0.13828    0.67546    0.35266    1.29409
  12.33467    0.11677    0.67587    0.39435    1.28718
  12.35471    0.09855    0.68005    0.43893    1.26593
  12.37475    0.08363    0.68637    0.47889    1.22656
  12.39479    0.07160    0.69371    0.50294    1.17090
  12.41483    0.06195    0.70136    0.50204    1.10976
  12.43487    0.05418    0.70893    0.47713    1.05842
  12.45491    0.04787    0.71621    0.43887    1.02686
  12.47495    0.04272    0.72312    0.39953    1.01564
  12.49499    0.03845    0.72962    0.36710    1.01969
  12.51503    0.03488    0.73572    0.34496    1.03287
  12.53507    0.03187    0.74143    0.33380    1.05000
  12.55511    0.02930    0.74680    0.33308    1.06682
  12.57515    0.02710    0.75184    0.34120    1.07943
  12.59519    0.02519    0.75658    0.35498    1.08469
  12.61523    0.02352    0.76106    0.36990    1.08153
  12.63527    0.02205    0.76529    0.38210    1.07179
  12.65531    0.02074    0.76930    0.39053    1.05852
  12.67535    0.01958    0.77311    0.39636    1.04288
  12.69539    0.01855    0.77673    0.39965    1.02333
  12.71543    0.01761    0.78018    0.39687    0.99869
  12.73547    0.01676    0.78348    0.38308    0.97221
  12.75551    0.01599    0.78663    0.35718    0.95122
  12.77555    0.01529    0.78966    0.32390    0.94184
  12.79559    0.01465    0.79256    0.29010    0.94529
  12.81563    0.01405    0.79535    0.26069    0.95899
  12.83567    0.01351    0.79804    0.23780    0.97944
  12.85571    0.01300    0.80063    0.22172    1.00377
  12.88     0.1253E-1  0.8031     0.2120      1.030   
  12.90     0.1210E-1  0.8055     0.2081      1.057   
  12.92     0.1169E-1  0.8079     0.2094      1.084   
  12.94     0.1131E-1  0.8101     0.2155      1.110   
  12.96     0.1095E-1  0.8123     0.2258      1.135   
  12.98     0.1061E-1  0.8145     0.2399      1.159   
  13.00     0.1030E-1  0.8165     0.2578      1.181   
  13.02     0.1000E-1  0.8185     0.2801      1.202   
  13.04     0.9718E-2  0.8205     0.3076      1.222   
  13.06     0.9451E-2  0.8224     0.3419      1.239   
  13.08     0.9198E-2  0.8242     0.3843      1.251   
  13.10     0.8958E-2  0.8260     0.4346      1.252   
  13.12     0.8730E-2  0.8278     0.4894      1.237   
  13.14     0.8513E-2  0.8295     0.5408      1.203   
  13.16     0.8305E-2  0.8311     0.5790      1.151   
  13.18     0.8108E-2  0.8328     0.5965      1.090   
  13.20     0.7919E-2  0.8344     0.5924      1.029   
  13.22     0.7738E-2  0.8359     0.5698     0.9768   
  13.24     0.7565E-2  0.8374     0.5336     0.9386   
  13.26     0.7399E-2  0.8389     0.4905     0.9181   
  13.28     0.7240E-2  0.8404     0.4481     0.9155   
  13.30     0.7087E-2  0.8418     0.4128     0.9279   
  13.32     0.6940E-2  0.8432     0.3884     0.9507   
  13.34     0.6798E-2  0.8446     0.3768     0.9793   
  13.36     0.6662E-2  0.8459     0.3785      1.009   
  13.38     0.6531E-2  0.8472     0.3938      1.037   
  13.40     0.6405E-2  0.8485     0.4218      1.056   
  13.42     0.6283E-2  0.8498     0.4600      1.063   
  13.44     0.6165E-2  0.8510     0.5018      1.050   
  13.46     0.6051E-2  0.8522     0.5359      1.017   
  13.48     0.5941E-2  0.8534     0.5506     0.9697   
  13.50     0.5834E-2  0.8546     0.5423     0.9240   
  13.52     0.5731E-2  0.8558     0.5185     0.8914   
  13.54     0.5632E-2  0.8569     0.4912     0.8744   
  13.56     0.5535E-2  0.8580     0.4682     0.8676   
  13.58     0.5441E-2  0.8591     0.4505     0.8637   
  13.60     0.5350E-2  0.8602     0.4339     0.8590   
  13.62     0.5262E-2  0.8612     0.4139     0.8552   
  13.64     0.5176E-2  0.8623     0.3898     0.8570   
  13.66     0.5093E-2  0.8633     0.3654     0.8679   
  13.68     0.5012E-2  0.8643     0.3453     0.8876   
  13.70     0.4933E-2  0.8653     0.3329     0.9134   
  13.72     0.4857E-2  0.8663     0.3293     0.9419   
  13.74     0.4782E-2  0.8672     0.3343     0.9699   
  13.76     0.4710E-2  0.8682     0.3461     0.9950   
  13.78     0.4639E-2  0.8691     0.3623      1.016   
  13.80     0.4571E-2  0.8700     0.3808      1.035   
  13.82     0.4504E-2  0.8710     0.4016      1.053   
  13.84     0.4438E-2  0.8718     0.4271      1.072   
  13.86     0.4375E-2  0.8727     0.4611      1.091   
  13.88     0.4313E-2  0.8736     0.5063      1.105   
  13.90     0.4252E-2  0.8745     0.5617      1.107   
  13.92     0.4193E-2  0.8753     0.6223      1.092   
  13.94     0.4135E-2  0.8761     0.6802      1.059   
  13.96     0.4079E-2  0.8769     0.7290      1.010   
  13.98     0.4024E-2  0.8778     0.7638     0.9490   
  14.00     0.3970E-2  0.8786     0.7799     0.8812   
  14.02     0.3917E-2  0.8793     0.7759     0.8171   
  14.04     0.3866E-2  0.8801     0.7591     0.7666   
  14.06     0.3816E-2  0.8809     0.7424     0.7308   
  14.08     0.3766E-2  0.8816     0.7349     0.7006   
  14.10     0.3718E-2  0.8824     0.7347     0.6631   
  14.12     0.3671E-2  0.8831     0.7300     0.6115   
  14.14     0.3625E-2  0.8839     0.7072     0.5519   
  14.16     0.3580E-2  0.8846     0.6621     0.4995   
  14.18     0.3536E-2  0.8853     0.6039     0.4672   
  14.20     0.3493E-2  0.8860     0.5466     0.4572   
  14.22     0.3450E-2  0.8867     0.5006     0.4632   
  14.24     0.3409E-2  0.8874     0.4700     0.4758   
  14.26     0.3368E-2  0.8881     0.4541     0.4861   
  14.28     0.3328E-2  0.8887     0.4477     0.4864   
  14.30     0.3289E-2  0.8894     0.4419     0.4735   
  14.32     0.3251E-2  0.8900     0.4269     0.4505   
  14.34     0.3213E-2  0.8907     0.3980     0.4268   
  14.36     0.3176E-2  0.8913     0.3584     0.4114   
  14.38     0.3140E-2  0.8920     0.3156     0.4079   
  14.40     0.3105E-2  0.8926     0.2755     0.4144   
  14.42     0.3070E-2  0.8932     0.2409     0.4270   
  14.44     0.3035E-2  0.8938     0.2116     0.4428   
  14.46     0.3002E-2  0.8944     0.1869     0.4600   
  14.48     0.2969E-2  0.8950     0.1658     0.4781   
  14.50     0.2936E-2  0.8956     0.1481     0.4965   
  14.52     0.2905E-2  0.8962     0.1336     0.5149   
  14.54     0.2873E-2  0.8968     0.1219     0.5329   
  14.56     0.2843E-2  0.8973     0.1126     0.5500   
  14.58     0.2813E-2  0.8979     0.1054     0.5660   
  14.60     0.2783E-2  0.8985     0.9976E-1  0.5806   
  14.62     0.2754E-2  0.8990     0.9517E-1  0.5939   
  14.64     0.2725E-2  0.8996     0.9111E-1  0.6061   
  14.66     0.2697E-2  0.9001     0.8736E-1  0.6176   
  14.68     0.2669E-2  0.9006     0.8403E-1  0.6286   
  14.70     0.2642E-2  0.9012     0.8142E-1  0.6394   
  14.72     0.2615E-2  0.9017     0.7964E-1  0.6497   
  14.74     0.2589E-2  0.9022     0.7862E-1  0.6592   
  14.76     0.2563E-2  0.9027     0.7810E-1  0.6678   
  14.78     0.2537E-2  0.9032     0.7791E-1  0.6755   
  14.80     0.2512E-2  0.9038     0.7797E-1  0.6823   
  14.82     0.2488E-2  0.9043     0.7805E-1  0.6880   
  14.84     0.2463E-2  0.9048     0.7754E-1  0.6924   
  14.86     0.2439E-2  0.9052     0.7573E-1  0.6961   
  14.88     0.2416E-2  0.9057     0.7242E-1  0.7001   
  14.90     0.2393E-2  0.9062     0.6818E-1  0.7052   
  14.92     0.2370E-2  0.9067     0.6385E-1  0.7117   
  14.94     0.2347E-2  0.9072     0.6004E-1  0.7193   
  14.96     0.2325E-2  0.9076     0.5700E-1  0.7276   
  14.98     0.2303E-2  0.9081     0.5479E-1  0.7363   
  15.00     0.2282E-2  0.9085     0.5335E-1  0.7452   
# 
# 12/12/2016 at 18:17 YAMBO @ NewLaptop [start]
# 12/12/2016 at 18:17                   [end]
#  
# Timing   [Min/Max/Average]: 01s/01s/01s
#
# .-Input file : INPUTS/06_BSE_cpl_Exx_only
# | optics                       # [R OPT] Optics
# | bse                          # [R BSE] Bethe Salpeter Equation.
# | bsk                          # [R BSK] Bethe Salpeter Equation kernel
# | bss                          # [R BSS] Bethe Salpeter Equation solver
# | em1s                         # [R Xs] Static Inverse Dielectric Matrix
# | NonPDirs= "XYZ"              # [X/BSS] Non periodic chartesian directions (X,Y,Z,XY...)
# | Chimod= "Hartree"            # [X] IP/Hartree/ALDA/LRC/BSfxc
# | BSEmod= "coupling"           # [BSE] resonant/retarded/coupling
# | BSKmod= "SEX"                # [BSE] IP/Hartree/HF/ALDA/SEX/BSfxc
# | BSSmod= "d"                  # [BSS] (h)aydock/(d)iagonalization/(i)nversion/(t)ddft`
# | BSENGexx= 1535         mHa   # [BSK] Exchange components
# | BSENGBlk=  595         mHa   # [BSK] Screened interaction block size
# | #WehCpl                      # [BSK] eh interaction included also in coupling
# | KfnQPdb= "E < 04_QP/ndb.QP uki" # [EXTQP BSK BSS] Database
# | % BEnRange
# |   5.00000 | 15.00000 | eV    # [BSS] Energy range
# | %
# | % BDmRange
# |   0.10000 |  0.10000 | eV    # [BSS] Damping range
# | %
# | BEnSteps=  500               # [BSS] Energy steps
# | % BLongDir
# | 0.5774E-5 |0.5774E-5 |0.5774E-5 |        # [BSS] [cc] Electric Field
# | %
# | % BSEBands
# |   14 |  34 |                 # [BSK] Bands range
# | %
# | % BndsRnXs
# |    1 |  50 |                 # [Xs] Polarization function bands
# | %
# | NGsBlkXs= 1535         mHa   # [Xs] Response block size
# | % DmRngeXs
# | 0.1000E-2 |0.1000E-2 | eV    # [Xs] Damping range
# | %
# | % LongDrXs
# | 0.1000E-4 | 0.000    | 0.000    |        # [Xs] [cc] Electric Field
# | %
