#                                                           
#  ____  ____     _       ____    ____  ______      ___     
# |_  _||_  _|   / \     |_   \  /   _||_   _ \   ."   `.   
#   \ \  / /    / _ \      |   \/   |    | |_) | /  .-.  \  
#    \ \/ /    / ___ \     | |\  /| |    |  __". | |   | |  
#    _|  |_  _/ /   \ \_  _| |_\/_| |_  _| |__) |\  `-"  /  
#   |______||____| |____||_____||_____||_______/  `.___."   
#                                                           
#                                                           
#                                                           
#        Version 4.3.0 Revision 15304 Hash a3f7415          
#                      MPI+SLK Build                        
#                http://www.yambo-code.org                  
#
# Absorption @ Q(1) [q->0 direction] : 1.000000  0.000000  0.000000
#
#
#
# - The Green`s function is Retarded -
# - Using the Velocity Gauge -
# - [r,Vnl] *is* included -
#
#
#    E/ev[1]      EPS-Im[2]    EPS-Re[3]
#
      0.5000      66.5058    -144.7735
      0.5140      61.4732    -137.1453
      0.5281      56.9313    -130.0237
      0.5421      52.8225    -123.3674
      0.5561      49.0969    -117.1388
      0.5701      45.7114    -111.3038
      0.5842      42.6285    -105.8313
      0.5982      39.8155    -100.6932
     0.61222     37.24379    -95.86357
     0.62625     34.88827    -91.31913
     0.64028     32.72693    -87.03848
     0.65431     30.74035    -83.00215
     0.66834     28.91138    -79.19233
     0.68236     27.22485    -75.59274
     0.69639     25.66728    -72.18849
     0.71042     24.22669    -68.96593
     0.72445     22.89239    -65.91255
     0.73848     21.65486    -63.01684
     0.75251     20.50556    -60.26825
     0.76653     19.43683    -57.65705
     0.78056     18.44181    -55.17428
     0.79459     17.51430    -52.81169
     0.80862     16.64875    -50.56165
     0.82265     15.84011    -48.41711
     0.83667     15.08382    -46.37156
     0.85070     14.37578    -44.41897
     0.86473     13.71223    -42.55373
     0.87876     13.08978    -40.77065
     0.89279     12.50533    -39.06492
     0.90681     11.95606    -37.43206
     0.92084     11.43941    -35.86789
     0.93487     10.95303    -34.36853
     0.94890     10.49476    -32.93036
     0.96293     10.06263    -31.54999
     0.97695      9.65484    -30.22429
     0.99098      9.26974    -28.95029
     1.00501      8.90579    -27.72523
     1.01904      8.56160    -26.54655
     1.03307      8.23587    -25.41181
     1.04709      7.92741    -24.31874
     1.06112      7.63513    -23.26522
     1.07515      7.35800    -22.24925
     1.08918      7.09508    -21.26894
     1.10321      6.84551    -20.32254
     1.11723      6.60847    -19.40836
     1.13126      6.38322    -18.52485
     1.14529      6.16907    -17.67052
     1.15932      5.96536    -16.84399
     1.17335      5.77150    -16.04392
     1.18737      5.58692    -15.26909
     1.20140      5.41112    -14.51831
     1.21543      5.24360    -13.79047
     1.22946      5.08390    -13.08452
     1.24349      4.93162    -12.39946
     1.25752      4.78635    -11.73434
     1.27154      4.64772    -11.08827
     1.28557      4.51539    -10.46039
    1.299599     4.389036    -9.849901
    1.313627     4.268357    -9.256026
    1.327655     4.153071    -8.678037
    1.341683     4.042909    -8.115237
    1.355711     3.937625    -7.566964
    1.369739     3.836985    -7.032585
    1.383768     3.740768    -6.511500
    1.397796     3.648770    -6.003133
    1.411824     3.560797    -5.506935
    1.425852     3.476667    -5.022382
    1.439880     3.396210    -4.548972
    1.453908     3.319265    -4.086225
    1.467936     3.245680    -3.633683
    1.481964     3.175315    -3.190904
    1.495992     3.108035    -2.757466
    1.510020     3.043715    -2.332964
    1.524048     2.982237    -1.917008
    1.538076     2.923489    -1.509225
    1.552104     2.867367    -1.109253
    1.566132     2.813773    -0.716748
    1.580160     2.762615    -0.331374
     1.59419      2.71381      0.04719
    1.608216     2.667263     0.419259
    1.622244     2.622912     0.785129
    1.636273     2.580682     1.145093
    1.650301     2.540504     1.499433
    1.664329     2.502317     1.848421
    1.678357     2.466062     2.192324
    1.692385     2.431686     2.531398
    1.706413     2.399138     2.865895
    1.720441     2.368372     3.196058
    1.734469     2.339345     3.522126
    1.748497     2.312017     3.844332
    1.762525     2.286352     4.162903
    1.776553     2.262319     4.478062
    1.790581     2.239888     4.790028
    1.804609     2.219033     5.099017
    1.818637     2.199731     5.405239
    1.832665     2.181963     5.708904
    1.846693     2.165712     6.010218
    1.860721     2.150967     6.309385
    1.874749     2.137715     6.606607
    1.888778     2.125952     6.902086
    1.902806     2.115673     7.196022
    1.916834     2.106880     7.488615
    1.930862     2.099574     7.780064
    1.944890     2.093765     8.070571
    1.958918     2.089462     8.360336
    1.972946     2.086682     8.649561
    1.986974     2.085442     8.938452
    2.001002     2.085766     9.227215
    2.015030     2.087683     9.516059
    2.029058     2.091226     9.805199
     2.04309      2.09643     10.09485
     2.05711      2.10334     10.38524
     2.07114      2.11202     10.67658
     2.08517      2.12250     10.96913
     2.09920      2.13486     11.26311
     2.11323      2.14917     11.55877
     2.12725      2.16551     11.85637
     2.14128      2.18396     12.15618
     2.15531      2.20464     12.45847
     2.16934      2.22764     12.76354
     2.18337      2.25309     13.07168
     2.19739      2.28113     13.38321
     2.21142      2.31191     13.69846
     2.22545      2.34560     14.01778
     2.23948      2.38240     14.34154
     2.25351      2.42251     14.67013
     2.26754      2.46617     15.00397
     2.28156      2.51365     15.34349
     2.29559      2.56525     15.68916
     2.30962      2.62130     16.04147
     2.32365      2.68217     16.40097
     2.33768      2.74829     16.76821
     2.35170      2.82015     17.14383
     2.36573      2.89828     17.52846
     2.37976      2.98332     17.92283
     2.39379      3.07595     18.32768
     2.40782      3.17700     18.74386
     2.42184      3.28738     19.17224
     2.43587      3.40818     19.61380
     2.44990      3.54061     20.06956
     2.46393      3.68612     20.54065
     2.47796      3.84636     21.02829
     2.49198      4.02330     21.53376
     2.50601      4.21922     22.05848
     2.52004      4.43682     22.60391
     2.53407      4.67931     23.17164
     2.54810      4.95048     23.76327
     2.56212      5.25490     24.38049
     2.57615      5.59802     25.02491
     2.59018      5.98645     25.69805
     2.60421      6.42815     26.40118
     2.61824      6.93283     27.13506
     2.63226      7.51226     27.89964
     2.64629      8.18084     28.69355
     2.66032      8.95603     29.51325
     2.67435      9.85900     30.35193
     2.68838     10.91508     31.19767
     2.70240     12.15403     32.03088
     2.71643     13.60951     32.82060
     2.73046     15.31711     33.51941
     2.74449     17.30952     34.05703
     2.75852     19.60663     34.33349
     2.77255     22.19806     34.21481
     2.78657     25.01651     33.53760
     2.80060     27.90547     32.13345
     2.81463     30.59707     29.88361
     2.82866     32.73034     26.80052
     2.84269     33.93835     23.09816
     2.85671     33.98831     19.18546
     2.87074     32.89214     15.54896
     2.88477     30.90078     12.58420
     2.89880     28.38703     10.48688
     2.91283     25.70757      9.25518
     2.92685     23.12196      8.76358
     2.94088     20.77931      8.84298
     2.95491     18.74232      9.33262
     2.96894     17.01957     10.10227
     2.98297     15.59138     11.05571
     2.99699     14.42666     12.12600
     3.01102     13.49225     13.26858
     3.02505     12.75757     14.45500
     3.03908     12.19644     15.66791
     3.05311     11.78763     16.89748
     3.06713     11.51472     18.13880
     3.08116     11.36566     19.39016
     3.09519     11.33245     20.65174
     3.10922     11.41080     21.92473
     3.12325     11.59987     23.21055
     3.13727     11.90217     24.51013
     3.15130     12.32349     25.82306
     3.16533     12.87283     27.14663
     3.17936     13.56211     28.47441
     3.19339     14.40549     29.79447
     3.20741     15.41776     31.08709
     3.22144     16.61102     32.32239
     3.23547     17.98893     33.45867
     3.24950     19.53775     34.44394
     3.26353     21.21575     35.22399
     3.27756     22.94614     35.76079
     3.29158     24.62419     36.05956
     3.30561     26.14777     36.19109
     3.31964     27.46486     36.28678
     3.33367     28.60882     36.49581
     3.34770     29.69207     36.92743
     3.36172     30.86293     37.61694
     3.37575     32.25907     38.53138
     3.38978     33.98532     39.59755
     3.40381     36.11725     40.72570
     3.41784     38.71346     41.81446
     3.43186     41.81758     42.74161
     3.44589     45.44319     43.35806
     3.45992     49.55318     43.50054
     3.47395     54.05454     43.02230
     3.48798     58.82348     41.81988
     3.50200     63.74739     39.82305
     3.51603     68.73520     36.93949
     3.53006     73.65322     33.00427
     3.54409     78.21074     27.81554
     3.55812     81.89637     21.28881
     3.57214     84.07071     13.65640
     3.58617     84.22492      5.55463
     3.60020     82.26011     -2.12379
     3.61423     78.57784     -8.55466
     3.62826     73.91323    -13.26561
     3.64228     69.05276    -16.21179
     3.65631     64.62233    -17.66843
     3.67034     61.01237    -18.06956
     3.68437     58.39588    -17.88626
     3.69840     56.77291    -17.56221
     3.71242     56.00434    -17.48097
     3.72645     55.83436    -17.93448
     3.74048     55.92459    -19.08130
     3.75451     55.92210    -20.91547
     3.76854     55.54792    -23.28651
     3.78257     54.64897    -25.97967
     3.79659     53.17182    -28.79839
     3.81062     51.09749    -31.57969
     3.82465     48.41949    -34.15117
     3.83868     45.18696    -36.30900
     3.85271     41.54838    -37.86377
     3.86673     37.73214    -38.71291
     3.88076     33.97640    -38.87125
     3.89479     30.46553    -38.44398
     3.90882     27.30667    -37.57544
     3.92285     24.53955    -36.40756
     3.93687     22.15903    -35.05893
     3.95090     20.13588    -33.62012
     3.96493     18.43089    -32.15710
     3.97896     17.00233    -30.71740
     3.99299     15.80865    -29.33554
     4.00701     14.80820    -28.03648
     4.02104     13.95803    -26.83613
     4.03507     13.21407    -25.73914
     4.04910     12.53505    -24.73618
     4.06313     11.88973    -23.80461
     4.07715     11.26316    -22.91542
     4.09118     10.65660    -22.04345
     4.10521     10.08033    -21.17454
     4.11924      9.54490    -20.30561
     4.13327      9.05587    -19.43982
     4.14729      8.61349    -18.58112
     4.16132      8.21539    -17.73120
     4.17535      7.85950    -16.88955
     4.18938      7.54527    -16.05499
     4.20341      7.27325    -15.22708
     4.21743      7.04417    -14.40636
     4.23146      6.85833    -13.59392
     4.24549      6.71568    -12.79087
     4.25952      6.61605    -11.99812
     4.27355      6.55955    -11.21640
     4.28758      6.54664    -10.44654
    4.301603     6.578136    -9.689637
    4.315631     6.655008    -8.947301
    4.329659     6.778040    -8.221524
    4.343687     6.947677    -7.514250
    4.357715     7.164423    -6.826694
    4.371743     7.430143    -6.159039
    4.385772     7.749860    -5.511524
    4.399800     8.132624    -4.887327
    4.413828     8.589971    -4.296202
    4.427856     9.131769    -3.756918
    4.441884     9.760507    -3.297036
     4.45591     10.46547     -2.94913
     4.46994     11.21895     -2.74286
     4.48397     11.97832     -2.69371
     4.49800     12.69736     -2.79395
     4.51202     13.34394     -3.01483
     4.52605     13.91124     -3.32409
     4.54008     14.40978     -3.70770
     4.55411     14.84291     -4.17680
     4.56814     15.18486     -4.75070
     4.58216     15.38061     -5.42597
     4.59619     15.37254     -6.15479
     4.61022     15.13722     -6.85226
     4.62425     14.70379     -7.43089
     4.63828     14.13949     -7.83566
     4.65230     13.51730     -8.05413
     4.66633     12.89233     -8.10155
     4.68036     12.29883     -7.99976
     4.69439     11.76063     -7.76620
     4.70842     11.30121     -7.41557
     4.72244     10.94601     -6.96634
     4.73647     10.71913     -6.44461
     4.75050     10.63940     -5.88404
     4.76453     10.71820     -5.32445
     4.77856     10.95805     -4.81112
     4.79259     11.34967     -4.39498
     4.80661     11.86613     -4.13105
     4.82064     12.45506     -4.07175
     4.83467     13.03370     -4.25147
     4.84870     13.49585     -4.66405
     4.86273     13.73855     -5.24481
     4.87675     13.70206     -5.87590
     4.89078     13.39864     -6.42279
     4.90481     12.90670     -6.78202
     4.91884     12.33552     -6.90911
     4.93287     11.78714     -6.81524
     4.94689     11.33579     -6.54630
     4.96092     11.02500     -6.16220
     4.97495     10.87314     -5.72465
     4.98898     10.87921     -5.29228
     5.00301     11.02531     -4.91872
     5.01703     11.27640     -4.64913
     5.03106     11.58128     -4.51283
     5.04509     11.88000     -4.51393
     5.05912     12.11960     -4.62780
     5.07315     12.27075     -4.81103
     5.08717     12.33178     -5.02211
     5.10120     12.31530     -5.23729
     5.11523     12.22888     -5.44932
     5.12926     12.06606     -5.65224
     5.14329     11.81334     -5.82618
     5.15731     11.46657     -5.93408
     5.17134     11.04414     -5.93282
     5.18537     10.58695     -5.79063
     5.19940     10.14612     -5.49823
    5.213427     9.768368    -5.067804
    5.227455     9.487933    -4.524317
    5.241483     9.326234    -3.896466
    5.255511     9.295685    -3.211381
    5.269539     9.404147    -2.493212
    5.283567     9.658215    -1.764249
     5.29760     10.06485     -1.04734
     5.31162     10.63128     -0.36886
     5.32565     11.36308      0.23845
     5.33968     12.26020      0.73322
     5.35371     13.31075      1.06521
     5.36774     14.48282      1.17880
     5.38176     15.71673      1.02309
     5.39579     16.92323      0.57005
     5.40982     17.99677     -0.16396
     5.42385     18.84647     -1.10863
     5.43788     19.43018     -2.15728
     5.45190     19.76544     -3.20567
     5.46593     19.91010     -4.18378
     5.47996     19.93374     -5.06250
     5.49399     19.90078     -5.84592
     5.50802     19.86169     -6.56625
     5.52204     19.83941     -7.27893
     5.53607     19.81430     -8.04470
     5.55010     19.72487     -8.89821
     5.56413     19.49476     -9.82254
     5.57816     19.07296    -10.75188
     5.59218     18.45774    -11.60361
     5.60621     17.68814    -12.31289
     5.62024     16.81864    -12.84429
     5.63427     15.90343    -13.18327
     5.64830     14.99596    -13.32848
     5.66232     14.15028    -13.29383
     5.67635     13.41455    -13.11255
     5.69038     12.82082    -12.83435
     5.70441     12.37822    -12.51607
     5.71844     12.07243    -12.21009
     5.73246     11.87087    -11.95378
     5.74649     11.73334    -11.76282
     5.76052     11.62542    -11.63192
     5.77455     11.52858    -11.54438
     5.78858     11.44091    -11.48543
     5.80261     11.36946    -11.45173
     5.81663     11.31918    -11.45360
     5.83066     11.28256    -11.51021
     5.84469     11.23372    -11.63792
     5.85872     11.13241    -11.83525
     5.87275     10.93971    -12.07357
     5.88677     10.63772    -12.30250
     5.90080     10.23946    -12.46840
     5.91483      9.78305    -12.53349
     5.92886      9.31667    -12.48438
     5.94289      8.88509    -12.32963
     5.95691      8.52254    -12.09284
     5.97094      8.25039    -11.80623
     5.98497      8.07654    -11.50587
     5.99900      7.99527    -11.22748
     6.01303      7.98749    -11.00170
     6.02705      8.02296    -10.84833
     6.04108      8.06621    -10.77120
     6.05511      8.08585    -10.75701
     6.06914      8.06321    -10.78082
     6.08317      7.99532    -10.81562
     6.09719      7.89121    -10.84076
     6.11122      7.76470    -10.84517
     6.12525      7.62835    -10.82498
     6.13928      7.49243    -10.77868
     6.15331      7.36827    -10.70514
     6.16733      7.27114    -10.60709
     6.18136      7.21765    -10.49646
     6.19539      7.21857    -10.39615
     6.20942      7.27153    -10.33586
     6.22345      7.35734    -10.34361
     6.23747      7.44212    -10.43586
     6.25150      7.48538    -10.60994
     6.26553      7.45155    -10.84274
     6.27956      7.31998    -11.09623
     6.29359      7.09018    -11.32694
     6.30762      6.78188    -11.49641
     6.32164      6.42968    -11.58066
     6.33567      6.07320    -11.57513
     6.34970      5.74665    -11.49294
     6.36373      5.47245    -11.35831
     6.37776      5.25972    -11.19944
     6.39178      5.10561    -11.04300
     6.40581      4.99786    -10.91038
     6.41984      4.91789    -10.81512
     6.43387      4.84447    -10.76154
     6.44790      4.75755    -10.74468
     6.46192      4.64197    -10.75157
     6.47595      4.49095    -10.76412
     6.48998      4.30801    -10.76449
     6.50401      4.10463    -10.74118
     6.51804      3.89410    -10.69202
     6.53206      3.68528    -10.62180
     6.54609      3.48039    -10.53669
     6.56012      3.27729    -10.43947
     6.57415      3.07409    -10.32841
     6.58818      2.87225    -10.19976
     6.60220      2.67654    -10.05127
    6.616232     2.492692    -9.883798
    6.630261     2.325163    -9.700846
    6.644289     2.176249    -9.506984
    6.658317     2.046308    -9.306585
    6.672345     1.934445    -9.103174
    6.686373     1.839159    -8.899287
    6.700401     1.758790    -8.696587
    6.714429     1.691781    -8.496063
    6.728457     1.636800    -8.298226
    6.742485     1.592790    -8.103257
    6.756513     1.558981    -7.911135
    6.770541     1.534885    -7.721717
    6.784569     1.520291    -7.534810
    6.798597     1.515261    -7.350229
    6.812625     1.520141    -7.167853
    6.826653     1.535565    -6.987695
    6.840681     1.562468    -6.809991
    6.854709     1.602093    -6.635317
    6.868737     1.655968    -6.464759
    6.882766     1.725820    -6.300135
    6.896794     1.813384    -6.144264
    6.910822     1.920010    -6.001244
    6.924850     2.046009    -5.876611
    6.938878     2.189739    -5.777153
    6.952906     2.346640    -5.710086
    6.966934     2.508790    -5.681535
    6.980962     2.665533    -5.694805
    6.994990     2.805042    -5.749507
    7.009018     2.915560    -5.841846
    7.023046     2.985504    -5.964722
    7.037074     3.003997    -6.106277
    7.051102     2.964139    -6.248530
    7.065130     2.867861    -6.369736
    7.079158     2.727718    -6.450839
    7.093186     2.563092    -6.481486
    7.107214     2.393641    -6.461389
    7.121242     2.234484    -6.397330
    7.135271     2.094848    -6.298967
    7.149299     1.979102    -6.175763
    7.163327     1.888545    -6.035586
    7.177355     1.822937    -5.884456
    7.191383     1.781532    -5.726862
    7.205411     1.763657    -5.566236
    7.219439     1.769008    -5.405453
    7.233467     1.797743    -5.247319
    7.247495     1.850409    -5.095045
    7.261523     1.927677    -4.952723
    7.275551     2.029815    -4.825754
    7.289579     2.155810    -4.721078
    7.303607     2.302143    -4.646949
    7.317635     2.461442    -4.611869
    7.331663     2.621592    -4.622420
    7.345691     2.766227    -4.680181
    7.359719     2.877480    -4.778691
    7.373747     2.941114    -4.902354
    7.387776     2.952293    -5.029378
    7.401804     2.918248    -5.138771
    7.415832     2.855144    -5.217664
    7.429860     2.780915    -5.264282
    7.443888     2.708713    -5.285518
    7.457916     2.643918    -5.291731
    7.471944     2.584732    -5.291640
    7.485972     2.525203    -5.288801
    7.500000     2.459633    -5.280532
# 
# 04/07/2018 at 15:48 YAMBO @ narro [start]
# 04/07/2018 at 15:48               [end]
#
# .-Input file : yambo.in
# | optics                         # [R OPT] Optics
# | bse                            # [R BSE] Bethe Salpeter Equation.
# | BoseTemp= 0.000000     eV      # Bosonic Temperature
# | FFTGvecs=  411         RL      # [FFT] Plane-waves
# | BSEmod= "retarded"             # [BSE] resonant/retarded/coupling
# | BSKmod= "IP"                   # [BSE] IP/Hartree/HF/ALDA/SEX/BSfxc
# | Gauge= "velocity"              # [BSE] Gauge (length|velocity)
# | NoCondSumRule                  # [BSE] Do not impose the conductivity sum rule in velocity gauge
# | % BEnRange
# |  0.500000 | 7.500000 | eV      # [BSS] Energy range
# | %
# | % BDmRange
# |   0.10000 |  0.10000 | eV      # [BSS] Damping range
# | %
# | BEnSteps=  500                 # [BSS] Energy steps
# | % BLongDir
# |  1.000000 | 0.000000 | 0.000000 |        # [BSS] [cc] Electric Field
# | %
# | % BSEBands
# |    1 |  32 |                   # [BSK] Bands range
# | %
