#                                                                     
# ooooo   oooo ..     ooo        ooo ooooooooo.    .oooo.             
#  `88.   .8" .88.    `88.       .88 `88"   `Y8b  dP"  `Yb            
#   `88. .8" .8"88.    888b     d"88  88     888 88      88           
#    `88.8" .8" `88.   8 Y88. .P  88  88oooo888" 88      88           
#     `88" .88ooo888.  8  `888"   88  88    `88b 88      88           
#      88 .8"     `88. 8    Y     88  88    .88P `8b    d8"           
#     o88o88o      888o8          88 o88bood8P"   `Ybod8P"            
#                                                                     
#                                                                     
#        Version 5.0.0 Revision 19355 Hash c56584a64                  
#                  Branch is devel-magnons                            
#            MPI+OpenMP+SLEPC+HDF5_MPI_IO Build                       
#                 http://www.yambo-code.org                           
#
#
#    E [eV]             n_deg              S+-                S-+
#
    0.256634134E-2      4.00000000        0.420744515E-5     0.218121023E-5
    0.49113323E-01      2.0000000         0.26782203E-19     0.33668159E-20
    0.37915435          2.0000000         0.53439789E-04     0.32818558E-20
    0.41159143          4.0000000         0.31132815E-19     0.11184341E-21
    0.414157774         4.00000000        0.766426266E-4     0.383781389E-4
    0.42826767          2.0000000         0.99505059E-19     0.13923424E-03
    0.47834900          8.0000000         0.67203520E-09     0.97143711E-07
    0.48117892          16.000000         0.31204028E-10     0.23378221E-07
    0.52201853          8.0000000         0.80148182E-11     0.14869523E-06
    0.52362607          16.000000         0.38293903E-11     0.77346722E-09
    0.54183791          2.0000000         0.79488658E-24     0.32543453E-07
    0.571220404         8.00000000        0.241475878E-3     0.915997459E-5
    0.572480519         8.00000000        0.293491868E-3     0.384484399E-3
    0.573917077         8.00000000        0.945639301E-6     0.491017886E-3
    0.577188865         4.00000000        0.622617159E-7     0.157746017E-7
    0.57870466          4.0000000         0.11253408E-23     0.48734679E-23
    0.60817890          2.0000000         0.10387315E-06     0.31213737E-23
    0.869332315         8.00000000        0.217972322E-5     0.189797620E-4
    0.88092029          8.0000000         0.57663459E-10     0.55086373E-05
    0.91292947          2.0000000         0.54501442E-20     0.68914381E-23
    0.928039439         4.00000000        0.230273754E-2     0.256568709E-6
    0.93060578          4.0000000         0.19618276E-20     0.16482787E-23
    0.96204280          2.0000000         0.81313930E-19     0.18880983E-22
     1.04690594         8.00000000        0.125940398E-5     0.681760719E-5
     1.0508295          8.0000000         0.13278765E-20     0.37497037E-18
     1.05211071         8.00000000        0.133392137E-6     0.232411886E-2
     1.05538461         8.00000000        0.307109466E-5     0.259958262E-3
     1.0684797          8.0000000         0.94596036E-07     0.77890500E-09
     1.0695527          8.0000000         0.24338828E-07     0.65874429E-09
     1.07148098         8.00000000        0.161291128E-6     0.475926655E-8
     1.08905665         8.00000000        0.281317620E-4     0.521817631E-5
     1.09323893         8.00000000        0.902392187E-7     0.576276944E-1
     1.09617607         8.00000000        0.197858926E-5     0.597301297E-1
     1.09747366         8.00000000        0.302803189E-6     0.593751708E-1
     1.2201103          2.0000000         0.87370479E-04     0.69002330E-21
     1.24404455         4.00000000        0.113835719E-3     0.177691719E-4
     1.2466109          4.0000000         0.27171418E-20     0.14146421E-22
     1.2692236          2.0000000         0.16710489E-19     0.66836340E-04
     1.3411971          2.0000000         0.41467117E-19     0.13057609E-05
     1.3421972          4.0000000         0.22766930E-19     0.59750453E-22
     1.5446246          8.0000000         0.10781939E-19     0.14003340E-21
     1.54674529         16.0000000        0.629869197E-3     0.967107200E-7
     1.64077312         8.00000000        0.451171160E-3     0.266116058E-4
     1.64239674         8.00000000        0.533181122E-3     0.330565910E-4
     1.6439615          8.0000000         0.12078037E-18     0.49011617E-21
     1.6459698          2.0000000         0.20562816E-19     0.11205584E-22
     1.6512652          2.0000000         0.42577785E-26     0.11735921E-06
     1.6540382          4.0000000         0.46025345E-26     0.38510948E-23
     1.68065951         4.00000000        0.310266239E-2     0.206724485E-6
     1.6832259          4.0000000         0.24934012E-20     0.38198614E-22
     1.6950831          2.0000000         0.88924399E-21     0.10455886E-22
     1.6962723          2.0000000         0.16926870E-20     0.62335509E-23
     1.72727910         4.00000000        0.806221936E-2     0.156871993E-7
     1.7289168          4.0000000         0.26564704E-19     0.12453239E-22
     1.7646330          2.0000000         0.21699672E-19     0.98755483E-23
     1.8909933          2.0000000         0.24208882E-18     0.12420545E-22
     1.8961654          4.0000000         0.16299093E-18     0.86133171E-22
     1.89873174         4.00000000        0.129894910E-1     0.102809506E-6
     1.9401066          2.0000000         0.16417194E-18     0.15784528E-22
     1.97878180         8.00000000        0.546182047E-2     0.722330592E-7
     2.00918306         8.00000000        0.534319141E-2     0.238870880E-6
     2.02297356         8.00000000        0.697907164E-2     0.155057843E-3
     2.02741291         8.00000000        0.389025912E-2     0.668007744E-4
     2.02843550         8.00000000        0.307117159E-2     0.788523032E-4
     2.06843062         16.0000000        0.479471507E-3     0.470687854E-6
     2.07052455         8.00000000        0.989958478E-4     0.650979317E-6
     2.0742375          2.0000000         0.91703983E-01     0.78945761E-23
     2.0948173          4.0000000         0.27849086E-19     0.47400892E-22
     2.17465033         4.00000000        0.429929571E-5     0.139182300E-6
     2.1767731          2.0000000         0.40870771         0.13362522E-21
     2.1805729          2.0000000         0.70721577E-20     0.46804889E-04
     2.1819026          4.0000000         0.36451595E-10     0.31295315E-06
     2.1831194          4.0000000         0.36122271E-25     0.32982072E-22
     2.20752384         4.00000000        0.957346980E-3     0.483726751E-4
     2.2100902          4.0000000         0.32185681E-19     0.21495933E-20
     2.2258864          2.0000000         0.12882404E-19     0.76297260E-09
     2.2269424          8.0000000         0.29944106         0.29290241E-10
     2.22954423         10.0000000        0.245829503        0.101433397E-6
     2.2319637          2.0000000         0.57012784E-19     0.59662221E-06
     2.2381102          2.0000000         0.99430643         0.28992622E-22
     2.2810770          2.0000000         0.82176139         0.92540108E-22
     2.29869794         8.00000000        0.903823862        0.853087509E-8
     2.3044624          6.0000000         0.12841730E-19     0.68066304E-07
     2.30612996         10.0000000        0.792307683        0.165255129E-6
     2.3076215          4.0000000         0.47703434E-19     0.84470488E-23
     2.31032318         4.00000000        0.977318514        0.741534923E-7
     2.3192610          2.0000000         0.90711637         0.38098700E-22
     2.3651343          8.0000000         0.31845332E-06     0.37980663E-09
     2.36722800         16.0000000        0.105325688E-5     0.127823875E-7
     2.3728119          2.0000000         0.99468138         0.13247023E-22
     2.50434399         8.00000000        0.975156957        0.127106286E-6
     2.50721700         16.0000000        0.991873147        0.495303461E-6
     2.51133844         4.00000000        0.990149410        0.179514889E-6
     2.5124810          2.0000000         0.99814591         0.27600379E-23
     2.54458563         8.00000000        0.971346599        0.273084258E-6
     2.55566939         8.00000000        0.103663324E-1     0.148382149E-5
     2.56656173         8.00000000        0.943644271E-2     0.189669918E-6
     2.57764548         8.00000000        0.954905826        0.111365170E-6
     2.58923672         16.0000000        0.315753016E-6     0.361237129E-8
     2.59077925         8.00000000        0.597506662E-6     0.704379705E-8
     2.6050408          2.0000000         0.24935103E-19     0.67979936E-22
     2.61587617         24.0000000        0.908924246        0.368380877E-6
     2.64110017         8.00000000        0.103807320E-1     0.523801213E-7
     2.6602313          2.0000000         0.12824947E-18     0.18126079E-21
     2.84811411         8.00000000        0.139573002E-1     0.105997007E-3
     2.85970209         8.00000000        0.241470405E-1     0.162334674E-4
     2.87851538         8.00000000        0.571608791E-1     0.647081586E-6
     2.88868071         8.00000000        0.115948948E-2     0.104641351E-3
     2.89010335         8.00000000        0.232107827E-2     0.559294938E-4
     2.91065680         8.00000000        0.163788833E-1     0.632816548E-5
     2.9151934          2.0000000         0.90542374         0.49768457E-23
     2.92727041         4.00000000        0.990919451        0.976323605E-7
     2.93635469         8.00000000        0.810368407E-3     0.572435435E-4
     2.93962994         12.0000000        0.952697094E-1     0.102646867E-4
     2.94104974         8.00000000        0.790482051E-3     0.545737016E-4
     2.95194237         8.00000000        0.155536604E-3     0.224420380E-6
     2.95315456         8.00000000        0.191495928E-4     0.593615097E-5
     2.96183283         8.00000000        0.813894701E-1     0.369573326E-4
     2.98557696         16.0000000        0.112174652E-2     0.201646735E-4
     2.98833091         8.00000000        0.237980437E-2     0.422625393E-4
     2.99395968         12.0000000        0.107942026        0.138986912E-4
     3.00605236         16.0000000        0.709651885E-5     0.168998027E-6
     3.00800931         8.00000000        0.139143673E-1     0.508211743E-6
     3.01429144         8.00000000        0.806334240        0.401570644E-5
     3.02205822         4.00000000        0.579264338        0.641169289E-5
     3.02568774         8.00000000        0.941878626        0.159975964E-6
     3.02790057         8.00000000        0.639844261E-2     0.638062811E-4
     3.02945914         8.00000000        0.189994772E-2     0.318930806E-4
     3.03068895         8.00000000        0.699036289E-2     0.104365447E-3
     3.0543189          2.0000000         0.17576862E-19     0.42132295E-22
     3.05608900         8.00000000        0.945992360E-2     0.161902223E-5
     3.06783845         8.00000000        0.690297988E-2     0.762549721E-5
     3.0885273          4.0000000         0.46691236E-19     0.38442768E-22
     3.09004310         4.00000000        0.794307944E-2     0.178849911E-8
     3.09823971         8.00000000        0.922304710        0.167996568E-6
     3.1206599          2.0000000         0.45642196E-20     0.10113903E-21
     3.13668398         4.00000000        0.238577966        0.445623716E-4
     3.13812962         4.00000000        0.992275619        0.327230095E-6
     3.1427227          6.0000000         0.33099165         0.10418622E-21
     3.15169423         8.00000000        0.169697620        0.281471670E-4
     3.1602169          2.0000000         0.91337544E-01     0.37252530E-23
     3.16190253         16.0000000        0.597961852E-3     0.238105083E-4
     3.16306563         8.00000000        0.267239729E-3     0.429056337E-5
     3.16803026         8.00000000        0.429227483E-6     0.298009477E-4
     3.17961823         8.00000000        0.105911862E-2     0.276322105E-4
     3.18383537         8.00000000        0.793707167        0.408065713E-5
     3.19133300         4.00000000        0.376460263        0.450991964E-4
     3.20415284         8.00000000        0.334886360E-1     0.444872551E-5
     3.21946010         4.00000000        0.379516202        0.118086382E-5
     3.34560389         8.00000000        0.781471816E-2     0.167201165E-5
     3.3475375          2.0000000         0.93019059E-03     0.22204513E-22
     3.38131728         4.00000000        0.455493561E-3     0.227369235E-4
     3.3829550          4.0000000         0.22014626E-19     0.43613304E-21
     3.38775459         8.00000000        0.497341750E-2     0.160358797E-5
     3.4038628          24.000000         0.41038391E-10     0.24549367E-07
     3.4158982          2.0000000         0.30535277E-20     0.30305258E-04
     3.42796708         8.00000000        0.303660056E-3     0.113944265E-4
     3.43584966         8.00000000        0.148310391E-2     0.383051631E-5
     3.4459967          2.0000000         0.70804137E-20     0.76815895E-22
     3.44994317         8.00000000        0.142940644E-3     0.629266524E-4
     3.45782575         8.00000000        0.386820464E-3     0.135359350E-4
     3.47355330         8.00000000        0.257524130E-2     0.425390651E-7
     3.48463458         8.00000000        0.352384051E-3     0.333942667E-4
     3.48670945         8.00000000        0.118061684E-3     0.183424872E-4
     3.48940281         12.0000000        0.327692369E-2     0.380345621E-4
     3.49038663         8.00000000        0.495418037E-2     0.490185261E-4
     3.5011872          2.0000000         0.24620866E-19     0.18839889E-21
     3.52783767         8.00000000        0.820408530E-3     0.537137857E-4
     3.5299811          8.0000000         0.88800884E-20     0.33085237E-19
     3.53156589         8.00000000        0.114636458E-2     0.417382275E-4
     3.57282366         8.00000000        0.217032460E-5     0.254232608E-6
     3.57699333         8.00000000        0.667103781E-3     0.128392083E-6
     3.5784744          8.0000000         0.11084424E-18     0.35255557E-22
     3.68024803         8.00000000        0.127464566E-2     0.111920940E-4
     3.68665662         4.00000000        0.452058283E-2     0.126835502E-4
     3.8756560          2.0000000         0.25354492E-19     0.66663336E-07
     3.8779245          2.0000000         0.12616734E-18     0.11416089E-03
     3.8838281          2.0000000         0.12661855E-24     0.61089164E-23
     3.88599612         4.00000000        0.165313576E-6     0.127487395E-7
     3.89074969         4.00000000        0.306418675E-4     0.366208801E-7
     3.91039848         4.00000000        0.332258475E-3     0.537158192E-4
     3.91184916         20.0000000        0.423912882E-1     0.218615889E-7
     3.91410063         8.00000000        0.537071284E-1     0.101704773E-6
     3.9462852          2.0000000         0.68249517E-03     0.31055012E-20
     3.97505485         8.00000000        0.330549921E-7     0.352480246E-1
     3.9765335          8.0000000         0.42812844E-09     0.35267731E-01
     3.97761787         8.00000000        0.250837969E-7     0.349797322E-1
     4.0272663          2.0000000         0.33299233E-24     0.62930955E-23
     4.0291809          4.0000000         0.18976766E-09     0.15483976E-10
     4.07537186         8.00000000        0.468832445E-1     0.225499752E-6
     4.0764890          8.0000000         0.46395163E-01     0.61400181E-09
     4.07776656         8.00000000        0.485451170E-1     0.252074719E-6
     4.1062556          4.0000000         0.24089107E-18     0.10559079E-21
     4.1206795          2.0000000         0.10672931E-18     0.14268859E-06
     4.1339494          8.0000000         0.11329471E-19     0.12468656E-21
     4.1361165          8.0000000         0.16528923E-02     0.60335292E-10
     4.13730186         8.00000000        0.357573754E-2     0.137317491E-7
     4.1637462          2.0000000         0.20065757E-19     0.71321813E-22
     4.16537662         4.00000000        0.969407822E-3     0.603223663E-4
     4.2145209          4.0000000         0.25273751E-18     0.56264549E-22
     4.21914209         8.00000000        0.392895401E-3     0.152705708E-7
     4.39645218         24.0000000        0.840363424E-7     0.344478271E-8
     4.4064593          2.0000000         0.11993063E-20     0.79767169E-22
     4.40900349         8.00000000        0.251228469E-3     0.552384878E-7
     4.4119228          4.0000000         0.16786692E-19     0.33297905E-22
     4.43703258         8.00000000        0.185249239E-2     0.966315573E-8
     4.4616498          2.0000000         0.55107881E-19     0.10379037E-21
     4.5973754          4.0000000         0.21683553E-18     0.13934940E-18
     4.60162685         8.00000000        0.155883517E-6     0.211774215E-8
     4.69434962         6.00000000        0.512965426E-6     0.115188385E-7
     4.79148825         8.00000000        0.552353433E-3     0.656899664E-4
     4.79457330         12.0000000        0.189306585E-3     0.390387121E-8
     4.81644740         8.00000000        0.242499951E-3     0.616788486E-8
     4.82113714         4.00000000        0.310567400E-5     0.220119818E-1
     4.83954105         8.00000000        0.425244570E-4     0.335263104E-1
     4.86794540         4.00000000        0.380755614E-6     0.608987444E-6
     4.8699121          2.0000000         0.11783340E-17     0.81040205E-21
     4.87157942         16.0000000        0.374009232E-3     0.214471672E-2
     4.87257489         8.00000000        0.848915868E-3     0.824288379E-8
     4.8743167          8.0000000         0.11010707E-18     0.33805104E-21
     4.87578616         4.00000000        0.328804006E-4     0.209098442E-1
     4.89199965         8.00000000        0.967403421E-4     0.612795600E-2
     4.90391327         4.00000000        0.313343650E-3     0.108717394E-2
     4.93072416         8.00000000        0.202962913E-3     0.289204478E-8
     4.93193636         8.00000000        0.548015333E-2     0.724155801E-8
     4.9486776          8.0000000         0.39096555E-20     0.11060702E-19
     4.95051291         16.0000000        0.127292593E-7     0.150515444E-4
     4.96112543         8.00000000        0.123228748E-2     0.539248076E-8
     4.96233762         8.00000000        0.170212666E-3     0.359521557E-7
     4.96755485         8.00000000        0.141208173E-3     0.886466254E-5
     4.96970985         16.0000000        0.598332682E-4     0.502418436E-5
     4.9906597          8.0000000         0.20808740E-11     0.64181934E-03
     5.09349254         8.00000000        0.103966143E-3     0.438423749E-8
     5.09631829         8.00000000        0.493665608E-3     0.297608806E-7
     5.09821986         8.00000000        0.134405561E-3     0.841816383E-8
     5.25064031         8.00000000        0.293191491E-3     0.125747495E-7
     5.25185250         8.00000000        0.356046052E-3     0.215274629E-8
     5.2545398          8.0000000         0.18033825E-12     0.26550352E-10
     5.32041427         8.00000000        0.171059817E-3     0.759773947E-8
     5.3361893          8.0000000         0.13033674E-01     0.25907662E-11
     5.3423904          8.0000000         0.16880590E-01     0.11913625E-10
     5.35816539         8.00000000        0.178708147E-3     0.315863507E-8
     5.36809485         8.00000000        0.944232192E-6     0.994770828E-7
     5.37100554         12.0000000        0.384131917E-1     0.176093397E-4
     5.37360892         8.00000000        0.583234386E-1     0.473400067E-8
     5.37514197         8.00000000        0.575722439E-1     0.281639346E-8
     5.4024813          4.0000000         0.36661021E-19     0.94885764E-22
     5.40648274         8.00000000        0.627423488E-3     0.195061291E-8
     5.4117500          2.0000000         0.35839589E-03     0.11928833E-19
     5.4451343          4.0000000         0.54760760E-18     0.43523755E-20
     5.44665007         4.00000000        0.180613821E-3     0.923234701E-4
     5.4780910          2.0000000         0.83601611E-19     0.17770404E-03
     5.5801003          2.0000000         0.31968368E-20     0.10026440E-22
     5.59618434         24.0000000        0.243240224E-3     0.743429111E-8
     5.59715786         8.00000000        0.306055484E-3     0.575406098E-8
     5.5998831          4.0000000         0.70899273E-19     0.45845160E-22
     5.6132752          4.0000000         0.17956863E-20     0.39223548E-22
     5.61491295         4.00000000        0.190509391E-3     0.397126609E-7
     5.6484611          2.0000000         0.33738015E-19     0.24026299E-23
     5.7235386          2.0000000         0.14675878E-19     0.48526070E-24
     5.7564600          4.0000000         0.42836373E-19     0.18312712E-22
     5.75809771         4.00000000        0.224932813E-3     0.762905746E-8
     5.7918993          2.0000000         0.42217012E-19     0.12597267E-23
     5.9066545          4.0000000         0.19679257E-18     0.34421632E-22
     5.90809796         10.0000000        0.887511414E-5     0.198134184E-5
     5.91116074         16.0000000        0.337575036E-4     0.907363044E-6
     5.94136618         8.00000000        0.439823161E-3     0.131784764E-8
     5.94305275         16.0000000        0.384382241E-3     0.196423433E-7
     6.0966922          12.000000         0.44048292E-09     0.16250319E-07
     6.15478023         4.00000000        0.389990142E-2     0.147515504E-8
     6.15885813         8.00000000        0.361823004E-2     0.267582518E-8
     6.1652989          4.0000000         0.31909034E-18     0.27570369E-18
     6.18384028         8.00000000        0.138297848E-5     0.251987217E-7
     6.21598142         8.00000000        0.586000939E-4     0.251130323E-7
     6.2199479          4.0000000         0.58866264E-18     0.28141536E-18
     6.23629889         8.00000000        0.129058138E-4     0.650207708E-7
     6.2480750          4.0000000         0.19836619E-18     0.13611297E-20
     6.3487195          8.0000000         0.15195844E-07     0.18492958E-09
     6.35218211         4.00000000        0.150869113E-3     0.113714505E-8
     6.3963091          2.0000000         0.59239187E-03     0.11832263E-22
     6.3973346          4.0000000         0.32356816E-19     0.86726148E-22
     6.40999610         16.0000000        0.213404460E-4     0.239901255E-5
     6.41171010         8.00000000        0.454731276E-4     0.457909050E-5
     6.4501486          2.0000000         0.24653574E-19     0.73540433E-21
     6.47930019         12.0000000        0.365480994E-7     0.354681146E-4
     6.48384336         4.00000000        0.282251773E-3     0.749690442E-8
     6.4853592          4.0000000         0.95237593E-20     0.16570044E-21
     6.5164896          2.0000000         0.24819074E-19     0.34550533E-21
     6.52171481         6.00000000        0.178653633E-6     0.353340475E-7
     6.5402620          6.0000000         0.27899930E-18     0.40470323E-08
     6.71239408         8.00000000        0.933916075E-5     0.129147752E-4
     6.7152715          4.0000000         0.76821624E-20     0.63748711E-18
     6.9006245          8.0000000         0.14122403E-05     0.25095979E-09
     6.9037550          16.000000         0.64612237E-04     0.90948708E-09
     6.96944148         8.00000000        0.295218192E-5     0.417168659E-8
     6.99984274         8.00000000        0.272248194E-6     0.584539867E-7
     7.05123129         6.00000000        0.470751721E-7     0.213057818E-1
     7.2114272          2.0000000         0.55230894E-20     0.13406516E-05
     7.2317341          4.0000000         0.26403543E-20     0.47902518E-19
     7.23364790         12.0000000        0.933013108E-5     0.317842624E-6
     7.2605406          2.0000000         0.44053602E-08     0.15359524E-19
     7.2637229          8.0000000         0.16434267E-04     0.22507404E-10
     7.28423941         12.0000000        0.238282706E-4     0.695127135E-5
     7.2893576          8.0000000         0.56247502E-08     0.11506813E-09
     7.3416493          2.0000000         0.12109711E-19     0.86047477E-22
     7.3620038          4.0000000         0.13004135E-06     0.74189485E-12
     7.3645701          4.0000000         0.39380204E-19     0.50850586E-22
     7.3907626          2.0000000         0.23391477E-18     0.18618020E-21
     7.40259040         16.0000000        0.178644212E-1     0.347735386E-8
     7.4042898          8.0000000         0.17923770E-01     0.14418001E-09
     7.44094560         12.0000000        0.440109616E-1     0.249563923E-7
     7.5532378          8.0000000         0.88184196E-02     0.15484486E-09
     7.5595759          2.0000000         0.18982392E-20     0.54276949E-20
     7.5606927          4.0000000         0.63453248E-23     0.61206536E-23
     7.6396949          2.0000000         0.75650091E-19     0.18006794E-19
     7.6458919          4.0000000         0.15458802E-10     0.18145392E-08
     7.76183571         8.00000000        0.420309680E-5     0.692755809E-4
     7.7699170          2.0000000         0.55292047E-18     0.97785452E-12
     7.77291946         8.00000000        0.305188345E-4     0.441707986E-4
     7.7761616          4.0000000         0.38304814E-18     0.10188424E-21
     7.80010411         8.00000000        0.278131656E-4     0.400687373E-4
     7.81118787         8.00000000        0.379740510E-4     0.251222773E-5
     7.82355360         12.0000000        0.139550779E-3     0.182536602E-4
     8.03658933         12.0000000        0.341419395E-4     0.125582060E-4
     8.0898369          6.0000000         0.18861088E-19     0.40923793E-19
     8.10593078         8.00000000        0.676289289E-6     0.914031175E-5
     8.14419918         8.00000000        0.264767775E-6     0.104274859E-4
     8.4783450          4.0000000         0.10902706E-19     0.23938354E-19
     8.4806508          2.0000000         0.30872961E-19     0.32570325E-19
     8.4833325          4.0000000         0.16966891E-18     0.18679904E-18
     8.50166813         8.00000000        0.975332181E-5     0.364503479E-5
     8.53380927         8.00000000        0.462890418E-4     0.593516027E-4
     8.5379815          4.0000000         0.32154439E-18     0.17851051E-18
     8.55412674         8.00000000        0.182765151E-5     0.109033849E-4
     8.5661086          4.0000000         0.48485240E-18     0.13119375E-19
     8.6086147          4.0000000         0.28917477E-08     0.75982355E-13
     8.6108729          2.0000000         0.18820041E-20     0.23685545E-12
     8.62849281         12.0000000        0.426992330E-4     0.303497094E-8
     8.64521716         8.00000000        0.119960787E-7     0.314092722E-4
     8.65309973         8.00000000        0.118764275E-7     0.170407064E-1
     8.68348556         8.00000000        0.806114610E-8     0.204340155E-1
     8.69136813         8.00000000        0.137656397E-6     0.371578636E-4
     8.7538744          6.0000000         0.78037779E-20     0.32204754E-20
     8.8971436          6.0000000         0.20113020E-18     0.60485917E-20
     8.90384563         8.00000000        0.179317979E-2     0.344772951E-7
     8.9149294          8.0000000         0.39964643E-06     0.26761414E-09
     8.92313792         8.00000000        0.297400359E-6     0.851464797E-7
     8.93422168         8.00000000        0.104363590E-2     0.391111751E-7
     9.03022193         8.00000000        0.549404433E-7     0.245405776E-5
     9.0333051          4.0000000         0.10675693E-19     0.10922226E-18
     9.24794070         8.00000000        0.285684736E-5     0.438409081E-7
     9.26723299         8.00000000        0.118750850E-4     0.273842162E-7
     9.3808427          12.000000         0.60323505E-04     0.24425371E-09
     9.4415873          6.0000000         0.51406107E-19     0.85304716E-20
     9.5718411          6.0000000         0.65575289E-03     0.76289032E-13
     9.75884202         12.0000000        0.188952750E-4     0.363861966E-4
     9.78722708         8.00000000        0.265687588E-4     0.429898196E-4
     9.79248000         6.00000000        0.363650580E-7     0.192165547E-8
     9.79510965         8.00000000        0.716090877E-5     0.108525271E-7
     9.80651937         8.00000000        0.596768852E-6     0.550443625E-7
     9.81275839         4.00000000        0.260313701E-4     0.486542899E-5
     9.81440194         8.00000000        0.276678712E-4     0.385939764E-4
     9.83125964         8.00000000        0.969242425E-6     0.365931204E-5
     9.86340077         8.00000000        0.332083225E-6     0.508270444E-6
     9.86740741         4.00000000        0.111837796E-3     0.522150403E-5
     9.88371824         8.00000000        0.308851682E-4     0.884823056E-6
     9.89553452         4.00000000        0.109772589E-7     0.196575356E-6
     9.93574925         6.00000000        0.210497992E-1     0.194292009E-8
     9.96143596         8.00000000        0.117255645E-4     0.172446833E-4
     9.97251971         8.00000000        0.300936139E-6     0.117042431E-3
     10.0117214         8.00000000        0.304579057E-5     0.276719530E-8
     10.0499898         8.00000000        0.891130045E-7     0.132030853E-7
     10.1414500         12.0000000        0.187348943E-7     0.994133571E-2
     10.3055310         8.00000000        0.470079723E-7     0.487522084E-2
     10.3598134         8.00000000        0.473713918E-6     0.180417296E-6
     10.3627310         4.00000000        0.175214874E-5     0.449232051E-6
     10.5376643         8.00000000        0.446625653E-4     0.784613109E-5
     10.5534394         8.00000000        0.138948279E-6     0.316153840E-6
     10.5759327         8.00000000        0.184005676E-5     0.178537421E-7
     10.5917078         8.00000000        0.487391255E-4     0.757778642E-5
     10.8448174         8.00000000        0.251254944E-7     0.298098985E-5
     10.8527000         8.00000000        0.112655561E-7     0.259172860E-5
     10.9463892         12.0000000        0.118213775E-5     0.792686517E-6
     10.9512693         8.00000000        0.258620054E-5     0.140206365E-7
     10.9623531         8.00000000        0.379656215E-5     0.357565017E-8
     11.088378          12.000000         0.20411797E-04     0.48909947E-09
     11.1086149         24.0000000        0.610627219E-5     0.669669023E-4
     11.153731          8.0000000         0.23126799E-05     0.65302189E-11
     11.1730236         8.00000000        0.166680999E-5     0.201780515E-8
     11.295364          8.0000000         0.23852798E-07     0.79400780E-10
     11.470986          12.000000         0.13229833E-07     0.59285915E-10
     11.586905          8.0000000         0.64312970E-24     0.12132702E-18
     11.5898234         16.0000000        0.167785256E-7     0.147149388E-3
     11.6306727         8.00000000        0.228843855E-8     0.670718504E-2
     11.6322213         16.0000000        0.464166392E-7     0.682178367E-2
     11.6796743         8.00000000        0.463548589E-7     0.185021284E-8
     11.6954493         8.00000000        0.194022527E-1     0.137683291E-8
     11.698830          20.000000         0.65566046E-02     0.52136169E-09
     11.714742          8.0000000         0.12083660E-06     0.76404435E-09
     11.8346508         8.00000000        0.188070020E-5     0.278693863E-6
     11.8425333         8.00000000        0.283839263E-6     0.537710025E-5
     12.080544          2.0000000         0.39029917E-17     0.26330219E-08
     12.1223849         24.0000000        0.115918495E-4     0.325869633E-8
     12.1498306         8.00000000        0.937167029E-6     0.547943914E-8
     12.1771145         8.00000000        0.620502524E-7     0.312636587E-5
     12.1782069         8.00000000        0.844836824E-7     0.354051366E-5
     12.180037          8.0000000         0.12272387E-18     0.63683943E-19
     12.211322          8.0000000         0.29783455E-09     0.11208200E-08
     12.248794          2.0000000         0.29624303E-05     0.75958679E-20
     12.275926          12.000000         0.18911868E-05     0.51674072E-09
     12.6005205         8.00000000        0.307098055E-5     0.582245984E-7
     12.6036705         16.0000000        0.239967975E-5     0.115180838E-6
     12.606602          2.0000000         0.27346675E-17     0.11001888E-21
     12.622381          2.0000000         0.34897556E-18     0.92145236E-20
     12.6444973         8.00000000        0.232431734E-5     0.142694307E-5
     12.6459640         16.0000000        0.281998212E-5     0.797967359E-6
     12.688722          2.0000000         0.66350236E-18     0.19411196E-20
     12.698981          8.0000000         0.24562049E-06     0.92294861E-09
     12.7270194         8.00000000        0.523030151E-4     0.669529187E-6
     12.7285352         8.00000000        0.526178065E-4     0.823671421E-6
     12.737265          8.0000000         0.65121322E-09     0.14563024E-05
     12.7530396         8.00000000        0.502163303E-7     0.109496555E-6
     12.769719          2.0000000         0.25122085E-17     0.13880705E-21
     12.790632          2.0000000         0.21963070E-17     0.43208149E-20
     12.856973          2.0000000         0.96721600E-18     0.20178937E-19
     13.028275          12.000000         0.10191729E-01     0.34966076E-09
     13.148440          2.0000000         0.39566778E-02     0.83763402E-21
     13.1909841         8.00000000        0.601122462E-3     0.374364436E-8
     13.1920315         8.00000000        0.599361183E-3     0.148163786E-8
     13.193653          8.0000000         0.60114639E-03     0.55571838E-09
     13.201155          8.0000000         0.50529506E-02     0.36564657E-09
     13.214781          2.0000000         0.17175299E-17     0.40715471E-07
     13.2761695         8.00000000        0.185333028E-2     0.183434872E-7
     13.2776853         8.00000000        0.185731066E-2     0.288071831E-8
     13.311557          2.0000000         0.17888159E-17     0.37350251E-08
     13.377898          2.0000000         0.36819334E-02     0.12909435E-20
     13.4737884         8.00000000        0.556306273E-5     0.253147582E-5
     13.4758233         16.0000000        0.282794506E-5     0.134896660E-5
     13.6978320         16.0000000        0.575796993E-6     0.562715718E-7
     13.6994334         8.00000000        0.927971602E-7     0.130298130E-6
     13.727098          8.0000000         0.78047183E-05     0.40334426E-09
     13.731809          2.0000000         0.12385445E-20     0.11454506E-19
     13.742873          8.0000000         0.74133749E-05     0.13588555E-09
     13.8038687         8.00000000        0.472498173E-7     0.422224032E-6
     13.900060          2.0000000         0.47800699E-20     0.38373209E-20
     14.257867          2.0000000         0.81959442E-05     0.80872095E-20
     14.262196          2.0000000         0.65812530E-20     0.23489434E-17
     14.3329499         8.00000000        0.224150482E-6     0.217771366E-4
     14.3530188         8.00000000        0.219669525E-5     0.449388832E-6
     14.420984          2.0000000         0.42111776E-19     0.12493531E-05
     14.430447          2.0000000         0.10634790E-19     0.12597878E-20
     14.487613          8.0000000         0.42827704E-02     0.86896093E-10
     14.4895660         16.0000000        0.432472528E-2     0.120915236E-8
     14.512478          24.000000         0.25830009E-09     0.75958716E-03
     14.711575          16.000000         0.39109640E-06     0.26979848E-09
     14.713258          8.0000000         0.38167617E-04     0.13559059E-09
     14.788254          2.0000000         0.21680159E-19     0.22598111E-04
     14.8821000         8.00000000        0.892975605E-5     0.284738293E-5
     14.951371          2.0000000         0.36581580E-04     0.32001539E-18
     15.3548826         8.00000000        0.223843547E-6     0.301507974E-6
     15.3672941         4.00000000        0.352478761E-5     0.122247427E-4
     15.370904          4.0000000         0.20243976E-17     0.43283758E-19
     15.3870237         8.00000000        0.215249074E-6     0.726354284E-5
     15.4073412         8.00000000        0.782396000E-6     0.336902892E-4
     15.4219432         4.00000000        0.159211440E-5     0.209890775E-4
     15.4244347         8.00000000        0.675984473E-6     0.235972365E-4
     15.425553          4.0000000         0.23156655E-17     0.55584881E-19
     15.4500703         4.00000000        0.114161055E-5     0.108938442E-3
     15.453680          4.0000000         0.53088829E-18     0.21838295E-19
     15.4565759         8.00000000        0.857337495E-6     0.336630029E-5
     15.4768933         8.00000000        0.175825517E-5     0.501541755E-5
     15.5050671         24.0000000        0.192773681E-5     0.990017077E-6
     15.5262477         24.0000000        0.317488775E-5     0.130809093E-5
     15.847687          4.0000000         0.21553478E-17     0.77371325E-19
     15.8593142         8.00000000        0.716895189E-5     0.736110738E-5
     15.8834364         8.00000000        0.282597208E-7     0.172631359E-2
     15.8914553         8.00000000        0.588127273E-6     0.793719325E-6
     15.902336          4.0000000         0.21232874E-17     0.92085231E-19
     15.9117728         8.00000000        0.389505304E-5     0.160572277E-5
     15.9172668         4.00000000        0.419165766E-7     0.330305817E-2
     15.920877          4.0000000         0.81654312E-20     0.66997601E-18
     15.930463          4.0000000         0.64737014E-17     0.78773480E-19
     15.9529885         8.00000000        0.264490939E-7     0.163317683E-2
     15.964372          2.0000000         0.31732475E-19     0.32520801E-06
     16.0358267         8.00000000        0.345829287E-7     0.799279784E-7
     16.0849640         4.00000000        0.153269094E-4     0.490332503E-5
     16.1063422         8.00000000        0.669523029E-6     0.264606323E-5
     16.107810          2.0000000         0.79492334E-05     0.69471262E-19
     16.132622          2.0000000         0.52168656E-06     0.15209125E-19
     16.1384833         8.00000000        0.838910240E-5     0.488135431E-6
     16.1396130         4.00000000        0.437593294E-4     0.476060020E-5
     16.1588008         8.00000000        0.136343742E-3     0.122102408E-5
     16.1677401         4.00000000        0.905902082E-4     0.482132798E-7
     16.1790114         8.00000000        0.383059557E-5     0.213047014E-5
     16.276061          2.0000000         0.40558965E-17     0.87087639E-05
     16.3878680         8.00000000        0.155315803E-7     0.101315272E-5
     16.397659          4.0000000         0.17291991E-18     0.45726645E-17
     16.490430          2.0000000         0.70002690E-19     0.36185914E-21
     16.518837          24.000000         0.23204381E-02     0.11503040E-10
     16.5849768         8.00000000        0.143166930E-5     0.240608265E-8
     16.6121919         8.00000000        0.123144800E-4     0.219952687E-6
     16.633868          2.0000000         0.70855339E-18     0.33492338E-21
     16.6349095         12.0000000        0.313874586E-7     0.132636462E-4
     16.642533          4.0000000         0.61659027E-18     0.12577733E-19
     16.6461431         4.00000000        0.113781374E-4     0.154335316E-4
     16.653547          2.0000000         0.71765466E-19     0.82390019E-21
     16.6817440         8.00000000        0.274056887E-6     0.115221441E-4
     16.7281615         8.00000000        0.114095503E-4     0.502879811E-7
     16.796985          2.0000000         0.51824299E-18     0.50007501E-21
     16.9523016         8.00000000        0.813356761E-7     0.567695059E-6
     16.9946766         8.00000000        0.129626753E-7     0.403060157E-3
     17.0032748         8.00000000        0.170963749E-7     0.795169305E-5
     17.025387          4.0000000         0.28235986E-19     0.16899134E-16
     17.0289976         4.00000000        0.166042650E-8     0.963090526E-3
     17.064229          8.0000000         0.10008554E-09     0.57384208E-03
     17.1166235         8.00000000        0.378045714E-6     0.725838273E-7
     17.1229255         4.00000000        0.207448801E-4     0.218604853E-6
     17.360203          4.0000000         0.32337903E-18     0.71866947E-20
     17.3636514         8.00000000        0.148525759E-4     0.455767435E-8
     17.4044183         8.00000000        0.231313452E-6     0.895203793E-7
     17.4605452         8.00000000        0.406829485E-6     0.126119036E-7
     17.4991082         8.00000000        0.843724687E-6     0.970319616E-5
     17.5057800         4.00000000        0.138947518E-5     0.183928997E-4
     17.743057          4.0000000         0.15527126E-19     0.16972773E-16
     17.7445141         8.00000000        0.385460125E-8     0.661239277E-8
     17.7461362         8.00000000        0.420155601E-7     0.255033415E-7
     17.7995325         8.00000000        0.825423410E-5     0.130887191E-6
     17.8216339         8.00000000        0.319831924E-7     0.200160670E-2
     17.830493          4.0000000         0.47571180E-17     0.19624116E-19
     17.8335158         12.0000000        0.149997332E-4     0.335876773E-3
     17.8690846         8.00000000        0.153699594E-4     0.149532178E-6
     17.8726072         8.00000000        0.266502290E-8     0.521138602E-3
     17.8841951         8.00000000        0.108160119E-6     0.216549221E-2
     17.9992076         8.00000000        0.922084026E-7     0.494440625E-4
     18.0413583         8.00000000        0.236841860E-6     0.831254945E-4
     18.0501808         8.00000000        0.285572149E-5     0.202525590E-4
     18.0923315         8.00000000        0.241928907E-6     0.383390094E-4
     18.2737506         8.00000000        0.245279236E-4     0.962395309E-5
     18.2853385         8.00000000        0.138438588E-5     0.203989958E-4
     18.303964          8.0000000         0.33303765E-02     0.66819151E-09
     18.3108858         4.00000000        0.335625436E-2     0.371772809E-8
     18.3298775         8.00000000        0.752734838E-5     0.110512825E-4
     18.3414655         8.00000000        0.133809657E-4     0.463360050E-5
     18.3587965         4.00000000        0.105039014E-4     0.281707817E-4
     18.361050          2.0000000         0.11060459E-17     0.12891884E-20
     18.4513242         8.00000000        0.690387564E-6     0.155295374E-6
     18.4934749         8.00000000        0.394305413E-3     0.633658152E-6
     18.5074512         8.00000000        0.492293846E-3     0.355863372E-6
     18.5230216         24.0000000        0.295346385E-6     0.445623262E-5
     18.548163          4.0000000         0.10511856E-16     0.34144393E-19
     18.5496019         8.00000000        0.489305800E-6     0.421124201E-6
     18.5514500         16.0000000        0.254957051E-4     0.109594810E-6
     18.5827923         4.00000000        0.851884381E-5     0.814700892E-6
     18.586402          4.0000000         0.76464107E-18     0.62250015E-20
     18.6138464         8.00000000        0.128830713E-5     0.815701463E-5
     18.6171750         4.00000000        0.708398802E-8     0.296151685E-7
     18.619054          2.0000000         0.10662790E-16     0.43698278E-19
     18.6214600         8.00000000        0.264926654E-5     0.181648898E-6
     18.6254343         8.00000000        0.427964700E-8     0.630609397E-6
     18.6323545         8.00000000        0.730735230E-3     0.371189618E-8
     18.7914200         8.00000000        0.656852768E-6     0.134504256E-7
     18.8335707         8.00000000        0.167352269E-4     0.304514790E-6
     18.902888          2.0000000         0.45606308E-18     0.20774112E-04
     18.935985          4.0000000         0.47744253E-17     0.14026042E-20
     18.9375012         4.00000000        0.188613062E-5     0.120202557E-4
     18.969229          2.0000000         0.47213053E-05     0.15952259E-20
     19.0012422         8.00000000        0.196835827E-7     0.976068110E-3
     19.0042646         16.0000000        0.204104532E-7     0.949516599E-3
     19.0451265         8.00000000        0.115407680E-7     0.465979871E-5
     19.046604          16.000000         0.71851323E-10     0.25862309E-04
     19.056340          8.0000000         0.27149104E-04     0.26134984E-10
     19.063185          4.0000000         0.21524400E-17     0.63383814E-20
     19.1597206         8.00000000        0.285865214E-3     0.102806434E-5
     19.160892          2.0000000         0.52309113E-05     0.32577072E-19
     19.1642430         8.00000000        0.304070098E-3     0.243026363E-6
     19.1665646         8.00000000        0.292236309E-3     0.165242860E-6
     19.194364          4.0000000         0.58360277E-18     0.10722730E-19
     19.1958796         4.00000000        0.260967518E-5     0.524579770E-5
     19.227233          2.0000000         0.12039284E-17     0.10191067E-04
     19.2542299         8.00000000        0.341722435E-4     0.410744892E-5
     19.2565635         8.00000000        0.247670156E-4     0.152793474E-5
     19.2614638         8.00000000        0.515091188E-4     0.593718480E-5
     19.3004621         4.00000000        0.101917543E-2     0.354153894E-8
     19.3033675         8.00000000        0.996157193E-3     0.140231865E-8
     19.480019          8.0000000         0.18203320E-17     0.36143557E-19
     19.4815688         16.0000000        0.302188769E-5     0.121015733E-7
     19.5016868         8.00000000        0.559238059E-8     0.193787837E-5
     19.5132748         8.00000000        0.689196413E-6     0.162294852E-5
     19.5915431         8.00000000        0.571602784E-6     0.230064487E-5
     19.5926607         8.00000000        0.511154835E-5     0.351500632E-6
     19.5943742         8.00000000        0.602607435E-5     0.316304012E-5
     19.638070          8.0000000         0.55906441E-19     0.95812871E-18
     19.6451333         8.00000000        0.172379024E-5     0.304764825E-5
     19.6480321         8.00000000        0.111087881E-5     0.173879665E-5
     19.6792604         8.00000000        0.363481594E-5     0.921020819E-7
     19.6834161         8.00000000        0.282947437E-6     0.837907288E-4
     19.6862615         8.00000000        0.489827608E-7     0.709635157E-4
     19.6901211         8.00000000        0.726890307E-7     0.180654990E-4
     19.7214111         8.00000000        0.202978557E-5     0.720106394E-7
     19.7356974         8.00000000        0.100977716E-6     0.230113523E-4
     19.7374538         8.00000000        0.193162278E-6     0.308908417E-4
     19.739813          8.0000000         0.26762383E-19     0.31657478E-17
     19.7781843         16.0000000        0.261005540E-7     0.438408978E-3
     19.7851593         8.00000000        0.200631371E-7     0.429982164E-3
     19.9042440         8.00000000        0.677848805E-8     0.903937876E-8
     19.9054562         8.00000000        0.167316756E-4     0.963367075E-7
     19.9552172         8.00000000        0.270988847E-4     0.979333218E-7
     19.9564294         8.00000000        0.257820226E-6     0.147191815E-8
     19.9583677         8.00000000        0.190095449E-5     0.548438270E-5
     19.9622465         8.00000000        0.531495584E-6     0.210705030E-5
     19.9632489         8.00000000        0.126152086E-5     0.296921039E-5
     20.0035445         16.0000000        0.160219565E-5     0.832815436E-6
     20.0053380         8.00000000        0.230936272E-5     0.357023166E-6
     20.0126616         6.00000000        0.233785630E-8     0.682979024E-2
     20.231202          8.0000000         0.13009277E-18     0.39509130E-19
     20.2337957         8.00000000        0.147058535E-5     0.757739862E-7
     20.2350442         8.00000000        0.194925435E-4     0.577723280E-7
     20.2709151         6.00000000        0.231772044E-8     0.544312985E-8
     20.3227096         8.00000000        0.171500871E-5     0.817124578E-6
     20.3261163         8.00000000        0.393642986E-6     0.468836103E-6
     20.332945          8.0000000         0.25594881E-18     0.13685525E-18
     20.3563606         8.00000000        0.274889229E-2     0.148737825E-8
     20.3575728         8.00000000        0.191412974E-4     0.155708766E-8
     20.412488          8.0000000         0.22960220E-04     0.80774927E-09
     20.4136998         8.00000000        0.282379968E-2     0.104661873E-8
     20.5421780         6.00000000        0.231116362E-8     0.417983350E-8
     20.5505850         16.0000000        0.753678773E-3     0.762170354E-8
     20.5514997         8.00000000        0.766774772E-3     0.239928859E-7
     20.6964564         8.00000000        0.776461131E-4     0.309008544E-8
     20.6976686         8.00000000        0.984180022E-5     0.493055290E-7
     20.800432          6.0000000         0.38313998E-09     0.19424029E-02
     20.8882423         8.00000000        0.429284945E-7     0.121319071E-5
     20.8902064         16.0000000        0.192860186E-5     0.158556998E-5
     21.1122151         16.0000000        0.434243140E-7     0.186029269E-7
     21.1138872         8.00000000        0.496265517E-7     0.417643643E-8
     21.527044          8.0000000         0.25352804E-19     0.16553958E-19
     21.5293773         8.00000000        0.554158880E-6     0.919509652E-7
     21.5336972         8.00000000        0.141166564E-7     0.730786862E-7
     21.584297          8.0000000         0.25230118E-05     0.46532890E-10
     21.585509          8.0000000         0.21031918E-05     0.57931805E-10
     21.6215302         16.0000000        0.202707803E-6     0.912770162E-6
     21.628787          8.0000000         0.92713103E-20     0.66167931E-19
     21.7490455         8.00000000        0.876550512E-3     0.721890463E-7
     21.7553677         16.0000000        0.937159503E-3     0.153714241E-7
     21.8433784         8.00000000        0.638157243E-4     0.157876408E-6
     21.8470584         24.0000000        0.504086332E-3     0.539879589E-7
     21.848914          8.0000000         0.72020573E-03     0.44568233E-10
     21.8507887         8.00000000        0.129423394E-3     0.351491585E-6
     21.926884          24.000000         0.54548699E-09     0.46267978E-05
     21.9429613         8.00000000        0.173601350E-7     0.248099138E-5
     21.9939345         8.00000000        0.179049719E-8     0.253061480E-5
     22.069344          8.0000000         0.26798770E-18     0.83396849E-20
     22.070930          8.0000000         0.21812618E-06     0.12456404E-09
     22.072135          8.0000000         0.52848732E-05     0.73368439E-11
     22.2068414         8.00000000        0.438825963E-5     0.184532246E-6
     22.244821          6.0000000         0.23264282E-19     0.35032913E-20
     22.2578147         8.00000000        0.554941267E-6     0.285755958E-5
     22.333826          2.0000000         0.72191210E-08     0.15898630E-19
     22.3599917         4.00000000        0.855940324E-8     0.183157813E-6
     22.362558          4.0000000         0.65136081E-20     0.41944613E-20
     22.382939          2.0000000         0.17078506E-19     0.72344326E-06
     22.388090          6.0000000         0.84806837E-17     0.80820822E-21
     22.3950779         8.00000000        0.282335016E-6     0.134693250E-6
     22.401178          2.0000000         0.12028060E-22     0.13136961E-20
     22.427240          4.0000000         0.17029407E-24     0.51009694E-19
     22.429807          4.0000000         0.30544788E-09     0.61560227E-07
     22.451022          10.000000         0.25670273E-05     0.19489217E-09
     22.503075          6.0000000         0.13689755E-18     0.15319043E-18
     22.5637736         8.00000000        0.462322288E-5     0.225237809E-4
     22.5680774         8.00000000        0.394769399E-5     0.575008160E-5
     22.5702654         8.00000000        0.490934228E-6     0.188356199E-4
     22.646344          6.0000000         0.21080513E-16     0.17917219E-19
     22.6579307         8.00000000        0.414757735E-7     0.158946418E-3
     22.6589581         8.00000000        0.360757784E-5     0.264876198E-7
     22.6603980         8.00000000        0.424995820E-6     0.170028779E-3
     22.6655168         8.00000000        0.815335716E-6     0.158349709E-3
     22.7150850         8.00000000        0.379636248E-5     0.128843908E-8
     22.7351737         8.00000000        0.297683775E-7     0.468748440E-4
     22.884072          8.0000000         0.41308405E-18     0.36420564E-18
     22.8853364         16.0000000        0.144878086E-5     0.474371507E-6
     22.9194737         24.0000000        0.350886857E-5     0.149771253E-5
     22.9990539         8.00000000        0.355271223E-7     0.155540525E-8
     23.2905975         4.00000000        0.936541663E-8     0.103921241E-8
     23.295868          2.0000000         0.54813038E-19     0.51964004E-08
     23.357846          4.0000000         0.11977909E-18     0.34367518E-20
     23.363221          2.0000000         0.20163504E-18     0.14403653E-19
     23.556462          8.0000000         0.13347482E-18     0.58274227E-20
     23.5605774         8.00000000        0.688743098E-8     0.405655050E-7
     23.5628450         8.00000000        0.253779252E-4     0.250638041E-7
     23.623014          8.0000000         0.10623634E-08     0.18508085E-09
     23.6505104         8.00000000        0.584176986E-6     0.318783250E-6
     23.6528980         8.00000000        0.650301894E-6     0.348970952E-6
     23.658205          8.0000000         0.36960649E-18     0.34836783E-19
     23.8772255         16.0000000        0.327184114E-3     0.205678925E-8
     23.878062          8.0000000         0.31520812E-03     0.17701599E-09
     23.886894          8.0000000         0.12799381E-04     0.94794312E-09
     23.940877          2.0000000         0.52753497E-21     0.17755014E-03
     23.987412          4.0000000         0.14729832E-20     0.10915338E-18
     23.989982          6.0000000         0.74910336E-10     0.19009925E-03
     24.011681          4.0000000         0.15622141E-09     0.35256272E-03
     24.014248          4.0000000         0.61840253E-20     0.38668230E-18
     24.028909          2.0000000         0.22066656E-02     0.34502180E-22
     24.043402          6.0000000         0.15973879E-02     0.32791822E-09
     24.047957          2.0000000         0.10266962E-21     0.51039560E-18
     24.092886          2.0000000         0.23627994E-21     0.55516227E-03
     24.096666          4.0000000         0.50265934E-19     0.14143897E-18
     24.110466          4.0000000         0.61661007E-18     0.69015639E-20
     24.114507          4.0000000         0.19340902E-21     0.64932735E-20
     24.117073          4.0000000         0.26946632E-11     0.96088394E-04
     24.258723          4.0000000         0.11293272E-18     0.37481473E-21
     24.273932          2.0000000         0.20686790E-03     0.65231094E-22
     24.304906          2.0000000         0.14737132E-20     0.17074935E-17
     24.3259719         4.00000000        0.176653359E-5     0.187679542E-6
     24.341285          2.0000000         0.31410069E-18     0.20462185E-21
     24.354417          6.0000000         0.12810549E-09     0.43937282E-05
     24.357183          4.0000000         0.75584606E-20     0.94052515E-18
     24.559712          2.0000000         0.14795837E-18     0.10094227E-21
     24.589500          8.0000000         0.66406454E-05     0.23202165E-09
     24.614903          2.0000000         0.50371234E-19     0.79401537E-22
     24.627065          2.0000000         0.95256056E-19     0.14045519E-06
     24.6322356         8.00000000        0.256420080E-5     0.112004977E-5
     24.6433193         8.00000000        0.560007533E-7     0.862367658E-5
     24.6567489         8.00000000        0.756284148E-7     0.396829354E-7
     24.682255          2.0000000         0.48973550E-06     0.13824262E-19
     24.902919          2.0000000         0.10610302E-07     0.56500013E-19
     24.918018          4.0000000         0.12080074E-17     0.17630721E-19
     24.942287          4.0000000         0.10117482E-09     0.30151274E-06
     24.9763306         8.00000000        0.140435971E-7     0.180372376E-3
     25.005815          2.0000000         0.27405576E-17     0.67818844E-06
     25.009999          2.0000000         0.18890972E-18     0.29226347E-19
     25.045113          4.0000000         0.12757919E-18     0.19337617E-19
     25.2612306         8.00000000        0.162379257E-5     0.212062263E-7
     25.266948          2.0000000         0.28970676E-17     0.38287314E-20
     25.2723143         8.00000000        0.242413410E-5     0.587975427E-8
     25.2852221         4.00000000        0.156153033E-5     0.394947025E-8
     25.515617          8.0000000         0.13169015E-09     0.45278215E-05
     25.5234996         8.00000000        0.377239883E-8     0.369565763E-5
     25.6053256         8.00000000        0.164861766E-7     0.133256348E-8
     25.635960          2.0000000         0.41239548E-16     0.12819041E-07
     25.670638          4.0000000         0.89173371E-17     0.32459374E-19
     25.6949070         4.00000000        0.756021131E-6     0.141064858E-7
     25.738855          2.0000000         0.19724896E-05     0.45165118E-19
     25.743040          2.0000000         0.11430861E-16     0.63299786E-20
     25.797733          4.0000000         0.15392606E-17     0.11503538E-18
     25.880983          2.0000000         0.84202472E-17     0.76420343E-07
     25.8861436         4.00000000        0.512572510E-6     0.224115632E-7
     25.910413          4.0000000         0.12111535E-15     0.15567919E-20
     25.983879          2.0000000         0.25802885E-06     0.21846878E-20
     25.988063          2.0000000         0.56147565E-17     0.95403947E-19
     25.999989          2.0000000         0.49210523E-16     0.21184328E-20
     26.0132389         4.00000000        0.310789453E-7     0.494895480E-8
     26.037842          4.0000000         0.55253630E-09     0.14361794E-08
     26.1446120         8.00000000        0.259043330E-5     0.274949499E-6
     26.1524946         8.00000000        0.200769778E-6     0.593977064E-5
     26.166763          2.0000000         0.21664035E-17     0.48433514E-19
     26.216921          8.0000000         0.11024901E-04     0.20142460E-09
     26.221954          2.0000000         0.36500245E-17     0.23607360E-19
     26.2411899         8.00000000        0.767942319E-5     0.119578927E-8
     26.245012          2.0000000         0.55264685E-16     0.49688132E-21
     26.253348          4.0000000         0.52206808E-16     0.27281704E-20
     26.269659          2.0000000         0.19714776E-18     0.48240812E-19
     26.273843          2.0000000         0.59012913E-04     0.96138446E-19
     26.324849          2.0000000         0.10516117E-18     0.94047566E-20
     26.329034          2.0000000         0.18913456E-17     0.35486716E-07
     26.3440159         8.00000000        0.286477022E-5     0.101210760E-7
     26.530792          2.0000000         0.88277868E-03     0.91324926E-19
     26.584125          8.0000000         0.47166536E-03     0.25339282E-10
     26.585982          2.0000000         0.32644497E-17     0.53211137E-09
     26.882121          8.0000000         0.46895284E-09     0.48142660E-09
     27.4080642         8.00000000        0.261433952E-8     0.101635794E-5
     27.4238392         8.00000000        0.532899257E-7     0.661065964E-7
     27.511116          8.0000000         0.22414575E-03     0.24735112E-10
     28.037059          8.0000000         0.12616309E-07     0.52790024E-10
     28.052834          8.0000000         0.12317305E-07     0.17450713E-09
     29.594317          6.0000000         0.47586232E-19     0.64053886E-19
     29.661600          6.0000000         0.14147758E-10     0.84218094E-11
     29.724571          6.0000000         0.92652770E-11     0.18152731E-10
     29.791854          6.0000000         0.19360493E-18     0.13964932E-19
     31.201417          2.0000000         0.68905449E-20     0.20409104E-17
     31.2217124         4.00000000        0.116051528E-7     0.261426773E-5
     31.245982          4.0000000         0.21507011E-20     0.99104055E-18
     31.304313          2.0000000         0.52531312E-21     0.35027359E-18
     31.308497          2.0000000         0.32288707E-20     0.32980022E-04
     31.331639          2.0000000         0.26620155E-05     0.45178630E-19
     31.3488076         4.00000000        0.216248152E-8     0.358043897E-4
     31.351982          4.0000000         0.14419061E-18     0.19853822E-18
     31.3762513         4.00000000        0.199434846E-5     0.478681075E-6
     31.434535          2.0000000         0.22385123E-18     0.96674780E-06
     31.438719          2.0000000         0.33333219E-18     0.68573899E-18
     31.479077          4.0000000         0.68161830E-18     0.58086241E-18
     31.565446          2.0000000         0.10304095E-19     0.55319485E-05
     31.588917          4.0000000         0.11793778E-19     0.40738903E-17
     31.695668          2.0000000         0.32727909E-18     0.36658544E-19
     31.7191865         4.00000000        0.374911798E-5     0.959000756E-8
# 
# 01/04/2021 at 17:29 yambo @ unimi-XPS-8930 [start]
# 01/04/2021 at 17:29                        [end]
#
# .-Input file  yambo.in
# | optics                           # [R] Linear Response optical properties
# | dipoles                          # [R] Oscillator strenghts (or dipoles)
# | bse                              # [R][BSE] Bethe Salpeter Equation.
# | ElecTemp= 0.025861         eV    # Electronic Temperature
# | BoseTemp= 0.025861         eV    # Bosonic Temperature
# | FFTGvecs=  603             RL    # [FFT] Plane-waves
# | DIP_Threads= 1                   # [OPENMP/X] Number of threads for dipoles
# | BS_nCPU_LinAlg_INV= 1            # [PARALLEL] CPUs for Linear Algebra (if -1 it is automatically set)
# | BS_nCPU_LinAlg_DIAGO= 1          # [PARALLEL] CPUs for Linear Algebra (if -1 it is automatically set)
# | X_Threads= 1                     # [OPENMP/X] Number of threads for response functions
# | K_Threads= 1                     # [OPENMP/BSK] Number of threads for response functions
# | BSEmod= "retarded"               # [BSE] resonant/retarded/coupling
# | BSKmod= "IP"                     # [BSE] IP/Hartree/HF/ALDA/SEX/BSfxc
# | % DipBands
# |   1 | 18 |                           # [DIP] Bands range for dipoles
# | %
# | DipComputed= "R V P Spin"        # [DIP] [default R P V; extra P2 Spin Orb]
# | BSENGexx= 3151             RL    # [BSK] Exchange components
# | BSEprop= "magnons esrt"          # [BSS] abs/kerr/magn/dichr trace
# | % BSEQptR
# |  1 | 1 |                             # [BSK] Transferred momenta range
# | %
# | % BSEBands
# |   1 | 18 |                           # [BSK] Bands range
# | %
# | % BEnRange
# | -10.00000 | 10.00000 |         eV    # [BSS] Energy range
# | %
# | % BDmRange
# |  0.100000 | 0.100000 |         eV    # [BSS] Damping range
# | %
# | BEnSteps=  5001                  # [BSS] Energy steps
# | % BLongDir
# |   0.00000    | 0.100000E-4 |  0.00000    # [BSS] [cc] Electric Field
# | %
