#                                                           
#   __   __     _        __  __       ____      U  ___  u   
#   \ \ / / U  /"\  U u |" \/ "| u U | __") u    \/"_ \/    
#    \ V /   \/ _ \/   \| |\/| |/   \|  _ \/     | | | |    
#   U_|"|_u  / ___ \    | |  | |     | |_) | .-,_| |_| |    
#     |_|   /_/   \_\   |_|  |_|     |____/   \_)-\___/     
# .-,//|(_   \\    >>  <<,-,,-.     _|| \\_        \\       
#  \_) (__) (__)  (__)  (./  \.)   (__) (__)      (__)      
#                                                           
#                                                           
#        Version 4.0.2 Revision 13729 Hash 11cdf98          
#                        MPI Build                          
#                http://www.yambo-code.org                  
#
# Joint density of states @ Q(1) [q->0 direction] :0.1000E-4  0.000     0.000   
#
# - Energies      are +AMGB (for 2D systems)(C)+Scissor
# - The Green`s function is resonant -
#
#   BSK|Identifier              :980
#      |Dimension               :80
#      |Bands                   :1 - 2
#      |Exchange           [res]: yes
#      |Correlation        [res]: yes
#      |Kernel`s coupling       : no
#      |Exchange           [cpl]: no
#      |Correlation        [cpl]: no
#      |W interaction is bare   : no
#      |ALDA kernel in R-space  : no
#      |RL vectors    [exchange]:8493
#      |RL vectors [correlation]:111
#      |E/h energy range    [ev]:-1.000000 - -1.000000
#      |Coupling range     [o/o]: 100.0000 -  100.0000
#    W |Interaction is diagonal : no
#      |Matrix size             :119
#      |Bands                   :1 - 2
#      |e/h energy range    [ev]:-1.000000 - -1.000000
#      |Poles              [o/o]: 100.0000
#      |RL vectors in the sum   :8493
#      |[r,Vnl] included        : yes
#      |Field direction         :0.1000E-4  0.000000  0.000000
#      |Coulomb Cutoff          :none
#      |xc-Kernel               :none
#   RIM|RL components      [col]:0
#      |Random points      [col]:0
#
#  E/ev[1]    jdos-Im[2] jdos-Re[3] jdoso-Im[4]jdoso-Re[5]jdos`-Im[6]jdos`-Re[7]
#
  0.000     0.1400E-2  0.2112E-1  0.2045E-3  0.2091E-1
 0.1001E-1  0.1397E-2  0.2126E-1  0.2050E-3  0.2093E-1
 0.2002E-1  0.1394E-2  0.2139E-1  0.2055E-3  0.2095E-1
 0.3003E-1  0.1393E-2  0.2153E-1  0.2059E-3  0.2097E-1
 0.4004E-1  0.1392E-2  0.2167E-1  0.2064E-3  0.2099E-1
 0.5005E-1  0.1393E-2  0.2180E-1  0.2069E-3  0.2101E-1
 0.6006E-1  0.1394E-2  0.2194E-1  0.2073E-3  0.2103E-1
 0.7007E-1  0.1396E-2  0.2207E-1  0.2078E-3  0.2105E-1
 0.8008E-1  0.1400E-2  0.2221E-1  0.2083E-3  0.2107E-1
 0.9009E-1  0.1404E-2  0.2235E-1  0.2088E-3  0.2110E-1
 0.1001     0.1409E-2  0.2249E-1  0.2092E-3  0.2112E-1
 0.1101     0.1415E-2  0.2262E-1  0.2097E-3  0.2114E-1
 0.1201     0.1422E-2  0.2276E-1  0.2102E-3  0.2116E-1
 0.1301     0.1431E-2  0.2290E-1  0.2107E-3  0.2118E-1
 0.1401     0.1440E-2  0.2304E-1  0.2112E-3  0.2120E-1
 0.1502     0.1450E-2  0.2318E-1  0.2117E-3  0.2122E-1
 0.1602     0.1461E-2  0.2332E-1  0.2121E-3  0.2124E-1
 0.1702     0.1474E-2  0.2347E-1  0.2126E-3  0.2126E-1
 0.1802     0.1488E-2  0.2361E-1  0.2131E-3  0.2129E-1
 0.1902     0.1502E-2  0.2376E-1  0.2136E-3  0.2131E-1
 0.2002     0.1518E-2  0.2390E-1  0.2141E-3  0.2133E-1
 0.2102     0.1536E-2  0.2405E-1  0.2146E-3  0.2135E-1
 0.2202     0.1554E-2  0.2420E-1  0.2151E-3  0.2137E-1
 0.2302     0.1574E-2  0.2435E-1  0.2156E-3  0.2139E-1
 0.2402     0.1596E-2  0.2451E-1  0.2161E-3  0.2141E-1
 0.2503     0.1619E-2  0.2466E-1  0.2166E-3  0.2144E-1
 0.2603     0.1643E-2  0.2482E-1  0.2171E-3  0.2146E-1
 0.2703     0.1670E-2  0.2498E-1  0.2177E-3  0.2148E-1
 0.2803     0.1698E-2  0.2514E-1  0.2182E-3  0.2150E-1
 0.2903     0.1727E-2  0.2531E-1  0.2187E-3  0.2152E-1
 0.3003     0.1759E-2  0.2548E-1  0.2192E-3  0.2154E-1
 0.3103     0.1793E-2  0.2565E-1  0.2197E-3  0.2157E-1
 0.3203     0.1830E-2  0.2582E-1  0.2202E-3  0.2159E-1
 0.3303     0.1868E-2  0.2600E-1  0.2208E-3  0.2161E-1
 0.3403     0.1909E-2  0.2618E-1  0.2213E-3  0.2163E-1
 0.3504     0.1953E-2  0.2636E-1  0.2218E-3  0.2166E-1
 0.3604     0.2000E-2  0.2655E-1  0.2224E-3  0.2168E-1
 0.3704     0.2050E-2  0.2674E-1  0.2229E-3  0.2170E-1
 0.3804     0.2103E-2  0.2693E-1  0.2234E-3  0.2172E-1
 0.3904     0.2160E-2  0.2713E-1  0.2240E-3  0.2174E-1
 0.4004     0.2221E-2  0.2734E-1  0.2245E-3  0.2177E-1
 0.4104     0.2286E-2  0.2755E-1  0.2250E-3  0.2179E-1
 0.4204     0.2356E-2  0.2776E-1  0.2256E-3  0.2181E-1
 0.4304     0.2431E-2  0.2798E-1  0.2261E-3  0.2183E-1
 0.4404     0.2511E-2  0.2821E-1  0.2267E-3  0.2186E-1
 0.4505     0.2597E-2  0.2844E-1  0.2272E-3  0.2188E-1
 0.4605     0.2689E-2  0.2868E-1  0.2278E-3  0.2190E-1
 0.4705     0.2789E-2  0.2893E-1  0.2283E-3  0.2193E-1
 0.4805     0.2896E-2  0.2919E-1  0.2289E-3  0.2195E-1
 0.4905     0.3011E-2  0.2945E-1  0.2295E-3  0.2197E-1
 0.5005     0.3137E-2  0.2972E-1  0.2300E-3  0.2199E-1
 0.5105     0.3272E-2  0.3000E-1  0.2306E-3  0.2202E-1
 0.5205     0.3419E-2  0.3029E-1  0.2311E-3  0.2204E-1
 0.5305     0.3578E-2  0.3059E-1  0.2317E-3  0.2206E-1
 0.5405     0.3752E-2  0.3090E-1  0.2323E-3  0.2209E-1
 0.5506     0.3941E-2  0.3122E-1  0.2329E-3  0.2211E-1
 0.5606     0.4148E-2  0.3155E-1  0.2334E-3  0.2213E-1
 0.5706     0.4375E-2  0.3190E-1  0.2340E-3  0.2216E-1
 0.5806     0.4624E-2  0.3225E-1  0.2346E-3  0.2218E-1
 0.5906     0.4897E-2  0.3262E-1  0.2352E-3  0.2220E-1
 0.6006     0.5198E-2  0.3301E-1  0.2358E-3  0.2223E-1
 0.6106     0.5532E-2  0.3340E-1  0.2364E-3  0.2225E-1
 0.6206     0.5900E-2  0.3381E-1  0.2370E-3  0.2227E-1
 0.6306     0.6310E-2  0.3424E-1  0.2375E-3  0.2230E-1
 0.6406     0.6766E-2  0.3467E-1  0.2381E-3  0.2232E-1
 0.6507     0.7275E-2  0.3512E-1  0.2387E-3  0.2235E-1
 0.6607     0.7843E-2  0.3557E-1  0.2393E-3  0.2237E-1
 0.6707     0.8480E-2  0.3602E-1  0.2399E-3  0.2239E-1
 0.6807     0.9195E-2  0.3648E-1  0.2406E-3  0.2242E-1
 0.6907     0.9999E-2  0.3693E-1  0.2412E-3  0.2244E-1
 0.7007     0.1090E-1  0.3736E-1  0.2418E-3  0.2247E-1
 0.7107     0.1192E-1  0.3776E-1  0.2424E-3  0.2249E-1
 0.7207     0.1306E-1  0.3811E-1  0.2430E-3  0.2251E-1
 0.7307     0.1434E-1  0.3838E-1  0.2436E-3  0.2254E-1
 0.7407     0.1577E-1  0.3855E-1  0.2443E-3  0.2256E-1
 0.7508     0.1735E-1  0.3857E-1  0.2449E-3  0.2259E-1
 0.7608     0.1907E-1  0.3840E-1  0.2455E-3  0.2261E-1
 0.7708     0.2093E-1  0.3798E-1  0.2461E-3  0.2264E-1
 0.7808     0.2288E-1  0.3725E-1  0.2468E-3  0.2266E-1
 0.7908     0.2486E-1  0.3614E-1  0.2474E-3  0.2269E-1
 0.8008     0.2677E-1  0.3461E-1  0.2480E-3  0.2271E-1
 0.8108     0.2850E-1  0.3264E-1  0.2487E-3  0.2274E-1
 0.8208     0.2991E-1  0.3026E-1  0.2493E-3  0.2276E-1
 0.8308     0.3087E-1  0.2755E-1  0.2500E-3  0.2279E-1
 0.8408     0.3126E-1  0.2464E-1  0.2506E-3  0.2281E-1
 0.8509     0.3106E-1  0.2170E-1  0.2513E-3  0.2284E-1
 0.8609     0.3027E-1  0.1891E-1  0.2519E-3  0.2286E-1
 0.8709     0.2900E-1  0.1642E-1  0.2526E-3  0.2289E-1
 0.8809     0.2737E-1  0.1433E-1  0.2533E-3  0.2291E-1
 0.8909     0.2551E-1  0.1268E-1  0.2539E-3  0.2294E-1
 0.9009     0.2356E-1  0.1146E-1  0.2546E-3  0.2296E-1
 0.9109     0.2161E-1  0.1063E-1  0.2553E-3  0.2299E-1
 0.9209     0.1973E-1  0.1014E-1  0.2560E-3  0.2301E-1
 0.9309     0.1798E-1  0.9910E-2  0.2566E-3  0.2304E-1
 0.9409     0.1638E-1  0.9896E-2  0.2573E-3  0.2307E-1
 0.9510     0.1492E-1  0.1004E-1  0.2580E-3  0.2309E-1
 0.9610     0.1362E-1  0.1031E-1  0.2587E-3  0.2312E-1
 0.9710     0.1245E-1  0.1066E-1  0.2594E-3  0.2314E-1
 0.9810     0.1142E-1  0.1106E-1  0.2601E-3  0.2317E-1
 0.9910     0.1050E-1  0.1151E-1  0.2608E-3  0.2319E-1
  1.001     0.9684E-2  0.1197E-1  0.2615E-3  0.2322E-1
  1.011     0.8962E-2  0.1246E-1  0.2622E-3  0.2325E-1
  1.021     0.8322E-2  0.1294E-1  0.2629E-3  0.2327E-1
  1.031     0.7753E-2  0.1342E-1  0.2636E-3  0.2330E-1
  1.041     0.7248E-2  0.1390E-1  0.2643E-3  0.2333E-1
  1.051     0.6797E-2  0.1437E-1  0.2650E-3  0.2335E-1
  1.061     0.6395E-2  0.1483E-1  0.2657E-3  0.2338E-1
  1.071     0.6036E-2  0.1528E-1  0.2665E-3  0.2341E-1
  1.081     0.5715E-2  0.1572E-1  0.2672E-3  0.2343E-1
  1.091     0.5427E-2  0.1615E-1  0.2679E-3  0.2346E-1
  1.101     0.5170E-2  0.1657E-1  0.2687E-3  0.2349E-1
  1.111     0.4938E-2  0.1697E-1  0.2694E-3  0.2351E-1
  1.121     0.4730E-2  0.1737E-1  0.2701E-3  0.2354E-1
  1.131     0.4544E-2  0.1776E-1  0.2709E-3  0.2357E-1
  1.141     0.4376E-2  0.1813E-1  0.2716E-3  0.2359E-1
  1.151     0.4226E-2  0.1850E-1  0.2724E-3  0.2362E-1
  1.161     0.4091E-2  0.1886E-1  0.2731E-3  0.2365E-1
  1.171     0.3971E-2  0.1921E-1  0.2739E-3  0.2368E-1
  1.181     0.3864E-2  0.1956E-1  0.2747E-3  0.2370E-1
  1.191     0.3769E-2  0.1990E-1  0.2754E-3  0.2373E-1
  1.201     0.3684E-2  0.2023E-1  0.2762E-3  0.2376E-1
  1.211     0.3611E-2  0.2056E-1  0.2770E-3  0.2379E-1
  1.221     0.3546E-2  0.2088E-1  0.2778E-3  0.2381E-1
  1.231     0.3491E-2  0.2121E-1  0.2785E-3  0.2384E-1
  1.241     0.3445E-2  0.2152E-1  0.2793E-3  0.2387E-1
  1.251     0.3406E-2  0.2184E-1  0.2801E-3  0.2390E-1
  1.261     0.3376E-2  0.2215E-1  0.2809E-3  0.2393E-1
  1.271     0.3353E-2  0.2246E-1  0.2817E-3  0.2395E-1
  1.281     0.3337E-2  0.2277E-1  0.2825E-3  0.2398E-1
  1.291     0.3329E-2  0.2308E-1  0.2833E-3  0.2401E-1
  1.301     0.3327E-2  0.2338E-1  0.2841E-3  0.2404E-1
  1.311     0.3333E-2  0.2369E-1  0.2849E-3  0.2407E-1
  1.321     0.3346E-2  0.2400E-1  0.2858E-3  0.2410E-1
  1.331     0.3366E-2  0.2431E-1  0.2866E-3  0.2412E-1
  1.341     0.3393E-2  0.2462E-1  0.2874E-3  0.2415E-1
  1.351     0.3428E-2  0.2494E-1  0.2882E-3  0.2418E-1
  1.361     0.3471E-2  0.2525E-1  0.2891E-3  0.2421E-1
  1.371     0.3522E-2  0.2557E-1  0.2899E-3  0.2424E-1
  1.381     0.3581E-2  0.2590E-1  0.2907E-3  0.2427E-1
  1.391     0.3650E-2  0.2623E-1  0.2916E-3  0.2430E-1
  1.401     0.3728E-2  0.2656E-1  0.2924E-3  0.2433E-1
  1.411     0.3816E-2  0.2690E-1  0.2933E-3  0.2436E-1
  1.421     0.3915E-2  0.2724E-1  0.2942E-3  0.2439E-1
  1.431     0.4027E-2  0.2759E-1  0.2950E-3  0.2442E-1
  1.441     0.4151E-2  0.2795E-1  0.2959E-3  0.2444E-1
  1.451     0.4289E-2  0.2832E-1  0.2968E-3  0.2447E-1
  1.461     0.4443E-2  0.2869E-1  0.2976E-3  0.2450E-1
  1.471     0.4614E-2  0.2908E-1  0.2985E-3  0.2453E-1
  1.481     0.4804E-2  0.2947E-1  0.2994E-3  0.2456E-1
  1.491     0.5015E-2  0.2988E-1  0.3003E-3  0.2459E-1
  1.502     0.5250E-2  0.3029E-1  0.3012E-3  0.2462E-1
  1.512     0.5510E-2  0.3072E-1  0.3021E-3  0.2465E-1
  1.522     0.5801E-2  0.3116E-1  0.3030E-3  0.2468E-1
  1.532     0.6124E-2  0.3161E-1  0.3039E-3  0.2471E-1
  1.542     0.6484E-2  0.3207E-1  0.3048E-3  0.2475E-1
  1.552     0.6887E-2  0.3254E-1  0.3058E-3  0.2478E-1
  1.562     0.7338E-2  0.3302E-1  0.3067E-3  0.2481E-1
  1.572     0.7844E-2  0.3352E-1  0.3076E-3  0.2484E-1
  1.582     0.8412E-2  0.3401E-1  0.3085E-3  0.2487E-1
  1.592     0.9050E-2  0.3451E-1  0.3095E-3  0.2490E-1
  1.602     0.9769E-2  0.3501E-1  0.3104E-3  0.2493E-1
  1.612     0.1058E-1  0.3550E-1  0.3114E-3  0.2496E-1
  1.622     0.1149E-1  0.3596E-1  0.3123E-3  0.2499E-1
  1.632     0.1252E-1  0.3639E-1  0.3133E-3  0.2502E-1
  1.642     0.1368E-1  0.3676E-1  0.3143E-3  0.2505E-1
  1.652     0.1498E-1  0.3706E-1  0.3152E-3  0.2509E-1
  1.662     0.1642E-1  0.3724E-1  0.3162E-3  0.2512E-1
  1.672     0.1802E-1  0.3726E-1  0.3172E-3  0.2515E-1
  1.682     0.1976E-1  0.3708E-1  0.3182E-3  0.2518E-1
  1.692     0.2163E-1  0.3664E-1  0.3192E-3  0.2521E-1
  1.702     0.2358E-1  0.3587E-1  0.3202E-3  0.2525E-1
  1.712     0.2555E-1  0.3471E-1  0.3212E-3  0.2528E-1
  1.722     0.2743E-1  0.3313E-1  0.3222E-3  0.2531E-1
  1.732     0.2910E-1  0.3111E-1  0.3232E-3  0.2534E-1
  1.742     0.3042E-1  0.2868E-1  0.3242E-3  0.2537E-1
  1.752     0.3127E-1  0.2595E-1  0.3252E-3  0.2541E-1
  1.762     0.3154E-1  0.2304E-1  0.3263E-3  0.2544E-1
  1.772     0.3122E-1  0.2015E-1  0.3273E-3  0.2547E-1
  1.782     0.3032E-1  0.1744E-1  0.3283E-3  0.2550E-1
  1.792     0.2896E-1  0.1504E-1  0.3294E-3  0.2554E-1
  1.802     0.2727E-1  0.1306E-1  0.3304E-3  0.2557E-1
  1.812     0.2537E-1  0.1152E-1  0.3315E-3  0.2560E-1
  1.822     0.2341E-1  0.1040E-1  0.3326E-3  0.2564E-1
  1.832     0.2146E-1  0.9662E-2  0.3336E-3  0.2567E-1
  1.842     0.1960E-1  0.9245E-2  0.3347E-3  0.2570E-1
  1.852     0.1787E-1  0.9085E-2  0.3358E-3  0.2574E-1
  1.862     0.1629E-1  0.9126E-2  0.3369E-3  0.2577E-1
  1.872     0.1486E-1  0.9318E-2  0.3380E-3  0.2580E-1
  1.882     0.1357E-1  0.9621E-2  0.3391E-3  0.2584E-1
  1.892     0.1243E-1  0.1000E-1  0.3402E-3  0.2587E-1
  1.902     0.1141E-1  0.1043E-1  0.3413E-3  0.2591E-1
  1.912     0.1050E-1  0.1090E-1  0.3424E-3  0.2594E-1
  1.922     0.9702E-2  0.1139E-1  0.3436E-3  0.2598E-1
  1.932     0.8990E-2  0.1189E-1  0.3447E-3  0.2601E-1
  1.942     0.8357E-2  0.1239E-1  0.3459E-3  0.2604E-1
  1.952     0.7794E-2  0.1289E-1  0.3470E-3  0.2608E-1
  1.962     0.7293E-2  0.1338E-1  0.3482E-3  0.2611E-1
  1.972     0.6845E-2  0.1386E-1  0.3493E-3  0.2615E-1
  1.982     0.6444E-2  0.1433E-1  0.3505E-3  0.2618E-1
  1.992     0.6086E-2  0.1479E-1  0.3517E-3  0.2622E-1
  2.002     0.5764E-2  0.1524E-1  0.3529E-3  0.2625E-1
  2.012     0.5474E-2  0.1568E-1  0.3540E-3  0.2629E-1
  2.022     0.5213E-2  0.1610E-1  0.3552E-3  0.2632E-1
  2.032     0.4978E-2  0.1652E-1  0.3564E-3  0.2636E-1
  2.042     0.4766E-2  0.1692E-1  0.3577E-3  0.2640E-1
  2.052     0.4575E-2  0.1731E-1  0.3589E-3  0.2643E-1
  2.062     0.4401E-2  0.1769E-1  0.3601E-3  0.2647E-1
  2.072     0.4245E-2  0.1807E-1  0.3613E-3  0.2650E-1
  2.082     0.4103E-2  0.1843E-1  0.3626E-3  0.2654E-1
  2.092     0.3975E-2  0.1879E-1  0.3638E-3  0.2658E-1
  2.102     0.3859E-2  0.1914E-1  0.3651E-3  0.2661E-1
  2.112     0.3754E-2  0.1948E-1  0.3664E-3  0.2665E-1
  2.122     0.3660E-2  0.1981E-1  0.3676E-3  0.2669E-1
  2.132     0.3576E-2  0.2014E-1  0.3689E-3  0.2672E-1
  2.142     0.3500E-2  0.2046E-1  0.3702E-3  0.2676E-1
  2.152     0.3432E-2  0.2078E-1  0.3715E-3  0.2680E-1
  2.162     0.3372E-2  0.2110E-1  0.3728E-3  0.2683E-1
  2.172     0.3319E-2  0.2141E-1  0.3741E-3  0.2687E-1
  2.182     0.3273E-2  0.2171E-1  0.3754E-3  0.2691E-1
  2.192     0.3233E-2  0.2202E-1  0.3768E-3  0.2695E-1
  2.202     0.3200E-2  0.2232E-1  0.3781E-3  0.2698E-1
  2.212     0.3172E-2  0.2262E-1  0.3794E-3  0.2702E-1
  2.222     0.3150E-2  0.2291E-1  0.3808E-3  0.2706E-1
  2.232     0.3133E-2  0.2321E-1  0.3822E-3  0.2710E-1
  2.242     0.3121E-2  0.2350E-1  0.3835E-3  0.2714E-1
  2.252     0.3115E-2  0.2380E-1  0.3849E-3  0.2718E-1
  2.262     0.3114E-2  0.2409E-1  0.3863E-3  0.2721E-1
  2.272     0.3118E-2  0.2438E-1  0.3877E-3  0.2725E-1
  2.282     0.3128E-2  0.2468E-1  0.3891E-3  0.2729E-1
  2.292     0.3142E-2  0.2497E-1  0.3905E-3  0.2733E-1
  2.302     0.3162E-2  0.2527E-1  0.3920E-3  0.2737E-1
  2.312     0.3187E-2  0.2557E-1  0.3934E-3  0.2741E-1
  2.322     0.3217E-2  0.2587E-1  0.3948E-3  0.2745E-1
  2.332     0.3254E-2  0.2617E-1  0.3963E-3  0.2749E-1
  2.342     0.3296E-2  0.2648E-1  0.3978E-3  0.2753E-1
  2.352     0.3345E-2  0.2679E-1  0.3992E-3  0.2757E-1
  2.362     0.3400E-2  0.2710E-1  0.4007E-3  0.2761E-1
  2.372     0.3462E-2  0.2742E-1  0.4022E-3  0.2765E-1
  2.382     0.3531E-2  0.2774E-1  0.4037E-3  0.2769E-1
  2.392     0.3609E-2  0.2807E-1  0.4052E-3  0.2773E-1
  2.402     0.3695E-2  0.2840E-1  0.4067E-3  0.2777E-1
  2.412     0.3790E-2  0.2874E-1  0.4083E-3  0.2781E-1
  2.422     0.3894E-2  0.2909E-1  0.4098E-3  0.2785E-1
  2.432     0.4010E-2  0.2944E-1  0.4114E-3  0.2789E-1
  2.442     0.4138E-2  0.2981E-1  0.4129E-3  0.2793E-1
  2.452     0.4278E-2  0.3018E-1  0.4145E-3  0.2797E-1
  2.462     0.4433E-2  0.3056E-1  0.4161E-3  0.2802E-1
  2.472     0.4603E-2  0.3095E-1  0.4177E-3  0.2806E-1
  2.482     0.4791E-2  0.3135E-1  0.4193E-3  0.2810E-1
  2.492     0.4998E-2  0.3176E-1  0.4209E-3  0.2814E-1
  2.503     0.5226E-2  0.3218E-1  0.4226E-3  0.2818E-1
  2.513     0.5479E-2  0.3261E-1  0.4242E-3  0.2823E-1
  2.523     0.5758E-2  0.3306E-1  0.4259E-3  0.2827E-1
  2.533     0.6069E-2  0.3352E-1  0.4275E-3  0.2831E-1
  2.543     0.6413E-2  0.3399E-1  0.4292E-3  0.2835E-1
  2.553     0.6796E-2  0.3447E-1  0.4309E-3  0.2840E-1
  2.563     0.7224E-2  0.3497E-1  0.4326E-3  0.2844E-1
  2.573     0.7701E-2  0.3547E-1  0.4343E-3  0.2848E-1
  2.583     0.8236E-2  0.3599E-1  0.4360E-3  0.2853E-1
  2.593     0.8835E-2  0.3651E-1  0.4378E-3  0.2857E-1
  2.603     0.9508E-2  0.3703E-1  0.4395E-3  0.2861E-1
  2.613     0.1026E-1  0.3755E-1  0.4413E-3  0.2866E-1
  2.623     0.1112E-1  0.3805E-1  0.4430E-3  0.2870E-1
  2.633     0.1208E-1  0.3853E-1  0.4448E-3  0.2875E-1
  2.643     0.1316E-1  0.3897E-1  0.4466E-3  0.2879E-1
  2.653     0.1437E-1  0.3935E-1  0.4484E-3  0.2884E-1
  2.663     0.1572E-1  0.3964E-1  0.4503E-3  0.2888E-1
  2.673     0.1723E-1  0.3980E-1  0.4521E-3  0.2893E-1
  2.683     0.1889E-1  0.3979E-1  0.4540E-3  0.2897E-1
  2.693     0.2068E-1  0.3956E-1  0.4558E-3  0.2902E-1
  2.703     0.2260E-1  0.3905E-1  0.4577E-3  0.2906E-1
  2.713     0.2457E-1  0.3819E-1  0.4596E-3  0.2911E-1
  2.723     0.2653E-1  0.3693E-1  0.4615E-3  0.2915E-1
  2.733     0.2837E-1  0.3524E-1  0.4634E-3  0.2920E-1
  2.743     0.2996E-1  0.3312E-1  0.4654E-3  0.2925E-1
  2.753     0.3115E-1  0.3061E-1  0.4673E-3  0.2929E-1
  2.763     0.3183E-1  0.2784E-1  0.4693E-3  0.2934E-1
  2.773     0.3192E-1  0.2496E-1  0.4713E-3  0.2939E-1
  2.783     0.3141E-1  0.2215E-1  0.4733E-3  0.2944E-1
  2.793     0.3037E-1  0.1957E-1  0.4753E-3  0.2948E-1
  2.803     0.2890E-1  0.1735E-1  0.4773E-3  0.2953E-1
  2.813     0.2714E-1  0.1556E-1  0.4794E-3  0.2958E-1
  2.823     0.2522E-1  0.1420E-1  0.4814E-3  0.2963E-1
  2.833     0.2327E-1  0.1326E-1  0.4835E-3  0.2967E-1
  2.843     0.2137E-1  0.1268E-1  0.4856E-3  0.2972E-1
  2.853     0.1957E-1  0.1241E-1  0.4877E-3  0.2977E-1
  2.863     0.1790E-1  0.1237E-1  0.4898E-3  0.2982E-1
  2.873     0.1639E-1  0.1252E-1  0.4920E-3  0.2987E-1
  2.883     0.1503E-1  0.1281E-1  0.4941E-3  0.2992E-1
  2.893     0.1381E-1  0.1320E-1  0.4963E-3  0.2997E-1
  2.903     0.1273E-1  0.1366E-1  0.4985E-3  0.3002E-1
  2.913     0.1178E-1  0.1417E-1  0.5007E-3  0.3007E-1
  2.923     0.1094E-1  0.1471E-1  0.5029E-3  0.3012E-1
  2.933     0.1019E-1  0.1527E-1  0.5052E-3  0.3017E-1
  2.943     0.9537E-2  0.1584E-1  0.5074E-3  0.3022E-1
  2.953     0.8960E-2  0.1641E-1  0.5097E-3  0.3027E-1
  2.963     0.8451E-2  0.1698E-1  0.5120E-3  0.3032E-1
  2.973     0.8003E-2  0.1755E-1  0.5143E-3  0.3037E-1
  2.983     0.7609E-2  0.1810E-1  0.5167E-3  0.3042E-1
  2.993     0.7262E-2  0.1866E-1  0.5190E-3  0.3048E-1
  3.003     0.6959E-2  0.1920E-1  0.5214E-3  0.3053E-1
  3.013     0.6693E-2  0.1973E-1  0.5238E-3  0.3058E-1
  3.023     0.6461E-2  0.2026E-1  0.5262E-3  0.3063E-1
  3.033     0.6261E-2  0.2078E-1  0.5287E-3  0.3069E-1
  3.043     0.6089E-2  0.2129E-1  0.5311E-3  0.3074E-1
  3.053     0.5943E-2  0.2180E-1  0.5336E-3  0.3079E-1
  3.063     0.5821E-2  0.2230E-1  0.5361E-3  0.3084E-1
  3.073     0.5722E-2  0.2279E-1  0.5386E-3  0.3090E-1
  3.083     0.5644E-2  0.2328E-1  0.5412E-3  0.3095E-1
  3.093     0.5586E-2  0.2377E-1  0.5437E-3  0.3101E-1
  3.103     0.5548E-2  0.2426E-1  0.5463E-3  0.3106E-1
  3.113     0.5529E-2  0.2474E-1  0.5489E-3  0.3112E-1
  3.123     0.5529E-2  0.2523E-1  0.5516E-3  0.3117E-1
  3.133     0.5547E-2  0.2571E-1  0.5542E-3  0.3123E-1
  3.143     0.5584E-2  0.2620E-1  0.5569E-3  0.3128E-1
  3.153     0.5641E-2  0.2669E-1  0.5596E-3  0.3134E-1
  3.163     0.5717E-2  0.2718E-1  0.5623E-3  0.3139E-1
  3.173     0.5814E-2  0.2767E-1  0.5651E-3  0.3145E-1
  3.183     0.5934E-2  0.2818E-1  0.5678E-3  0.3151E-1
  3.193     0.6076E-2  0.2868E-1  0.5706E-3  0.3156E-1
  3.203     0.6244E-2  0.2920E-1  0.5735E-3  0.3162E-1
  3.213     0.6439E-2  0.2972E-1  0.5763E-3  0.3168E-1
  3.223     0.6664E-2  0.3025E-1  0.5792E-3  0.3174E-1
  3.233     0.6922E-2  0.3079E-1  0.5821E-3  0.3179E-1
  3.243     0.7217E-2  0.3134E-1  0.5850E-3  0.3185E-1
  3.253     0.7552E-2  0.3190E-1  0.5880E-3  0.3191E-1
  3.263     0.7932E-2  0.3246E-1  0.5909E-3  0.3197E-1
  3.273     0.8364E-2  0.3304E-1  0.5939E-3  0.3203E-1
  3.283     0.8853E-2  0.3362E-1  0.5970E-3  0.3209E-1
  3.293     0.9408E-2  0.3420E-1  0.6000E-3  0.3215E-1
  3.303     0.1004E-1  0.3478E-1  0.6031E-3  0.3221E-1
  3.313     0.1075E-1  0.3536E-1  0.6062E-3  0.3227E-1
  3.323     0.1155E-1  0.3593E-1  0.6094E-3  0.3233E-1
  3.333     0.1247E-1  0.3647E-1  0.6126E-3  0.3239E-1
  3.343     0.1350E-1  0.3697E-1  0.6158E-3  0.3245E-1
  3.353     0.1466E-1  0.3741E-1  0.6190E-3  0.3251E-1
  3.363     0.1597E-1  0.3776E-1  0.6223E-3  0.3258E-1
  3.373     0.1742E-1  0.3800E-1  0.6256E-3  0.3264E-1
  3.383     0.1903E-1  0.3807E-1  0.6289E-3  0.3270E-1
  3.393     0.2079E-1  0.3792E-1  0.6323E-3  0.3276E-1
  3.403     0.2266E-1  0.3751E-1  0.6357E-3  0.3283E-1
  3.413     0.2461E-1  0.3676E-1  0.6391E-3  0.3289E-1
  3.423     0.2656E-1  0.3561E-1  0.6426E-3  0.3296E-1
  3.433     0.2842E-1  0.3403E-1  0.6461E-3  0.3302E-1
  3.443     0.3004E-1  0.3202E-1  0.6496E-3  0.3308E-1
  3.453     0.3130E-1  0.2961E-1  0.6532E-3  0.3315E-1
  3.463     0.3206E-1  0.2691E-1  0.6568E-3  0.3321E-1
  3.473     0.3224E-1  0.2406E-1  0.6605E-3  0.3328E-1
  3.483     0.3183E-1  0.2125E-1  0.6642E-3  0.3335E-1
  3.493     0.3086E-1  0.1865E-1  0.6679E-3  0.3341E-1
  3.504     0.2944E-1  0.1638E-1  0.6716E-3  0.3348E-1
  3.514     0.2771E-1  0.1453E-1  0.6754E-3  0.3355E-1
  3.524     0.2580E-1  0.1312E-1  0.6793E-3  0.3362E-1
  3.534     0.2383E-1  0.1213E-1  0.6831E-3  0.3368E-1
  3.544     0.2189E-1  0.1151E-1  0.6870E-3  0.3375E-1
  3.554     0.2006E-1  0.1120E-1  0.6910E-3  0.3382E-1
  3.564     0.1835E-1  0.1115E-1  0.6950E-3  0.3389E-1
  3.574     0.1679E-1  0.1128E-1  0.6990E-3  0.3396E-1
  3.584     0.1539E-1  0.1156E-1  0.7031E-3  0.3403E-1
  3.594     0.1413E-1  0.1195E-1  0.7072E-3  0.3410E-1
  3.604     0.1301E-1  0.1241E-1  0.7114E-3  0.3417E-1
  3.614     0.1202E-1  0.1292E-1  0.7156E-3  0.3424E-1
  3.624     0.1114E-1  0.1346E-1  0.7199E-3  0.3431E-1
  3.634     0.1036E-1  0.1403E-1  0.7242E-3  0.3439E-1
  3.644     0.9674E-2  0.1460E-1  0.7285E-3  0.3446E-1
  3.654     0.9064E-2  0.1518E-1  0.7330E-3  0.3453E-1
  3.664     0.8524E-2  0.1575E-1  0.7374E-3  0.3460E-1
  3.674     0.8045E-2  0.1632E-1  0.7419E-3  0.3468E-1
  3.684     0.7620E-2  0.1688E-1  0.7464E-3  0.3475E-1
  3.694     0.7242E-2  0.1743E-1  0.7510E-3  0.3483E-1
  3.704     0.6907E-2  0.1797E-1  0.7557E-3  0.3490E-1
  3.714     0.6609E-2  0.1850E-1  0.7604E-3  0.3498E-1
  3.724     0.6345E-2  0.1902E-1  0.7652E-3  0.3505E-1
  3.734     0.6111E-2  0.1953E-1  0.7700E-3  0.3513E-1
  3.744     0.5903E-2  0.2003E-1  0.7748E-3  0.3521E-1
  3.754     0.5720E-2  0.2052E-1  0.7798E-3  0.3529E-1
  3.764     0.5559E-2  0.2100E-1  0.7848E-3  0.3536E-1
  3.774     0.5418E-2  0.2148E-1  0.7898E-3  0.3544E-1
  3.784     0.5295E-2  0.2195E-1  0.7949E-3  0.3552E-1
  3.794     0.5190E-2  0.2241E-1  0.8001E-3  0.3560E-1
  3.804     0.5101E-2  0.2287E-1  0.8053E-3  0.3568E-1
  3.814     0.5027E-2  0.2332E-1  0.8106E-3  0.3576E-1
  3.824     0.4967E-2  0.2377E-1  0.8159E-3  0.3584E-1
  3.834     0.4920E-2  0.2422E-1  0.8213E-3  0.3593E-1
  3.844     0.4887E-2  0.2466E-1  0.8268E-3  0.3601E-1
  3.854     0.4866E-2  0.2511E-1  0.8323E-3  0.3609E-1
  3.864     0.4858E-2  0.2555E-1  0.8379E-3  0.3617E-1
  3.874     0.4861E-2  0.2599E-1  0.8436E-3  0.3626E-1
  3.884     0.4878E-2  0.2643E-1  0.8494E-3  0.3634E-1
  3.894     0.4907E-2  0.2688E-1  0.8552E-3  0.3643E-1
  3.904     0.4948E-2  0.2732E-1  0.8611E-3  0.3651E-1
  3.914     0.5002E-2  0.2777E-1  0.8671E-3  0.3660E-1
  3.924     0.5071E-2  0.2823E-1  0.8731E-3  0.3669E-1
  3.934     0.5153E-2  0.2868E-1  0.8792E-3  0.3677E-1
  3.944     0.5250E-2  0.2915E-1  0.8854E-3  0.3686E-1
  3.954     0.5364E-2  0.2962E-1  0.8917E-3  0.3695E-1
  3.964     0.5494E-2  0.3009E-1  0.8981E-3  0.3704E-1
  3.974     0.5643E-2  0.3058E-1  0.9045E-3  0.3713E-1
  3.984     0.5813E-2  0.3107E-1  0.9111E-3  0.3722E-1
  3.994     0.6004E-2  0.3157E-1  0.9177E-3  0.3731E-1
  4.004     0.6220E-2  0.3208E-1  0.9244E-3  0.3740E-1
  4.014     0.6463E-2  0.3260E-1  0.9312E-3  0.3750E-1
  4.024     0.6737E-2  0.3313E-1  0.9381E-3  0.3759E-1
  4.034     0.7043E-2  0.3368E-1  0.9450E-3  0.3768E-1
  4.044     0.7387E-2  0.3423E-1  0.9521E-3  0.3778E-1
  4.054     0.7774E-2  0.3479E-1  0.9593E-3  0.3787E-1
  4.064     0.8208E-2  0.3537E-1  0.9666E-3  0.3797E-1
  4.074     0.8696E-2  0.3595E-1  0.9739E-3  0.3807E-1
  4.084     0.9246E-2  0.3654E-1  0.9814E-3  0.3816E-1
  4.094     0.9866E-2  0.3714E-1  0.9890E-3  0.3826E-1
  4.104     0.1056E-1  0.3773E-1  0.9967E-3  0.3836E-1
  4.114     0.1135E-1  0.3831E-1  0.1004E-2  0.3846E-1
  4.124     0.1224E-1  0.3888E-1  0.1012E-2  0.3856E-1
  4.134     0.1324E-1  0.3941E-1  0.1020E-2  0.3866E-1
  4.144     0.1437E-1  0.3990E-1  0.1029E-2  0.3876E-1
  4.154     0.1564E-1  0.4031E-1  0.1037E-2  0.3887E-1
  4.164     0.1706E-1  0.4061E-1  0.1045E-2  0.3897E-1
  4.174     0.1863E-1  0.4078E-1  0.1054E-2  0.3908E-1
  4.184     0.2034E-1  0.4075E-1  0.1062E-2  0.3918E-1
  4.194     0.2219E-1  0.4047E-1  0.1071E-2  0.3929E-1
  4.204     0.2414E-1  0.3988E-1  0.1080E-2  0.3939E-1
  4.214     0.2612E-1  0.3893E-1  0.1089E-2  0.3950E-1
  4.224     0.2805E-1  0.3755E-1  0.1098E-2  0.3961E-1
  4.234     0.2980E-1  0.3573E-1  0.1107E-2  0.3972E-1
  4.244     0.3123E-1  0.3350E-1  0.1117E-2  0.3983E-1
  4.254     0.3222E-1  0.3093E-1  0.1126E-2  0.3994E-1
  4.264     0.3265E-1  0.2816E-1  0.1136E-2  0.4006E-1
  4.274     0.3249E-1  0.2536E-1  0.1146E-2  0.4017E-1
  4.284     0.3174E-1  0.2270E-1  0.1156E-2  0.4029E-1
  4.294     0.3051E-1  0.2033E-1  0.1166E-2  0.4040E-1
  4.304     0.2890E-1  0.1836E-1  0.1177E-2  0.4052E-1
  4.314     0.2707E-1  0.1682E-1  0.1187E-2  0.4064E-1
  4.324     0.2514E-1  0.1572E-1  0.1198E-2  0.4075E-1
  4.334     0.2321E-1  0.1502E-1  0.1209E-2  0.4087E-1
  4.344     0.2136E-1  0.1465E-1  0.1220E-2  0.4100E-1
  4.354     0.1963E-1  0.1456E-1  0.1231E-2  0.4112E-1
  4.364     0.1805E-1  0.1469E-1  0.1243E-2  0.4124E-1
  4.374     0.1662E-1  0.1498E-1  0.1254E-2  0.4136E-1
  4.384     0.1534E-1  0.1540E-1  0.1266E-2  0.4149E-1
  4.394     0.1421E-1  0.1590E-1  0.1278E-2  0.4162E-1
  4.404     0.1321E-1  0.1647E-1  0.1291E-2  0.4174E-1
  4.414     0.1233E-1  0.1707E-1  0.1303E-2  0.4187E-1
  4.424     0.1156E-1  0.1771E-1  0.1316E-2  0.4200E-1
  4.434     0.1089E-1  0.1836E-1  0.1329E-2  0.4214E-1
  4.444     0.1030E-1  0.1902E-1  0.1342E-2  0.4227E-1
  4.454     0.9792E-2  0.1969E-1  0.1355E-2  0.4240E-1
  4.464     0.9351E-2  0.2035E-1  0.1369E-2  0.4254E-1
  4.474     0.8971E-2  0.2101E-1  0.1383E-2  0.4268E-1
  4.484     0.8646E-2  0.2167E-1  0.1397E-2  0.4281E-1
  4.494     0.8371E-2  0.2232E-1  0.1411E-2  0.4295E-1
  4.505     0.8142E-2  0.2297E-1  0.1426E-2  0.4309E-1
  4.515     0.7954E-2  0.2361E-1  0.1441E-2  0.4324E-1
  4.525     0.7806E-2  0.2425E-1  0.1456E-2  0.4338E-1
  4.535     0.7695E-2  0.2488E-1  0.1472E-2  0.4353E-1
  4.545     0.7618E-2  0.2552E-1  0.1488E-2  0.4367E-1
  4.555     0.7576E-2  0.2615E-1  0.1504E-2  0.4382E-1
  4.565     0.7566E-2  0.2678E-1  0.1520E-2  0.4397E-1
  4.575     0.7590E-2  0.2741E-1  0.1537E-2  0.4412E-1
  4.585     0.7646E-2  0.2804E-1  0.1554E-2  0.4428E-1
  4.595     0.7737E-2  0.2868E-1  0.1572E-2  0.4443E-1
  4.605     0.7863E-2  0.2932E-1  0.1590E-2  0.4459E-1
  4.615     0.8026E-2  0.2996E-1  0.1608E-2  0.4475E-1
  4.625     0.8228E-2  0.3061E-1  0.1627E-2  0.4491E-1
  4.635     0.8473E-2  0.3126E-1  0.1646E-2  0.4507E-1
  4.645     0.8763E-2  0.3192E-1  0.1665E-2  0.4524E-1
  4.655     0.9105E-2  0.3259E-1  0.1685E-2  0.4540E-1
  4.665     0.9502E-2  0.3326E-1  0.1705E-2  0.4557E-1
  4.675     0.9962E-2  0.3394E-1  0.1726E-2  0.4574E-1
  4.685     0.1049E-1  0.3461E-1  0.1747E-2  0.4591E-1
  4.695     0.1110E-1  0.3528E-1  0.1769E-2  0.4609E-1
  4.705     0.1179E-1  0.3595E-1  0.1791E-2  0.4626E-1
  4.715     0.1259E-1  0.3659E-1  0.1813E-2  0.4644E-1
  4.725     0.1349E-1  0.3721E-1  0.1836E-2  0.4662E-1
  4.735     0.1452E-1  0.3779E-1  0.1860E-2  0.4681E-1
  4.745     0.1568E-1  0.3830E-1  0.1884E-2  0.4699E-1
  4.755     0.1698E-1  0.3872E-1  0.1909E-2  0.4718E-1
  4.765     0.1844E-1  0.3902E-1  0.1935E-2  0.4737E-1
  4.775     0.2006E-1  0.3914E-1  0.1960E-2  0.4756E-1
  4.785     0.2182E-1  0.3904E-1  0.1987E-2  0.4776E-1
  4.795     0.2369E-1  0.3866E-1  0.2014E-2  0.4796E-1
  4.805     0.2564E-1  0.3794E-1  0.2042E-2  0.4816E-1
  4.815     0.2758E-1  0.3682E-1  0.2071E-2  0.4836E-1
  4.825     0.2940E-1  0.3526E-1  0.2100E-2  0.4857E-1
  4.835     0.3099E-1  0.3327E-1  0.2131E-2  0.4878E-1
  4.845     0.3218E-1  0.3089E-1  0.2161E-2  0.4899E-1
  4.855     0.3288E-1  0.2823E-1  0.2193E-2  0.4920E-1
  4.865     0.3299E-1  0.2546E-1  0.2226E-2  0.4942E-1
  4.875     0.3250E-1  0.2273E-1  0.2259E-2  0.4964E-1
  4.885     0.3147E-1  0.2024E-1  0.2294E-2  0.4987E-1
  4.895     0.3001E-1  0.1809E-1  0.2329E-2  0.5010E-1
  4.905     0.2825E-1  0.1636E-1  0.2365E-2  0.5033E-1
  4.915     0.2633E-1  0.1508E-1  0.2403E-2  0.5056E-1
  4.925     0.2437E-1  0.1421E-1  0.2441E-2  0.5080E-1
  4.935     0.2245E-1  0.1371E-1  0.2480E-2  0.5104E-1
  4.945     0.2063E-1  0.1351E-1  0.2521E-2  0.5129E-1
  4.955     0.1895E-1  0.1355E-1  0.2563E-2  0.5154E-1
  4.965     0.1743E-1  0.1379E-1  0.2606E-2  0.5180E-1
  4.975     0.1605E-1  0.1416E-1  0.2650E-2  0.5205E-1
  4.985     0.1483E-1  0.1463E-1  0.2696E-2  0.5232E-1
  4.995     0.1374E-1  0.1518E-1  0.2743E-2  0.5258E-1
  5.005     0.1278E-1  0.1578E-1  0.2792E-2  0.5286E-1
  5.015     0.1193E-1  0.1641E-1  0.2842E-2  0.5313E-1
  5.025     0.1119E-1  0.1706E-1  0.2894E-2  0.5341E-1
  5.035     0.1053E-1  0.1772E-1  0.2947E-2  0.5370E-1
  5.045     0.9952E-2  0.1838E-1  0.3003E-2  0.5399E-1
  5.055     0.9446E-2  0.1904E-1  0.3060E-2  0.5429E-1
  5.065     0.9003E-2  0.1970E-1  0.3119E-2  0.5459E-1
  5.075     0.8615E-2  0.2035E-1  0.3180E-2  0.5490E-1
  5.085     0.8277E-2  0.2100E-1  0.3243E-2  0.5521E-1
  5.095     0.7984E-2  0.2163E-1  0.3309E-2  0.5553E-1
  5.105     0.7731E-2  0.2226E-1  0.3377E-2  0.5586E-1
  5.115     0.7514E-2  0.2289E-1  0.3447E-2  0.5619E-1
  5.125     0.7331E-2  0.2350E-1  0.3520E-2  0.5653E-1
  5.135     0.7178E-2  0.2411E-1  0.3596E-2  0.5688E-1
  5.145     0.7054E-2  0.2472E-1  0.3674E-2  0.5723E-1
  5.155     0.6958E-2  0.2532E-1  0.3756E-2  0.5759E-1
  5.165     0.6887E-2  0.2592E-1  0.3841E-2  0.5796E-1
  5.175     0.6840E-2  0.2651E-1  0.3929E-2  0.5834E-1
  5.185     0.6818E-2  0.2711E-1  0.4021E-2  0.5872E-1
  5.195     0.6819E-2  0.2770E-1  0.4117E-2  0.5912E-1
  5.205     0.6844E-2  0.2830E-1  0.4217E-2  0.5952E-1
  5.215     0.6893E-2  0.2889E-1  0.4321E-2  0.5993E-1
  5.225     0.6966E-2  0.2949E-1  0.4430E-2  0.6035E-1
  5.235     0.7065E-2  0.3010E-1  0.4544E-2  0.6079E-1
  5.245     0.7190E-2  0.3071E-1  0.4662E-2  0.6123E-1
  5.255     0.7343E-2  0.3132E-1  0.4787E-2  0.6168E-1
  5.265     0.7527E-2  0.3194E-1  0.4917E-2  0.6215E-1
  5.275     0.7743E-2  0.3257E-1  0.5053E-2  0.6262E-1
  5.285     0.7995E-2  0.3321E-1  0.5196E-2  0.6311E-1
    5.2953     0.0083     0.0339     0.0053     0.0636
    5.3053     0.0086     0.0345     0.0055     0.0641
    5.3153     0.0090     0.0352     0.0057     0.0647
    5.3253     0.0094     0.0358     0.0058     0.0652
    5.3353     0.0099     0.0365     0.0060     0.0658
    5.3453     0.0105     0.0372     0.0062     0.0663
    5.3554     0.0111     0.0379     0.0064     0.0669
    5.3654     0.0119     0.0385     0.0066     0.0675
    5.3754     0.0127     0.0392     0.0069     0.0682
    5.3854     0.0136     0.0398     0.0071     0.0688
    5.3954     0.0147     0.0404     0.0074     0.0695
    5.4054     0.0159     0.0409     0.0077     0.0702
    5.4154     0.0172     0.0414     0.0080     0.0709
    5.4254     0.0187     0.0417     0.0083     0.0716
    5.4354     0.0204     0.0418     0.0086     0.0724
    5.4454     0.0221     0.0417     0.0090     0.0732
    5.4555     0.0241     0.0413     0.0093     0.0740
    5.4655     0.0260     0.0406     0.0098     0.0748
   5.47548    0.02798    0.03952    0.01020    0.07572
   5.48549    0.02982    0.03797    0.01067    0.07663
   5.49549    0.03141    0.03599    0.01119    0.07757
   5.50551    0.03261    0.03363    0.01175    0.07854
   5.51552    0.03330    0.03100    0.01235    0.07956
   5.52553    0.03341    0.02826    0.01301    0.08061
   5.53553    0.03291    0.02558    0.01373    0.08170
   5.54555    0.03189    0.02314    0.01451    0.08283
   5.55556    0.03044    0.02106    0.01537    0.08400
   5.56557    0.02870    0.01941    0.01631    0.08521
   5.57558    0.02681    0.01820    0.01735    0.08646
   5.58559    0.02488    0.01740    0.01849    0.08775
   5.59560    0.02300    0.01697    0.01975    0.08908
   5.60561    0.02123    0.01684    0.02115    0.09045
   5.61562    0.01959    0.01696    0.02270    0.09183
   5.62563    0.01812    0.01727    0.02443    0.09324
   5.63564    0.01679    0.01771    0.02635    0.09464
   5.64565    0.01562    0.01826    0.02849    0.09603
   5.65566    0.01459    0.01889    0.03088    0.09736
   5.66567    0.01369    0.01957    0.03352    0.09862
   5.67568    0.01291    0.02028    0.03646    0.09974
   5.68569    0.01223    0.02101    0.03968    0.10068
   5.69570    0.01165    0.02176    0.04320    0.10135
   5.70571    0.01116    0.02252    0.04699    0.10170
   5.71572    0.01073    0.02329    0.05101    0.10163
   5.72573    0.01038    0.02405    0.05518    0.10108
   5.73574    0.01010    0.02481    0.05940    0.10000
    5.7457     0.0099     0.0256     0.0636     0.0984
    5.7558     0.0097     0.0263     0.0676     0.0962
    5.7658     0.0096     0.0271     0.0713     0.0937
    5.7758     0.0095     0.0278     0.0747     0.0907
    5.7858     0.0095     0.0286     0.0779     0.0875
    5.7958     0.0095     0.0294     0.0808     0.0839
    5.8058     0.0096     0.0301     0.0834     0.0800
    5.8158     0.0097     0.0309     0.0857     0.0757
    5.8258     0.0099     0.0316     0.0875     0.0710
   5.83584    0.01011    0.03241    0.08872    0.06588
   5.84585    0.01039    0.03318    0.08909    0.06050
   5.85586    0.01074    0.03395    0.08851    0.05507
   5.86587    0.01116    0.03473    0.08692    0.04988
   5.87588    0.01166    0.03550    0.08442    0.04525
   5.88589    0.01223    0.03626    0.08120    0.04139
   5.89590    0.01290    0.03701    0.07754    0.03846
   5.90591    0.01367    0.03775    0.07371    0.03650
   5.91592    0.01456    0.03845    0.06995    0.03544
   5.92593    0.01558    0.03911    0.06645    0.03518
   5.93594    0.01673    0.03970    0.06336    0.03559
   5.94595    0.01803    0.04019    0.06076    0.03651
   5.95596    0.01949    0.04055    0.05870    0.03783
   5.96597    0.02111    0.04074    0.05720    0.03941
   5.97598    0.02287    0.04069    0.05629    0.04115
   5.98599    0.02474    0.04036    0.05595    0.04294
   5.99600    0.02668    0.03968    0.05618    0.04469
   6.00601    0.02861    0.03860    0.05698    0.04630
   6.01602    0.03041    0.03707    0.05832    0.04766
   6.02603    0.03196    0.03511    0.06017    0.04865
   6.03604    0.03311    0.03278    0.06247    0.04914
   6.04605    0.03375    0.03018    0.06513    0.04901
   6.05606    0.03380    0.02748    0.06801    0.04813
   6.06607    0.03326    0.02485    0.07091    0.04639
   6.07608    0.03218    0.02246    0.07357    0.04375
   6.08609    0.03069    0.02044    0.07572    0.04025
   6.09610    0.02892    0.01883    0.07707    0.03606
   6.10611    0.02700    0.01767    0.07741    0.03143
   6.11612    0.02505    0.01692    0.07662    0.02671
   6.12613    0.02316    0.01654    0.07475    0.02225
   6.13614    0.02137    0.01645    0.07195    0.01837
   6.14615    0.01972    0.01660    0.06848    0.01525
   6.15616    0.01823    0.01693    0.06461    0.01300
   6.16617    0.01689    0.01740    0.06060    0.01160
   6.17618    0.01570    0.01798    0.05664    0.01099
   6.18619    0.01465    0.01862    0.05289    0.01105
   6.19620    0.01373    0.01931    0.04945    0.01166
   6.20621    0.01293    0.02004    0.04635    0.01270
   6.21622    0.01223    0.02079    0.04362    0.01407
   6.22623    0.01162    0.02155    0.04126    0.01569
   6.23624    0.01109    0.02231    0.03925    0.01749
   6.24625    0.01064    0.02308    0.03758    0.01941
   6.25626    0.01025    0.02385    0.03623    0.02143
    6.2663     0.0099     0.0246     0.0352     0.0235
    6.2763     0.0097     0.0254     0.0344     0.0256
    6.2863     0.0094     0.0261     0.0339     0.0277
    6.2963     0.0093     0.0269     0.0337     0.0299
    6.3063     0.0091     0.0276     0.0338     0.0320
    6.3163     0.0090     0.0284     0.0341     0.0341
    6.3263     0.0090     0.0291     0.0347     0.0361
    6.3363     0.0090     0.0299     0.0356     0.0381
    6.3463     0.0090     0.0306     0.0367     0.0401
    6.3564     0.0091     0.0314     0.0382     0.0419
    6.3664     0.0092     0.0321     0.0401     0.0435
    6.3764     0.0093     0.0329     0.0422     0.0450
    6.3864     0.0095     0.0336     0.0448     0.0461
    6.3964     0.0098     0.0344     0.0476     0.0469
   6.40641    0.01008    0.03516    0.05085    0.04722
   6.41642    0.01043    0.03593    0.05432    0.04694
   6.42643    0.01085    0.03671    0.05795    0.04594
   6.43644    0.01133    0.03749    0.06157    0.04411
   6.44645    0.01188    0.03827    0.06497    0.04140
   6.45646    0.01252    0.03904    0.06787    0.03780
   6.46647    0.01326    0.03981    0.07001    0.03345
   6.47648    0.01410    0.04055    0.07113    0.02855
   6.48649    0.01506    0.04125    0.07110    0.02344
   6.49650    0.01615    0.04191    0.06990    0.01847
   6.50651    0.01738    0.04249    0.06766    0.01397
   6.51652    0.01876    0.04296    0.06459    0.01019
    6.5265     0.0203     0.0433     0.0610     0.0073
  6.537     0.2200E-1  0.4343E-1  0.5710E-1  0.5197E-2
  6.547     0.2383E-1  0.4332E-1  0.5317E-1  0.3959E-2
  6.557     0.2576E-1  0.4290E-1  0.4936E-1  0.3438E-2
  6.567     0.2773E-1  0.4212E-1  0.4579E-1  0.3514E-2
  6.577     0.2965E-1  0.4091E-1  0.4251E-1  0.4064E-2
  6.587     0.3140E-1  0.3926E-1  0.3955E-1  0.4982E-2
  6.597     0.3285E-1  0.3720E-1  0.3693E-1  0.6175E-2
    6.6066     0.0339     0.0348     0.0346     0.0076
    6.6166     0.0343     0.0322     0.0326     0.0091
   6.62663    0.03418    0.02954    0.03088    0.01075
   6.63664    0.03346    0.02702    0.02940    0.01246
   6.64665    0.03225    0.02480    0.02815    0.01422
   6.65666    0.03068    0.02297    0.02711    0.01601
   6.66667    0.02887    0.02159    0.02627    0.01781
   6.67668    0.02697    0.02063    0.02561    0.01962
   6.68669    0.02507    0.02008    0.02512    0.02143
   6.69670    0.02325    0.01987    0.02479    0.02325
   6.70671    0.02155    0.01994    0.02462    0.02506
   6.71672    0.02000    0.02023    0.02460    0.02687
   6.72673    0.01862    0.02069    0.02474    0.02868
   6.73674    0.01739    0.02128    0.02503    0.03048
   6.74675    0.01631    0.02196    0.02549    0.03227
   6.75676    0.01537    0.02270    0.02613    0.03405
   6.76677    0.01457    0.02350    0.02694    0.03582
   6.77678    0.01387    0.02432    0.02796    0.03755
   6.78679    0.01329    0.02517    0.02919    0.03925
   6.79680    0.01280    0.02603    0.03065    0.04088
   6.80681    0.01240    0.02690    0.03237    0.04243
   6.81682    0.01209    0.02778    0.03437    0.04386
   6.82683    0.01184    0.02866    0.03668    0.04512
   6.83684    0.01167    0.02954    0.03930    0.04615
   6.84685    0.01157    0.03042    0.04224    0.04687
   6.85686    0.01154    0.03130    0.04551    0.04719
   6.86687    0.01157    0.03219    0.04904    0.04698
   6.87688    0.01167    0.03307    0.05278    0.04613
   6.88689    0.01183    0.03396    0.05659    0.04453
   6.89690    0.01207    0.03484    0.06029    0.04207
   6.90691    0.01238    0.03573    0.06362    0.03872
   6.91692    0.01276    0.03661    0.06632    0.03454
   6.92693    0.01324    0.03749    0.06812    0.02969
   6.93694    0.01381    0.03836    0.06881    0.02445
   6.94695    0.01448    0.03921    0.06831    0.01916
   6.95696    0.01527    0.04003    0.06667    0.01417
    6.9670     0.0162     0.0408     0.0641     0.0098
  6.977     0.1722E-1  0.4154E-1  0.6077E-1  0.6197E-2
  6.987     0.1842E-1  0.4219E-1  0.5703E-1  0.3483E-2
  6.997     0.1977E-1  0.4273E-1  0.5312E-1  0.1629E-2
  7.007     0.2128E-1  0.4311E-1  0.4924E-1  0.5551E-3
  7.017     0.2295E-1  0.4329E-1  0.4553E-1  0.1445E-3
  7.027     0.2476E-1  0.4322E-1  0.4208E-1  0.2742E-3
  7.037     0.2666E-1  0.4283E-1  0.3893E-1  0.8275E-3
  7.047     0.2860E-1  0.4207E-1  0.3610E-1  0.1703E-2
  7.057     0.3048E-1  0.4087E-1  0.3358E-1  0.2818E-2
  7.067     0.3218E-1  0.3924E-1  0.3136E-1  0.4106E-2
  7.077     0.3356E-1  0.3720E-1  0.2941E-1  0.5515E-2
  7.087     0.3449E-1  0.3482E-1  0.2772E-1  0.7008E-2
    7.0971     0.0349     0.0322     0.0263     0.0086
   7.10711    0.03466    0.02965    0.02499    0.01014
   7.11712    0.03387    0.02721    0.02391    0.01174
   7.12713    0.03260    0.02507    0.02300    0.01335
   7.13714    0.03097    0.02333    0.02225    0.01496
   7.14715    0.02914    0.02203    0.02163    0.01657
   7.15716    0.02721    0.02116    0.02115    0.01818
   7.16717    0.02530    0.02069    0.02078    0.01979
   7.17718    0.02347    0.02055    0.02054    0.02139
   7.18719    0.02177    0.02068    0.02040    0.02299
   7.19720    0.02022    0.02103    0.02038    0.02458
   7.20721    0.01884    0.02154    0.02046    0.02618
   7.21722    0.01761    0.02217    0.02066    0.02777
   7.22723    0.01653    0.02290    0.02098    0.02937
   7.23724    0.01559    0.02368    0.02141    0.03096
   7.24725    0.01477    0.02451    0.02198    0.03256
   7.25726    0.01407    0.02537    0.02268    0.03416
   7.26727    0.01348    0.02625    0.02353    0.03574
   7.27728    0.01298    0.02714    0.02455    0.03732
   7.28729    0.01257    0.02804    0.02575    0.03888
   7.29730    0.01223    0.02895    0.02715    0.04040
   7.30731    0.01197    0.02985    0.02878    0.04186
   7.31732    0.01178    0.03076    0.03065    0.04324
   7.32733    0.01165    0.03167    0.03279    0.04450
   7.33734    0.01158    0.03258    0.03523    0.04559
   7.34735    0.01158    0.03349    0.03798    0.04645
   7.35736    0.01164    0.03440    0.04105    0.04699
   7.36737    0.01176    0.03531    0.04442    0.04712
   7.37738    0.01194    0.03623    0.04805    0.04672
   7.38739    0.01219    0.03714    0.05186    0.04566
   7.39740    0.01251    0.03806    0.05572    0.04384
   7.40741    0.01290    0.03897    0.05943    0.04115
   7.41742    0.01338    0.03989    0.06274    0.03758
   7.42743    0.01395    0.04079    0.06538    0.03320
   7.43744    0.01462    0.04168    0.06708    0.02818
   7.44745    0.01540    0.04255    0.06765    0.02281
   7.45746    0.01630    0.04339    0.06703    0.01744
   7.46747    0.01733    0.04417    0.06528    0.01241
    7.4775     0.0185     0.0449     0.0626     0.0080
  7.487     0.1984E-1  0.4549E-1  0.5923E-1  0.4444E-2
  7.497     0.2133E-1  0.4596E-1  0.5547E-1  0.1746E-2
  7.508     0.2298E-1  0.4625E-1  0.5156E-1  -.9907E-4
  7.518     0.2477E-1  0.4630E-1  0.4769E-1  -.1177E-2
  7.528     0.2668E-1  0.4605E-1  0.4401E-1  -.1607E-2
  7.538     0.2864E-1  0.4543E-1  0.4058E-1  -.1512E-2
  7.548     0.3057E-1  0.4441E-1  0.3746E-1  -.1007E-2
  7.558     0.3235E-1  0.4294E-1  0.3466E-1  -.1914E-3
  7.568     0.3386E-1  0.4106E-1  0.3216E-1  0.8534E-3
  7.578     0.3494E-1  0.3881E-1  0.2995E-1  0.2063E-2
  7.588     0.3550E-1  0.3633E-1  0.2801E-1  0.3387E-2
  7.598     0.3547E-1  0.3379E-1  0.2631E-1  0.4790E-2
  7.608     0.3485E-1  0.3136E-1  0.2483E-1  0.6242E-2
    7.6176     0.0337     0.0292     0.0235     0.0077
    7.6276     0.0322     0.0274     0.0224     0.0092
   7.63764    0.03046    0.02607    0.02148    0.01073
   7.64765    0.02859    0.02517    0.02068    0.01223
   7.65766    0.02671    0.02468    0.02000    0.01373
   7.66767    0.02490    0.02453    0.01944    0.01523
   7.67768    0.02322    0.02469    0.01898    0.01671
   7.68769    0.02169    0.02507    0.01864    0.01820
   7.69770    0.02032    0.02563    0.01838    0.01967
   7.70771    0.01912    0.02633    0.01822    0.02114
   7.71772    0.01808    0.02713    0.01815    0.02261
   7.72773    0.01718    0.02800    0.01817    0.02407
   7.73774    0.01643    0.02893    0.01828    0.02554
   7.74775    0.01580    0.02989    0.01848    0.02701
   7.75776    0.01529    0.03088    0.01877    0.02848
   7.76777    0.01489    0.03189    0.01917    0.02996
   7.77778    0.01459    0.03291    0.01967    0.03144
   7.78779    0.01438    0.03393    0.02028    0.03293
   7.79780    0.01428    0.03497    0.02102    0.03442
   7.80781    0.01426    0.03600    0.02189    0.03591
   7.81782    0.01433    0.03704    0.02292    0.03740
   7.82783    0.01449    0.03808    0.02411    0.03887
   7.83784    0.01475    0.03911    0.02550    0.04032
   7.84785    0.01510    0.04014    0.02709    0.04172
   7.85786    0.01556    0.04116    0.02891    0.04306
   7.86787    0.01612    0.04217    0.03099    0.04429
   7.87788    0.01681    0.04315    0.03336    0.04538
   7.88789    0.01763    0.04409    0.03602    0.04626
   7.89790    0.01859    0.04498    0.03900    0.04687
   7.90791    0.01970    0.04580    0.04228    0.04710
   7.91792    0.02097    0.04651    0.04585    0.04685
   7.92793    0.02241    0.04709    0.04963    0.04600
   7.93794    0.02401    0.04748    0.05352    0.04443
   7.94795    0.02576    0.04763    0.05733    0.04202
   7.95796    0.02763    0.04748    0.06085    0.03874
   7.96797    0.02956    0.04698    0.06380    0.03460
   7.97798    0.03146    0.04606    0.06591    0.02974
   7.98799    0.03323    0.04470    0.06695    0.02441
   7.99800    0.03473    0.04292    0.06680    0.01894
   8.00801    0.03583    0.04077    0.06548    0.01369
    8.0180     0.0364     0.0384     0.0631     0.0090
  8.028     0.3638E-1  0.3592E-1  0.6001E-1  0.5009E-2
  8.038     0.3578E-1  0.3356E-1  0.5638E-1  0.1913E-2
  8.048     0.3467E-1  0.3146E-1  0.5250E-1  -.3099E-3
  8.058     0.3317E-1  0.2974E-1  0.4860E-1  -.1727E-2
  8.068     0.3142E-1  0.2846E-1  0.4483E-1  -.2447E-2
  8.078     0.2955E-1  0.2761E-1  0.4130E-1  -.2594E-2
  8.088     0.2766E-1  0.2718E-1  0.3805E-1  -.2289E-2
  8.098     0.2585E-1  0.2711E-1  0.3511E-1  -.1636E-2
  8.108     0.2417E-1  0.2733E-1  0.3249E-1  -.7251E-3
  8.118     0.2264E-1  0.2778E-1  0.3016E-1  0.3732E-3
  8.128     0.2127E-1  0.2842E-1  0.2810E-1  0.1604E-2
  8.138     0.2007E-1  0.2919E-1  0.2629E-1  0.2925E-2
  8.148     0.1903E-1  0.3007E-1  0.2471E-1  0.4305E-2
  8.158     0.1814E-1  0.3102E-1  0.2333E-1  0.5721E-2
  8.168     0.1740E-1  0.3203E-1  0.2213E-1  0.7156E-2
    8.1782     0.0168     0.0331     0.0211     0.0086
   8.18819    0.01629    0.03415    0.02020    0.01005
   8.19820    0.01590    0.03524    0.01943    0.01149
   8.20821    0.01563    0.03634    0.01878    0.01292
   8.21822    0.01545    0.03746    0.01824    0.01434
   8.22823    0.01537    0.03858    0.01780    0.01576
   8.23824    0.01539    0.03971    0.01745    0.01716
   8.24825    0.01550    0.04083    0.01719    0.01856
   8.25826    0.01571    0.04196    0.01701    0.01996
   8.26827    0.01602    0.04309    0.01691    0.02135
   8.27828    0.01643    0.04420    0.01688    0.02273
   8.28829    0.01695    0.04531    0.01694    0.02412
   8.29830    0.01759    0.04639    0.01707    0.02551
   8.30831    0.01837    0.04745    0.01728    0.02691
   8.31832    0.01928    0.04846    0.01758    0.02831
   8.32833    0.02034    0.04941    0.01797    0.02971
   8.33834    0.02156    0.05028    0.01845    0.03113
   8.34835    0.02294    0.05102    0.01903    0.03255
   8.35836    0.02450    0.05159    0.01973    0.03398
   8.36837    0.02621    0.05195    0.02055    0.03542
   8.37838    0.02806    0.05204    0.02151    0.03685
   8.38839    0.03000    0.05180    0.02261    0.03828
   8.39840    0.03196    0.05117    0.02389    0.03970
   8.40841    0.03384    0.05010    0.02536    0.04109
   8.41842    0.03550    0.04861    0.02705    0.04243
   8.42843    0.03681    0.04671    0.02897    0.04369
   8.43844    0.03764    0.04453    0.03115    0.04485
   8.44845    0.03791    0.04221    0.03362    0.04584
   8.45846    0.03759    0.03992    0.03639    0.04661
   8.46847    0.03673    0.03783    0.03948    0.04708
   8.47848    0.03543    0.03609    0.04286    0.04715
   8.48849    0.03382    0.03478    0.04651    0.04670
   8.49850    0.03205    0.03391    0.05035    0.04562
   8.50851    0.03024    0.03347    0.05425    0.04378
   8.51852    0.02847    0.03342    0.05801    0.04109
   8.52853    0.02682    0.03369    0.06141    0.03751
   8.53854    0.02532    0.03423    0.06415    0.03311
   8.54855    0.02400    0.03498    0.06597    0.02806
   8.55856    0.02285    0.03588    0.06668    0.02262
   8.56857    0.02187    0.03691    0.06619    0.01714
   8.57858    0.02107    0.03803    0.06456    0.01199
  8.589     0.2042E-1  0.3922E-1  0.6196E-1  0.7438E-2
  8.599     0.1993E-1  0.4046E-1  0.5866E-1  0.3690E-2
  8.609     0.1957E-1  0.4173E-1  0.5494E-1  0.8196E-3
  8.619     0.1936E-1  0.4304E-1  0.5103E-1  -.1190E-2
  8.629     0.1928E-1  0.4436E-1  0.4716E-1  -.2423E-2
  8.639     0.1933E-1  0.4569E-1  0.4344E-1  -.2994E-2
  8.649     0.1950E-1  0.4704E-1  0.3999E-1  -.3029E-2
  8.659     0.1981E-1  0.4838E-1  0.3682E-1  -.2643E-2
  8.669     0.2026E-1  0.4973E-1  0.3397E-1  -.1938E-2
  8.679     0.2084E-1  0.5106E-1  0.3143E-1  -.9968E-3
  8.689     0.2158E-1  0.5236E-1  0.2917E-1  0.1137E-3
  8.699     0.2247E-1  0.5364E-1  0.2718E-1  0.1343E-2
  8.709     0.2353E-1  0.5486E-1  0.2543E-1  0.2651E-2
  8.719     0.2476E-1  0.5600E-1  0.2389E-1  0.4010E-2
  8.729     0.2618E-1  0.5703E-1  0.2256E-1  0.5400E-2
  8.739     0.2779E-1  0.5791E-1  0.2139E-1  0.6805E-2
  8.749     0.2958E-1  0.5859E-1  0.2038E-1  0.8214E-2
    8.7588     0.0315     0.0590     0.0195     0.0096
   8.76877    0.03359    0.05912    0.01875    0.01102
   8.77878    0.03571    0.05886    0.01811    0.01241
   8.78879    0.03778    0.05818    0.01757    0.01380
   8.79880    0.03969    0.05707    0.01712    0.01517
   8.80881    0.04129    0.05557    0.01676    0.01653
   8.81882    0.04245    0.05378    0.01649    0.01788
   8.82883    0.04309    0.05183    0.01628    0.01923
   8.83884    0.04318    0.04990    0.01615    0.02057
   8.84885    0.04276    0.04817    0.01610    0.02191
   8.85886    0.04193    0.04678    0.01611    0.02325
   8.86887    0.04082    0.04582    0.01620    0.02459
   8.87888    0.03959    0.04532    0.01635    0.02593
   8.88889    0.03837    0.04526    0.01659    0.02728
   8.89890    0.03725    0.04560    0.01690    0.02863
   8.90891    0.03633    0.04627    0.01729    0.03000
   8.91892    0.03565    0.04721    0.01777    0.03137
   8.92893    0.03525    0.04836    0.01835    0.03275
   8.93894    0.03515    0.04964    0.01904    0.03415
   8.94895    0.03536    0.05101    0.01984    0.03555
   8.95896    0.03590    0.05241    0.02077    0.03695
   8.96897    0.03677    0.05378    0.02184    0.03835
   8.97898    0.03797    0.05507    0.02308    0.03975
   8.98899    0.03950    0.05622    0.02450    0.04112
   8.99900    0.04135    0.05715    0.02612    0.04245
   9.00901    0.04349    0.05780    0.02798    0.04372
   9.01902    0.04587    0.05807    0.03008    0.04489
   9.02903    0.04842    0.05791    0.03246    0.04592
   9.03904    0.05104    0.05725    0.03514    0.04676
   9.04905    0.05361    0.05607    0.03812    0.04732
   9.05906    0.05597    0.05438    0.04142    0.04751
   9.06907    0.05802    0.05225    0.04499    0.04723
   9.07908    0.05966    0.04978    0.04879    0.04636
   9.08909    0.06086    0.04710    0.05269    0.04477
   9.09910    0.06163    0.04431    0.05653    0.04236
   9.10911    0.06199    0.04148    0.06009    0.03907
   9.11912    0.06199    0.03864    0.06309    0.03493
   9.12913    0.06162    0.03579    0.06526    0.03005
   9.13914    0.06086    0.03297    0.06637    0.02469
   9.14915    0.05968    0.03023    0.06630    0.01917
   9.15916    0.05804    0.02764    0.06505    0.01385
  9.169     0.5596E-1  0.2534E-1  0.6276E-1  0.9048E-2
  9.179     0.5350E-1  0.2344E-1  0.5967E-1  0.4993E-2
  9.189     0.5076E-1  0.2202E-1  0.5606E-1  0.1801E-2
  9.199     0.4789E-1  0.2112E-1  0.5220E-1  -.5150E-3
  9.209     0.4499E-1  0.2074E-1  0.4829E-1  -.2020E-2
  9.219     0.4219E-1  0.2083E-1  0.4451E-1  -.2822E-2
  9.229     0.3956E-1  0.2134E-1  0.4095E-1  -.3045E-2
  9.239     0.3715E-1  0.2218E-1  0.3768E-1  -.2808E-2
  9.249     0.3498E-1  0.2330E-1  0.3472E-1  -.2219E-2
  9.259     0.3307E-1  0.2462E-1  0.3207E-1  -.1369E-2
  9.269     0.3142E-1  0.2609E-1  0.2971E-1  -.3273E-3
  9.279     0.3001E-1  0.2768E-1  0.2763E-1  0.8479E-3
  9.289     0.2882E-1  0.2935E-1  0.2579E-1  0.2115E-2
  9.299     0.2785E-1  0.3107E-1  0.2418E-1  0.3441E-2
  9.309     0.2709E-1  0.3284E-1  0.2277E-1  0.4803E-2
  9.319     0.2651E-1  0.3463E-1  0.2153E-1  0.6185E-2
  9.329     0.2612E-1  0.3644E-1  0.2046E-1  0.7574E-2
  9.339     0.2590E-1  0.3825E-1  0.1953E-1  0.8962E-2
   9.34935    0.02585    0.04006    0.01872    0.01034
   9.35936    0.02597    0.04187    0.01803    0.01172
   9.36937    0.02626    0.04367    0.01744    0.01308
   9.37938    0.02673    0.04545    0.01694    0.01443
   9.38939    0.02739    0.04719    0.01654    0.01577
   9.39940    0.02823    0.04889    0.01621    0.01710
   9.40941    0.02928    0.05053    0.01595    0.01843
   9.41942    0.03053    0.05208    0.01577    0.01974
   9.42943    0.03201    0.05351    0.01566    0.02105
   9.43944    0.03371    0.05477    0.01561    0.02236
   9.44945    0.03562    0.05583    0.01563    0.02367
   9.45946    0.03773    0.05661    0.01572    0.02498
   9.46947    0.03999    0.05705    0.01587    0.02629
   9.47948    0.04235    0.05711    0.01610    0.02761
   9.48949    0.04469    0.05672    0.01640    0.02894
   9.49950    0.04691    0.05590    0.01677    0.03027
   9.50951    0.04887    0.05466    0.01723    0.03162
   9.51952    0.05045    0.05310    0.01778    0.03298
   9.52953    0.05159    0.05137    0.01843    0.03435
   9.53954    0.05227    0.04960    0.01919    0.03572
   9.54955    0.05254    0.04797    0.02007    0.03711
   9.55956    0.05252    0.04657    0.02109    0.03849
   9.56957    0.05235    0.04544    0.02226    0.03988
   9.57958    0.05215    0.04456    0.02360    0.04125
   9.58959    0.05205    0.04387    0.02513    0.04259
   9.59960    0.05208    0.04324    0.02688    0.04387
   9.60961    0.05226    0.04257    0.02887    0.04508
   9.61962    0.05254    0.04173    0.03112    0.04618
   9.62963    0.05281    0.04066    0.03366    0.04710
   9.63964    0.05294    0.03932    0.03650    0.04779
   9.64965    0.05279    0.03776    0.03966    0.04817
   9.65966    0.05224    0.03606    0.04310    0.04812
   9.66967    0.05124    0.03437    0.04681    0.04755
   9.67968    0.04978    0.03287    0.05068    0.04631
   9.68969    0.04793    0.03167    0.05458    0.04430
   9.69970    0.04581    0.03089    0.05831    0.04143
   9.70971    0.04356    0.03057    0.06162    0.03768
   9.71972    0.04127    0.03069    0.06423    0.03313
   9.72973    0.03907    0.03122    0.06588    0.02796
   9.73974    0.03701    0.03211    0.06639    0.02246
   9.74975    0.03514    0.03328    0.06571    0.01699
   9.75976    0.03348    0.03468    0.06390    0.01190
  9.770     0.3203E-1  0.3626E-1  0.6117E-1  0.7450E-2
  9.780     0.3079E-1  0.3798E-1  0.5777E-1  0.3824E-2
  9.790     0.2976E-1  0.3980E-1  0.5400E-1  0.1080E-2
  9.800     0.2892E-1  0.4170E-1  0.5009E-1  -.8138E-3
  9.810     0.2826E-1  0.4367E-1  0.4623E-1  -.1949E-2
  9.820     0.2776E-1  0.4568E-1  0.4256E-1  -.2444E-2
  9.830     0.2742E-1  0.4773E-1  0.3914E-1  -.2424E-2
  9.840     0.2724E-1  0.4982E-1  0.3603E-1  -.2001E-2
  9.850     0.2719E-1  0.5194E-1  0.3323E-1  -.1275E-2
  9.860     0.2729E-1  0.5409E-1  0.3072E-1  -.3255E-3
  9.870     0.2752E-1  0.5626E-1  0.2851E-1  0.7830E-3
  9.880     0.2789E-1  0.5847E-1  0.2655E-1  0.2002E-2
  9.890     0.2840E-1  0.6072E-1  0.2483E-1  0.3295E-2
  9.900     0.2905E-1  0.6299E-1  0.2332E-1  0.4633E-2
  9.910     0.2986E-1  0.6530E-1  0.2200E-1  0.5998E-2
  9.920     0.3083E-1  0.6765E-1  0.2084E-1  0.7376E-2
  9.930     0.3196E-1  0.7003E-1  0.1983E-1  0.8756E-2
   9.93994    0.03329    0.07245    0.01896    0.01013
   9.94995    0.03482    0.07490    0.01821    0.01150
   9.95996    0.03658    0.07738    0.01756    0.01286
   9.96997    0.03858    0.07987    0.01701    0.01420
   9.97998    0.04087    0.08236    0.01655    0.01554
   9.98999    0.04346    0.08484    0.01617    0.01686
  10.00000    0.04640    0.08727    0.01586    0.01817
# 
# 07/15/2016 at 10:24 YAMBO @ anomaly [start]
# 07/15/2016 at 10:25                 [end]
#  
# Timing   [Min/Max/Average]: 49s/50s/50s
#
# .-Input file : yambo.in
# | optics                       # [R OPT] Optics
# | bse                          # [R BSE] Bethe Salpeter Equation.
# | bsk                          # [R BSK] Bethe Salpeter Equation kernel
# | bss                          # [R BSS] Bethe Salpeter Equation solver
# | em1s                         # [R Xs] Static Inverse Dielectric Matrix
# | BoseTemp= 0.000000     eV    # Bosonic Temperature
# | X_all_q_CPU= "8.1"           # [PARALLEL] CPUs for each role
# | X_all_q_ROLEs= "c.v"         # [PARALLEL] CPUs roles (q,k,c,v)
# | X_all_q_nCPU_invert=  8      # [PARALLEL] CPUs for matrix inversion
# | BS_CPU= "8"                  # [PARALLEL] CPUs for each role
# | BS_ROLEs= "k"                # [PARALLEL] CPUs roles (k,eh,t)
# | BS_nCPU_invert=  8           # [PARALLEL] CPUs for matrix inversion
# | BS_nCPU_diago=  8            # [PARALLEL] CPUs for matrix diagonalization
# | Chimod= "Hartree"            # [X] IP/Hartree/ALDA/LRC/BSfxc
# | BSEmod= "resonant"           # [BSE] resonant/causal/coupling
# | BSKmod= "SEX"                # [BSE] IP/Hartree/HF/ALDA/SEX/BSfxc
# | BSSmod= "d"                  # [BSS] (h)aydock/(d)iagonalization/(i)nversion/(t)ddft`
# | BSENGexx=  8493        RL    # [BSK] Exchange components
# | BSENGBlk= 111          RL    # [BSK] Screened interaction block size
# | #WehCpl                      # [BSK] eh interaction included also in coupling
# | % KfnQP_E
# |  3.500000 | 1.000000 | 1.000000 |        # [EXTQP BSK BSS] E parameters  (c/v) eV|adim|adim
# | %
# | % BEnRange
# |   0.00000 | 10.00000 | eV    # [BSS] Energy range
# | %
# | % BDmRange
# |   0.10000 |  0.10000 | eV    # [BSS] Damping range
# | %
# | BEnSteps= 1000               # [BSS] Energy steps
# | % BLongDir
# | 0.1000E-4 | 0.000    | 0.000    |        # [BSS] [cc] Electric Field
# | %
# | % BSEBands
# |  1 | 2 |                     # [BSK] Bands range
# | %
# | WRbsWF                       # [BSS] Write to disk excitonic the FWs
# | % BndsRnXs
# |  1 | 2 |                     # [Xs] Polarization function bands
# | %
# | NGsBlkXs= 119          RL    # [Xs] Response block size
# | % DmRngeXs
# | 0.1000E-2 |0.1000E-2 | eV    # [Xs] Damping range
# | %
# | % LongDrXs
# | 0.1000E-4 | 0.000    | 0.000    |        # [Xs] [cc] Electric Field
# | %
