#                                                           
#  __  __   ________   ___ __ __    _______   ______        
# /_/\/_/\ /_______/\ /__//_//_/\ /_______/\ /_____/\       
# \ \ \ \ \\::: _  \ \\::\| \| \ \\::: _  \ \\:::_ \ \      
#  \:\_\ \ \\::(_)  \ \\:.      \ \\::(_)  \/_\:\ \ \ \     
#   \::::_\/ \:: __  \ \\:.\-/\  \ \\::  _  \ \\:\ \ \ \    
#     \::\ \  \:.\ \  \ \\. \  \  \ \\::(_)  \ \\:\_\ \ \   
#      \__\/   \__\/\__\/ \__\/ \__\/ \_______\/ \_____\/   
#                                                           
#                                                           
#        Version 4.2.0 Revision 14290 Hash ab982c3          
#                      MPI+SLK Build                        
#                http://www.yambo-code.org                  
#
# Absorption @ Q(1) [q->0 direction] :0.1000E-4  0.000     0.000   
#
#
# - Energies      are +AMGB (for 2D systems)(C)+Scissor
# - Wavefunctions are +AMGB (for 2D systems)(C)
#
# - The Green`s function is Resonant -
# - Using the Length Gauge -
# - [r,Vnl] *is* included -
#
#   BSK|Identifier              :4715
#      |Dimension               :80
#      |Bands                   :1 - 2
#      |Exchange           [res]: yes
#      |Correlation        [res]: yes
#      |Kernel`s coupling       : no
#      |Exchange           [cpl]: no
#      |Correlation        [cpl]: no
#      |W interaction is bare   : no
#      |ALDA kernel in R-space  : no
#      |RL vectors    [exchange]:111
#      |RL vectors [correlation]:111
#      |E/h energy range    [ev]:-1.000000 - -1.000000
#      |Coupling range     [o/o]: 100.0000 -  100.0000
#    W |Interaction is diagonal : no
#      |Matrix size             :111
#      |Bands                   :1 - 2
#      |e/h energy range    [ev]:-1.000000 - -1.000000
#      |Poles              [o/o]: 100.0000
#      |RL vectors in the sum   :8493
#      |[r,Vnl] included        : yes
#      |Field direction         :0.1000E-4  0.000000  0.000000
#      |Coulomb Cutoff          :none
#      |xc-Kernel               :none
#   RIM|RL components      [col]:1
#      |Random points      [col]:1000000
#
#  E/ev[1]    EPS-Im[2]  EPS-Re[3]  EPSo-Im[4] EPSo-Re[5]
#
    0.0000     0.0096     1.3278     0.0029     1.1792
    0.0100     0.0097     1.3288     0.0029     1.1795
    0.0200     0.0097     1.3297     0.0029     1.1798
    0.0300     0.0098     1.3307     0.0029     1.1801
    0.0400     0.0099     1.3317     0.0029     1.1804
    0.0501     0.0099     1.3327     0.0030     1.1807
    0.0601     0.0100     1.3337     0.0030     1.1810
    0.0701     0.0100     1.3347     0.0030     1.1813
    0.0801     0.0101     1.3357     0.0030     1.1816
    0.0901     0.0102     1.3367     0.0030     1.1819
    0.1001     0.0102     1.3377     0.0030     1.1822
    0.1101     0.0103     1.3387     0.0030     1.1825
    0.1201     0.0103     1.3398     0.0030     1.1828
    0.1301     0.0104     1.3408     0.0030     1.1831
    0.1401     0.0105     1.3418     0.0030     1.1834
    0.1502     0.0105     1.3429     0.0031     1.1837
    0.1602     0.0106     1.3439     0.0031     1.1840
    0.1702     0.0107     1.3450     0.0031     1.1843
    0.1802     0.0107     1.3461     0.0031     1.1846
    0.1902     0.0108     1.3472     0.0031     1.1849
    0.2002     0.0109     1.3482     0.0031     1.1852
    0.2102     0.0109     1.3493     0.0031     1.1855
    0.2202     0.0110     1.3504     0.0031     1.1858
    0.2302     0.0111     1.3515     0.0031     1.1862
    0.2402     0.0111     1.3526     0.0032     1.1865
    0.2503     0.0112     1.3537     0.0032     1.1868
    0.2603     0.0113     1.3549     0.0032     1.1871
    0.2703     0.0114     1.3560     0.0032     1.1874
    0.2803     0.0114     1.3571     0.0032     1.1877
    0.2903     0.0115     1.3583     0.0032     1.1881
    0.3003     0.0116     1.3594     0.0032     1.1884
    0.3103     0.0116     1.3606     0.0032     1.1887
    0.3203     0.0117     1.3618     0.0032     1.1890
    0.3303     0.0118     1.3629     0.0032     1.1894
    0.3403     0.0119     1.3641     0.0033     1.1897
    0.3504     0.0120     1.3653     0.0033     1.1900
    0.3604     0.0120     1.3665     0.0033     1.1903
    0.3704     0.0121     1.3677     0.0033     1.1907
    0.3804     0.0122     1.3689     0.0033     1.1910
    0.3904     0.0123     1.3701     0.0033     1.1913
    0.4004     0.0124     1.3714     0.0033     1.1917
    0.4104     0.0124     1.3726     0.0033     1.1920
    0.4204     0.0125     1.3739     0.0034     1.1923
    0.4304     0.0126     1.3751     0.0034     1.1927
    0.4404     0.0127     1.3764     0.0034     1.1930
    0.4505     0.0128     1.3776     0.0034     1.1933
    0.4605     0.0129     1.3789     0.0034     1.1937
    0.4705     0.0129     1.3802     0.0034     1.1940
    0.4805     0.0130     1.3815     0.0034     1.1944
    0.4905     0.0131     1.3828     0.0034     1.1947
    0.5005     0.0132     1.3841     0.0035     1.1950
    0.5105     0.0133     1.3855     0.0035     1.1954
    0.5205     0.0134     1.3868     0.0035     1.1957
    0.5305     0.0135     1.3881     0.0035     1.1961
    0.5405     0.0136     1.3895     0.0035     1.1964
    0.5506     0.0137     1.3909     0.0035     1.1968
    0.5606     0.0138     1.3922     0.0035     1.1971
    0.5706     0.0139     1.3936     0.0035     1.1975
    0.5806     0.0140     1.3950     0.0036     1.1979
    0.5906     0.0141     1.3964     0.0036     1.1982
    0.6006     0.0142     1.3978     0.0036     1.1986
    0.6106     0.0143     1.3992     0.0036     1.1989
    0.6206     0.0144     1.4007     0.0036     1.1993
    0.6306     0.0145     1.4021     0.0036     1.1996
    0.6406     0.0146     1.4036     0.0036     1.2000
    0.6507     0.0147     1.4050     0.0036     1.2004
    0.6607     0.0148     1.4065     0.0037     1.2007
    0.6707     0.0149     1.4080     0.0037     1.2011
    0.6807     0.0150     1.4095     0.0037     1.2015
    0.6907     0.0151     1.4110     0.0037     1.2018
    0.7007     0.0152     1.4125     0.0037     1.2022
    0.7107     0.0154     1.4140     0.0037     1.2026
    0.7207     0.0155     1.4156     0.0037     1.2030
    0.7307     0.0156     1.4171     0.0038     1.2033
    0.7407     0.0157     1.4187     0.0038     1.2037
    0.7508     0.0158     1.4202     0.0038     1.2041
    0.7608     0.0159     1.4218     0.0038     1.2045
    0.7708     0.0161     1.4234     0.0038     1.2048
    0.7808     0.0162     1.4250     0.0038     1.2052
    0.7908     0.0163     1.4267     0.0038     1.2056
    0.8008     0.0164     1.4283     0.0039     1.2060
    0.8108     0.0166     1.4299     0.0039     1.2064
    0.8208     0.0167     1.4316     0.0039     1.2068
    0.8308     0.0168     1.4333     0.0039     1.2072
    0.8408     0.0170     1.4349     0.0039     1.2075
    0.8509     0.0171     1.4366     0.0039     1.2079
    0.8609     0.0172     1.4384     0.0039     1.2083
    0.8709     0.0174     1.4401     0.0040     1.2087
    0.8809     0.0175     1.4418     0.0040     1.2091
    0.8909     0.0176     1.4436     0.0040     1.2095
    0.9009     0.0178     1.4453     0.0040     1.2099
    0.9109     0.0179     1.4471     0.0040     1.2103
    0.9209     0.0181     1.4489     0.0040     1.2107
    0.9309     0.0182     1.4507     0.0040     1.2111
    0.9409     0.0184     1.4526     0.0041     1.2115
    0.9510     0.0185     1.4544     0.0041     1.2119
    0.9610     0.0187     1.4562     0.0041     1.2123
    0.9710     0.0188     1.4581     0.0041     1.2128
    0.9810     0.0190     1.4600     0.0041     1.2132
    0.9910     0.0191     1.4619     0.0041     1.2136
    1.0010     0.0193     1.4638     0.0042     1.2140
    1.0110     0.0194     1.4657     0.0042     1.2144
    1.0210     0.0196     1.4677     0.0042     1.2148
    1.0310     0.0198     1.4697     0.0042     1.2153
    1.0410     0.0199     1.4716     0.0042     1.2157
    1.0511     0.0201     1.4736     0.0042     1.2161
    1.0611     0.0203     1.4756     0.0043     1.2165
    1.0711     0.0205     1.4777     0.0043     1.2170
    1.0811     0.0206     1.4797     0.0043     1.2174
    1.0911     0.0208     1.4818     0.0043     1.2178
    1.1011     0.0210     1.4839     0.0043     1.2182
    1.1111     0.0212     1.4860     0.0043     1.2187
    1.1211     0.0214     1.4881     0.0044     1.2191
    1.1311     0.0215     1.4902     0.0044     1.2196
    1.1411     0.0217     1.4924     0.0044     1.2200
    1.1512     0.0219     1.4946     0.0044     1.2204
    1.1612     0.0221     1.4968     0.0044     1.2209
    1.1712     0.0223     1.4990     0.0045     1.2213
    1.1812     0.0225     1.5012     0.0045     1.2218
    1.1912     0.0227     1.5035     0.0045     1.2222
    1.2012     0.0229     1.5058     0.0045     1.2227
    1.2112     0.0231     1.5081     0.0045     1.2231
    1.2212     0.0234     1.5104     0.0045     1.2236
    1.2312     0.0236     1.5127     0.0046     1.2240
    1.2412     0.0238     1.5151     0.0046     1.2245
    1.2513     0.0240     1.5175     0.0046     1.2249
    1.2613     0.0242     1.5199     0.0046     1.2254
    1.2713     0.0245     1.5223     0.0046     1.2259
    1.2813     0.0247     1.5247     0.0047     1.2263
    1.2913     0.0249     1.5272     0.0047     1.2268
    1.3013     0.0252     1.5297     0.0047     1.2273
    1.3113     0.0254     1.5322     0.0047     1.2277
    1.3213     0.0256     1.5348     0.0047     1.2282
    1.3313     0.0259     1.5373     0.0048     1.2287
    1.3413     0.0261     1.5399     0.0048     1.2292
    1.3514     0.0264     1.5425     0.0048     1.2296
    1.3614     0.0267     1.5452     0.0048     1.2301
    1.3714     0.0269     1.5479     0.0048     1.2306
    1.3814     0.0272     1.5505     0.0049     1.2311
    1.3914     0.0275     1.5533     0.0049     1.2316
    1.4014     0.0277     1.5560     0.0049     1.2321
    1.4114     0.0280     1.5588     0.0049     1.2326
    1.4214     0.0283     1.5616     0.0049     1.2331
    1.4314     0.0286     1.5644     0.0050     1.2336
    1.4414     0.0289     1.5673     0.0050     1.2340
    1.4515     0.0292     1.5702     0.0050     1.2345
    1.4615     0.0295     1.5731     0.0050     1.2351
    1.4715     0.0298     1.5760     0.0051     1.2356
    1.4815     0.0301     1.5790     0.0051     1.2361
    1.4915     0.0304     1.5820     0.0051     1.2366
    1.5015     0.0307     1.5851     0.0051     1.2371
    1.5115     0.0310     1.5882     0.0051     1.2376
    1.5215     0.0314     1.5913     0.0052     1.2381
    1.5315     0.0317     1.5944     0.0052     1.2386
    1.5415     0.0320     1.5976     0.0052     1.2391
    1.5516     0.0324     1.6008     0.0052     1.2397
    1.5616     0.0327     1.6040     0.0053     1.2402
    1.5716     0.0331     1.6073     0.0053     1.2407
    1.5816     0.0335     1.6106     0.0053     1.2413
    1.5916     0.0338     1.6140     0.0053     1.2418
    1.6016     0.0342     1.6173     0.0054     1.2423
    1.6116     0.0346     1.6208     0.0054     1.2429
    1.6216     0.0350     1.6242     0.0054     1.2434
    1.6316     0.0354     1.6277     0.0054     1.2439
    1.6416     0.0358     1.6313     0.0054     1.2445
    1.6517     0.0362     1.6348     0.0055     1.2450
    1.6617     0.0366     1.6385     0.0055     1.2456
    1.6717     0.0370     1.6421     0.0055     1.2461
    1.6817     0.0374     1.6458     0.0055     1.2467
    1.6917     0.0379     1.6496     0.0056     1.2472
    1.7017     0.0383     1.6534     0.0056     1.2478
    1.7117     0.0388     1.6572     0.0056     1.2484
    1.7217     0.0392     1.6611     0.0057     1.2489
    1.7317     0.0397     1.6650     0.0057     1.2495
    1.7417     0.0402     1.6690     0.0057     1.2501
    1.7518     0.0407     1.6730     0.0057     1.2506
    1.7618     0.0412     1.6770     0.0058     1.2512
    1.7718     0.0417     1.6812     0.0058     1.2518
    1.7818     0.0422     1.6853     0.0058     1.2524
    1.7918     0.0427     1.6895     0.0058     1.2529
    1.8018     0.0432     1.6938     0.0059     1.2535
    1.8118     0.0438     1.6981     0.0059     1.2541
    1.8218     0.0443     1.7025     0.0059     1.2547
    1.8318     0.0449     1.7069     0.0059     1.2553
    1.8418     0.0455     1.7114     0.0060     1.2559
    1.8519     0.0461     1.7160     0.0060     1.2565
    1.8619     0.0467     1.7206     0.0060     1.2571
    1.8719     0.0473     1.7252     0.0061     1.2577
    1.8819     0.0479     1.7300     0.0061     1.2583
    1.8919     0.0485     1.7347     0.0061     1.2589
    1.9019     0.0492     1.7396     0.0062     1.2595
    1.9119     0.0498     1.7445     0.0062     1.2601
    1.9219     0.0505     1.7495     0.0062     1.2608
    1.9319     0.0512     1.7545     0.0062     1.2614
    1.9419     0.0519     1.7596     0.0063     1.2620
    1.9520     0.0526     1.7648     0.0063     1.2626
    1.9620     0.0533     1.7701     0.0063     1.2633
    1.9720     0.0541     1.7754     0.0064     1.2639
    1.9820     0.0548     1.7808     0.0064     1.2645
    1.9920     0.0556     1.7862     0.0064     1.2652
    2.0020     0.0564     1.7918     0.0065     1.2658
    2.0120     0.0572     1.7974     0.0065     1.2665
    2.0220     0.0580     1.8031     0.0065     1.2671
    2.0320     0.0589     1.8089     0.0066     1.2678
    2.0420     0.0597     1.8148     0.0066     1.2684
    2.0521     0.0606     1.8208     0.0066     1.2691
    2.0621     0.0615     1.8268     0.0067     1.2698
    2.0721     0.0624     1.8329     0.0067     1.2704
    2.0821     0.0634     1.8392     0.0067     1.2711
    2.0921     0.0643     1.8455     0.0068     1.2718
    2.1021     0.0653     1.8519     0.0068     1.2724
    2.1121     0.0663     1.8584     0.0068     1.2731
    2.1221     0.0674     1.8650     0.0069     1.2738
    2.1321     0.0684     1.8717     0.0069     1.2745
    2.1421     0.0695     1.8786     0.0069     1.2752
    2.1522     0.0706     1.8855     0.0070     1.2759
    2.1622     0.0718     1.8925     0.0070     1.2766
    2.1722     0.0729     1.8997     0.0070     1.2773
    2.1822     0.0741     1.9069     0.0071     1.2780
    2.1922     0.0753     1.9143     0.0071     1.2787
    2.2022     0.0766     1.9218     0.0071     1.2794
    2.2122     0.0779     1.9294     0.0072     1.2801
    2.2222     0.0792     1.9372     0.0072     1.2808
    2.2322     0.0805     1.9450     0.0073     1.2816
    2.2422     0.0819     1.9531     0.0073     1.2823
    2.2523     0.0833     1.9612     0.0073     1.2830
    2.2623     0.0848     1.9695     0.0074     1.2838
    2.2723     0.0863     1.9779     0.0074     1.2845
    2.2823     0.0878     1.9865     0.0075     1.2852
    2.2923     0.0894     1.9952     0.0075     1.2860
    2.3023     0.0910     2.0041     0.0075     1.2867
    2.3123     0.0926     2.0131     0.0076     1.2875
    2.3223     0.0943     2.0223     0.0076     1.2883
    2.3323     0.0961     2.0317     0.0077     1.2890
    2.3423     0.0979     2.0412     0.0077     1.2898
    2.3524     0.0997     2.0510     0.0077     1.2906
    2.3624     0.1017     2.0609     0.0078     1.2913
    2.3724     0.1036     2.0709     0.0078     1.2921
    2.3824     0.1056     2.0812     0.0079     1.2929
    2.3924     0.1077     2.0917     0.0079     1.2937
    2.4024     0.1098     2.1024     0.0080     1.2945
    2.4124     0.1120     2.1132     0.0080     1.2953
    2.4224     0.1143     2.1243     0.0080     1.2961
    2.4324     0.1167     2.1357     0.0081     1.2969
    2.4424     0.1191     2.1472     0.0081     1.2977
    2.4525     0.1216     2.1590     0.0082     1.2985
    2.4625     0.1241     2.1710     0.0082     1.2993
    2.4725     0.1268     2.1833     0.0083     1.3001
    2.4825     0.1295     2.1958     0.0083     1.3010
    2.4925     0.1323     2.2086     0.0084     1.3018
    2.5025     0.1352     2.2217     0.0084     1.3026
    2.5125     0.1382     2.2350     0.0085     1.3035
    2.5225     0.1413     2.2487     0.0085     1.3043
    2.5325     0.1446     2.2626     0.0086     1.3052
    2.5425     0.1479     2.2769     0.0086     1.3060
    2.5526     0.1513     2.2915     0.0086     1.3069
    2.5626     0.1549     2.3064     0.0087     1.3078
    2.5726     0.1586     2.3216     0.0087     1.3086
    2.5826     0.1624     2.3372     0.0088     1.3095
    2.5926     0.1664     2.3532     0.0089     1.3104
    2.6026     0.1705     2.3695     0.0089     1.3113
    2.6126     0.1748     2.3863     0.0090     1.3122
    2.6226     0.1792     2.4034     0.0090     1.3131
    2.6326     0.1838     2.4210     0.0091     1.3140
    2.6426     0.1885     2.4390     0.0091     1.3149
    2.6527     0.1935     2.4575     0.0092     1.3158
    2.6627     0.1986     2.4764     0.0092     1.3167
    2.6727     0.2040     2.4958     0.0093     1.3176
    2.6827     0.2096     2.5158     0.0093     1.3186
    2.6927     0.2154     2.5362     0.0094     1.3195
    2.7027     0.2215     2.5572     0.0094     1.3205
    2.7127     0.2278     2.5788     0.0095     1.3214
    2.7227     0.2344     2.6010     0.0096     1.3224
    2.7327     0.2412     2.6238     0.0096     1.3233
    2.7427     0.2484     2.6472     0.0097     1.3243
    2.7528     0.2559     2.6713     0.0097     1.3252
    2.7628     0.2637     2.6961     0.0098     1.3262
    2.7728     0.2719     2.7216     0.0099     1.3272
    2.7828     0.2805     2.7479     0.0099     1.3282
    2.7928     0.2895     2.7750     0.0100     1.3292
   2.80280    0.29896    2.80287    0.01004    1.33018
   2.81281    0.30886    2.83163    0.01010    1.33119
   2.82282    0.31925    2.86129    0.01016    1.33220
   2.83283    0.33017    2.89190    0.01023    1.33322
   2.84284    0.34166    2.92350    0.01029    1.33424
   2.85285    0.35375    2.95613    0.01036    1.33527
   2.86286    0.36648    2.98985    0.01042    1.33631
   2.87287    0.37990    3.02471    0.01049    1.33736
   2.88288    0.39407    3.06075    0.01055    1.33841
   2.89289    0.40903    3.09805    0.01062    1.33947
   2.90290    0.42486    3.13666    0.01069    1.34053
   2.91291    0.44160    3.17666    0.01076    1.34160
   2.92292    0.45934    3.21810    0.01083    1.34268
   2.93293    0.47815    3.26108    0.01090    1.34376
   2.94294    0.49813    3.30566    0.01097    1.34486
   2.95295    0.51936    3.35194    0.01104    1.34596
   2.96296    0.54196    3.40000    0.01111    1.34706
   2.97297    0.56603    3.44994    0.01119    1.34818
   2.98298    0.59172    3.50186    0.01126    1.34930
   2.99299    0.61916    3.55589    0.01133    1.35043
   3.00300    0.64851    3.61211    0.01141    1.35156
   3.01301    0.67995    3.67068    0.01148    1.35270
   3.02302    0.71368    3.73171    0.01156    1.35386
   3.03303    0.74992    3.79534    0.01164    1.35501
   3.04304    0.78892    3.86173    0.01172    1.35618
   3.05305    0.83096    3.93102    0.01180    1.35735
   3.06306    0.87635    4.00338    0.01188    1.35854
   3.07307    0.92545    4.07899    0.01196    1.35973
   3.08308    0.97865    4.15801    0.01204    1.36092
   3.09309    1.03641    4.24063    0.01212    1.36213
   3.10310    1.09925    4.32705    0.01220    1.36334
   3.11311    1.16774    4.41744    0.01229    1.36457
   3.12312    1.24256    4.51199    0.01237    1.36580
   3.13313    1.32446    4.61089    0.01246    1.36704
   3.14314    1.41433    4.71430    0.01255    1.36829
   3.15315    1.51316    4.82236    0.01263    1.36954
   3.16316    1.62211    4.93516    0.01272    1.37081
   3.17317    1.74250    5.05276    0.01281    1.37208
   3.18318    1.87585    5.17511    0.01290    1.37337
   3.19319    2.02392    5.30205    0.01299    1.37466
   3.20320    2.18875    5.43328    0.01309    1.37596
   3.21321    2.37265    5.56824    0.01318    1.37727
   3.22322    2.57832    5.70608    0.01327    1.37859
   3.23323    2.80878    5.84554    0.01337    1.37993
   3.24324    3.06751    5.98479    0.01347    1.38126
   3.25325    3.35838    6.12124    0.01356    1.38261
   3.26326    3.68565    6.25132    0.01366    1.38397
   3.27327    4.05388    6.37014    0.01376    1.38534
   3.28328    4.46774    6.47111    0.01386    1.38672
   3.29329    4.93168    6.54553    0.01397    1.38811
   3.30330    5.44931    6.58207    0.01407    1.38951
   3.31331    6.02254    6.56636    0.01417    1.39092
   3.32332    6.65023    6.48076    0.01428    1.39234
   3.33333    7.32635    6.30457    0.01439    1.39377
   3.34334    8.03787    6.01511    0.01449    1.39521
   3.35335    8.76247    5.59004    0.01460    1.39666
   3.36336    9.46702    5.01142    0.01471    1.39813
   3.37337   10.10803    4.27118    0.01483    1.39960
   3.38338   10.63520    3.37719    0.01494    1.40109
   3.39339   10.99890    2.35747    0.01505    1.40258
   3.40340   11.16026    1.26022    0.01517    1.40409
   3.41341   11.10077    0.14769    0.01529    1.40561
   3.42342   10.82735   -0.91513    0.01541    1.40714
   3.43343   10.37040   -1.87236    0.01553    1.40869
   3.44344    9.77588   -2.68623    0.01565    1.41024
   3.45345    9.09494   -3.33980    0.01577    1.41181
   3.46346    8.37486   -3.83448    0.01589    1.41339
   3.47347    7.65384   -4.18437    0.01602    1.41498
   3.48348    6.95912   -4.41035    0.01615    1.41658
   3.49349    6.30781   -4.53532    0.01628    1.41820
   3.50350    5.70887   -4.58113    0.01641    1.41983
   3.51351    5.16547   -4.56690    0.01654    1.42148
   3.52352    4.67694   -4.50850    0.01667    1.42313
   3.53353    4.24033   -4.41865    0.01681    1.42480
   3.54354    3.85146   -4.30719    0.01694    1.42649
   3.55355    3.50573   -4.18164    0.01708    1.42818
   3.56356    3.19849   -4.04763    0.01722    1.42990
   3.57357    2.92533   -3.90931    0.01737    1.43162
   3.58358    2.68218   -3.76968    0.01751    1.43336
   3.59359    2.46539   -3.63089    0.01766    1.43511
   3.60360    2.27173   -3.49447    0.01780    1.43688
   3.61361    2.09835   -3.36142    0.01795    1.43867
   3.62362    1.94275   -3.23243    0.01811    1.44046
   3.63363    1.80279   -3.10791    0.01826    1.44228
   3.64364    1.67658   -2.98810    0.01841    1.44411
   3.65365    1.56249   -2.87307    0.01857    1.44595
   3.66366    1.45911   -2.76281    0.01873    1.44781
   3.67367    1.36521   -2.65725    0.01889    1.44969
   3.68368    1.27972   -2.55628    0.01906    1.45158
   3.69369    1.20171   -2.45972    0.01922    1.45349
   3.70370    1.13036   -2.36741    0.01939    1.45541
   3.71371    1.06497   -2.27917    0.01956    1.45735
   3.72372    1.00492   -2.19481    0.01973    1.45931
   3.73373    0.94966   -2.11413    0.01991    1.46129
   3.74374    0.89871   -2.03696    0.02009    1.46328
   3.75375    0.85164   -1.96311    0.02027    1.46530
   3.76376    0.80809   -1.89241    0.02045    1.46732
   3.77377    0.76771   -1.82469    0.02063    1.46937
   3.78378    0.73022   -1.75979    0.02082    1.47144
   3.79379    0.69535   -1.69757    0.02101    1.47352
   3.80380    0.66287   -1.63788    0.02121    1.47563
   3.81381    0.63257   -1.58057    0.02140    1.47775
   3.82382    0.60427   -1.52554    0.02160    1.47989
   3.83383    0.57779   -1.47265    0.02180    1.48206
   3.84384    0.55298   -1.42180    0.02200    1.48424
   3.85385    0.52971   -1.37287    0.02221    1.48644
   3.86386    0.50786   -1.32578    0.02242    1.48867
   3.87387    0.48732   -1.28042    0.02263    1.49091
   3.88388    0.46797   -1.23670    0.02285    1.49318
   3.89389    0.44975   -1.19455    0.02307    1.49546
   3.90390    0.43255   -1.15389    0.02329    1.49777
   3.91391    0.41631   -1.11464    0.02352    1.50011
   3.92392    0.40095   -1.07674    0.02375    1.50246
   3.93393    0.38642   -1.04011    0.02398    1.50484
   3.94394    0.37266   -1.00471    0.02421    1.50724
   3.95395    0.35961   -0.97047    0.02445    1.50966
   3.96396    0.34723   -0.93733    0.02470    1.51211
   3.97397    0.33547   -0.90525    0.02494    1.51458
   3.98398    0.32430   -0.87419    0.02520    1.51708
   3.99399    0.31366   -0.84409    0.02545    1.51960
   4.00400    0.30354   -0.81491    0.02571    1.52215
   4.01401    0.29389   -0.78661    0.02597    1.52472
   4.02402    0.28470   -0.75915    0.02624    1.52732
   4.03403    0.27592   -0.73250    0.02651    1.52994
   4.04404    0.26755   -0.70663    0.02678    1.53260
   4.05405    0.25954   -0.68150    0.02706    1.53528
   4.06406    0.25189   -0.65707    0.02735    1.53798
   4.07407    0.24456   -0.63333    0.02764    1.54072
   4.08408    0.23755   -0.61025    0.02793    1.54349
   4.09409    0.23084   -0.58779    0.02823    1.54628
   4.10410    0.22441   -0.56594    0.02853    1.54910
   4.11411    0.21823   -0.54466    0.02884    1.55196
   4.12412    0.21231   -0.52395    0.02915    1.55484
   4.13413    0.20663   -0.50377    0.02947    1.55776
   4.14414    0.20116   -0.48410    0.02979    1.56071
   4.15415    0.19592   -0.46494    0.03012    1.56369
   4.16416    0.19087   -0.44625    0.03046    1.56670
   4.17417    0.18601   -0.42802    0.03080    1.56975
   4.18418    0.18134   -0.41024    0.03115    1.57283
   4.19419    0.17684   -0.39289    0.03150    1.57594
   4.20420    0.17250   -0.37596    0.03186    1.57909
   4.21421    0.16833   -0.35942    0.03222    1.58228
   4.22422    0.16430   -0.34327    0.03259    1.58550
   4.23423    0.16041   -0.32749    0.03297    1.58876
   4.24424    0.15666   -0.31207    0.03336    1.59206
   4.25425    0.15304   -0.29700    0.03375    1.59539
   4.26426    0.14954   -0.28227    0.03415    1.59877
   4.27427    0.14616   -0.26786    0.03455    1.60218
   4.28428    0.14290   -0.25377    0.03497    1.60564
   4.29429    0.13974   -0.23998    0.03539    1.60913
   4.30430    0.13668   -0.22649    0.03582    1.61267
   4.31431    0.13373   -0.21328    0.03625    1.61625
   4.32432    0.13086   -0.20036    0.03670    1.61987
   4.33433    0.12809   -0.18770    0.03715    1.62354
   4.34434    0.12541   -0.17530    0.03761    1.62725
   4.35435    0.12281   -0.16315    0.03808    1.63101
   4.36436    0.12029   -0.15125    0.03856    1.63481
   4.37437    0.11785   -0.13958    0.03905    1.63867
   4.38438    0.11548   -0.12815    0.03955    1.64257
   4.39439    0.11318   -0.11694    0.04006    1.64652
   4.40440    0.11095   -0.10595    0.04058    1.65052
   4.41441    0.10878   -0.09517    0.04111    1.65458
   4.42442    0.10668   -0.08459    0.04165    1.65868
   4.43443    0.10463   -0.07422    0.04220    1.66284
   4.44444    0.10265   -0.06404    0.04276    1.66706
   4.45445    0.10072   -0.05404    0.04334    1.67132
   4.46446    0.09885   -0.04423    0.04392    1.67565
   4.47447    0.09702   -0.03460    0.04452    1.68004
   4.48448    0.09525   -0.02515    0.04513    1.68448
   4.49449    0.09353   -0.01586    0.04576    1.68899
    4.5045     0.0918    -0.0067     0.0464     1.6936
  4.515     0.9021E-1  0.2230E-2  0.4704E-1   1.698   
   4.52452    0.08863    0.01104    0.04771    1.70288
   4.53453    0.08708    0.01969    0.04839    1.70764
   4.54454    0.08557    0.02820    0.04908    1.71246
   4.55455    0.08410    0.03656    0.04979    1.71736
   4.56456    0.08267    0.04478    0.05052    1.72233
   4.57457    0.08128    0.05287    0.05126    1.72736
   4.58458    0.07992    0.06082    0.05202    1.73248
   4.59459    0.07859    0.06864    0.05280    1.73766
   4.60460    0.07730    0.07633    0.05359    1.74293
   4.61461    0.07604    0.08390    0.05440    1.74827
   4.62462    0.07481    0.09135    0.05524    1.75369
   4.63463    0.07361    0.09868    0.05609    1.75919
   4.64464    0.07244    0.10589    0.05696    1.76478
   4.65465    0.07130    0.11300    0.05785    1.77046
   4.66466    0.07018    0.11999    0.05877    1.77622
   4.67467    0.06909    0.12687    0.05970    1.78207
   4.68468    0.06803    0.13365    0.06067    1.78802
   4.69469    0.06699    0.14032    0.06165    1.79406
   4.70470    0.06598    0.14690    0.06266    1.80019
   4.71471    0.06499    0.15338    0.06369    1.80643
   4.72472    0.06402    0.15976    0.06476    1.81277
   4.73473    0.06307    0.16605    0.06584    1.81921
   4.74474    0.06215    0.17224    0.06696    1.82576
   4.75475    0.06124    0.17835    0.06811    1.83242
   4.76476    0.06036    0.18437    0.06929    1.83919
   4.77477    0.05949    0.19030    0.07050    1.84608
   4.78478    0.05865    0.19615    0.07174    1.85308
   4.79479    0.05782    0.20192    0.07301    1.86021
   4.80480    0.05701    0.20761    0.07433    1.86746
   4.81481    0.05622    0.21321    0.07567    1.87484
   4.82482    0.05544    0.21875    0.07706    1.88236
   4.83483    0.05469    0.22420    0.07848    1.89001
   4.84484    0.05395    0.22959    0.07995    1.89779
   4.85485    0.05322    0.23490    0.08146    1.90573
   4.86486    0.05251    0.24014    0.08301    1.91380
   4.87487    0.05182    0.24531    0.08461    1.92203
   4.88488    0.05114    0.25041    0.08626    1.93042
   4.89489    0.05047    0.25545    0.08796    1.93897
   4.90490    0.04982    0.26042    0.08971    1.94768
   4.91491    0.04918    0.26533    0.09152    1.95656
   4.92492    0.04856    0.27018    0.09338    1.96562
   4.93493    0.04795    0.27496    0.09530    1.97486
   4.94494    0.04735    0.27969    0.09728    1.98428
   4.95495    0.04677    0.28436    0.09932    1.99390
   4.96496    0.04620    0.28897    0.10144    2.00371
   4.97497    0.04564    0.29352    0.10362    2.01373
   4.98498    0.04509    0.29802    0.10588    2.02396
   4.99499    0.04456    0.30247    0.10821    2.03441
   5.00500    0.04403    0.30686    0.11063    2.04508
   5.01501    0.04352    0.31120    0.11313    2.05599
   5.02502    0.04302    0.31549    0.11571    2.06714
   5.03503    0.04254    0.31973    0.11839    2.07853
   5.04504    0.04206    0.32393    0.12117    2.09018
   5.05505    0.04160    0.32807    0.12405    2.10210
   5.06506    0.04115    0.33217    0.12704    2.11429
   5.07507    0.04071    0.33623    0.13013    2.12677
   5.08508    0.04028    0.34024    0.13335    2.13954
   5.09509    0.03987    0.34420    0.13669    2.15262
   5.10510    0.03946    0.34813    0.14017    2.16601
   5.11511    0.03908    0.35201    0.14378    2.17974
   5.12512    0.03870    0.35585    0.14753    2.19380
   5.13514    0.03834    0.35965    0.15145    2.20822
   5.14514    0.03799    0.36342    0.15552    2.22301
   5.15515    0.03766    0.36714    0.15977    2.23818
   5.16516    0.03735    0.37083    0.16420    2.25376
   5.17518    0.03706    0.37448    0.16882    2.26974
   5.18518    0.03678    0.37809    0.17364    2.28615
   5.19519    0.03652    0.38166    0.17869    2.30302
   5.20520    0.03629    0.38520    0.18396    2.32035
   5.21522    0.03608    0.38870    0.18948    2.33816
   5.22522    0.03590    0.39216    0.19526    2.35649
   5.23523    0.03575    0.39558    0.20131    2.37535
   5.24524    0.03563    0.39895    0.20766    2.39475
   5.25526    0.03554    0.40228    0.21433    2.41474
   5.26526    0.03549    0.40556    0.22134    2.43533
   5.27527    0.03548    0.40877    0.22870    2.45656
   5.28528    0.03551    0.41192    0.23645    2.47844
   5.29530    0.03557    0.41498    0.24462    2.50102
   5.30531    0.03566    0.41796    0.25323    2.52432
   5.31531    0.03577    0.42083    0.26231    2.54838
   5.32533    0.03589    0.42359    0.27192    2.57323
   5.33534    0.03598    0.42622    0.28207    2.59893
   5.34535    0.03603    0.42874    0.29283    2.62550
   5.35536    0.03601    0.43115    0.30423    2.65299
   5.36537    0.03588    0.43348    0.31633    2.68145
   5.37538    0.03564    0.43576    0.32919    2.71093
   5.38539    0.03529    0.43803    0.34288    2.74148
   5.39540    0.03483    0.44032    0.35747    2.77316
   5.40541    0.03431    0.44266    0.37303    2.80603
   5.41541    0.03374    0.44505    0.38966    2.84015
   5.42543    0.03315    0.44751    0.40746    2.87558
   5.43544    0.03257    0.45002    0.42654    2.91240
   5.44545    0.03201    0.45256    0.44703    2.95068
   5.45545    0.03149    0.45514    0.46907    2.99050
   5.46547    0.03101    0.45772    0.49282    3.03193
   5.47548    0.03058    0.46029    0.51845    3.07506
   5.48549    0.03018    0.46285    0.54618    3.11998
   5.49549    0.02982    0.46537    0.57623    3.16677
   5.50551    0.02949    0.46786    0.60887    3.21552
   5.51552    0.02917    0.47030    0.64439    3.26632
   5.52553    0.02884    0.47270    0.68314    3.31923
   5.53553    0.02852    0.47506    0.72551    3.37432
   5.54555    0.02817    0.47740    0.77194    3.43167
   5.55556    0.02780    0.47971    0.82294    3.49128
   5.56557    0.02741    0.48201    0.87910    3.55317
   5.57558    0.02701    0.48432    0.94110    3.61729
   5.58559    0.02661    0.48663    1.00970    3.68353
   5.59560    0.02620    0.48894    1.08578    3.75169
   5.60561    0.02581    0.49126    1.17033    3.82144
   5.61562    0.02543    0.49359    1.26447    3.89230
   5.62563    0.02507    0.49591    1.36945    3.96358
   5.63564    0.02473    0.49823    1.48663    4.03427
   5.64565    0.02441    0.50053    1.61743    4.10301
   5.65566    0.02411    0.50283    1.76332    4.16797
   5.66567    0.02383    0.50511    1.92565    4.22673
   5.67568    0.02357    0.50738    2.10551    4.27618
   5.68569    0.02333    0.50963    2.30343    4.31249
   5.69570    0.02311    0.51186    2.51909    4.33112
   5.70571    0.02291    0.51406    2.75087    4.32704
   5.71572    0.02273    0.51625    2.99543    4.29516
   5.72573    0.02256    0.51841    3.24753    4.23103
   5.73574    0.02242    0.52055    3.50024    4.13187
   5.74575    0.02229    0.52267    3.74561    3.99738
   5.75576    0.02218    0.52475    3.97609    3.83021
   5.76577    0.02209    0.52680    4.18611    3.63548
   5.77578    0.02202    0.52881    4.37318    3.41919
   5.78579    0.02195    0.53078    4.53775    3.18625
   5.79580    0.02190    0.53271    4.68178    2.93876
   5.80581    0.02185    0.53459    4.80642    2.67567
   5.81582    0.02178    0.53642    4.90972    2.39395
   5.82583    0.02171    0.53820    4.98563    2.09122
   5.83584    0.02160    0.53994    5.02470    1.76858
   5.84585    0.02146    0.54164    5.01657    1.43269
   5.85586    0.02128    0.54333    4.95345    1.09594
   5.86587    0.02106    0.54501    4.83323    0.77460
   5.87588    0.02080    0.54669    4.66091    0.48522
   5.88589    0.02052    0.54839    4.44772    0.24112
   5.89590    0.02023    0.55010    4.20849    0.05006
   5.90591    0.01993    0.55183    3.95872   -0.08617
   5.91592    0.01964    0.55357    3.71213   -0.17066
   5.92593    0.01935    0.55532    3.47936   -0.20971
   5.93594    0.01908    0.55708    3.26781   -0.21108
   5.94595    0.01881    0.55884    3.08205   -0.18277
   5.95596    0.01856    0.56059    2.92445   -0.13226
   5.96597    0.01833    0.56234    2.79592   -0.06621
    5.9760     0.0181     0.5641     2.6965     0.0095
   5.98599    0.01790    0.56582    2.62557    0.08979
   5.99600    0.01770    0.56754    2.58243    0.16986
   6.00601    0.01751    0.56926    2.56602    0.24519
   6.01602    0.01733    0.57096    2.57501    0.31117
   6.02603    0.01716    0.57265    2.60757    0.36296
   6.03604    0.01700    0.57432    2.66099    0.39542
   6.04605    0.01684    0.57598    2.73125    0.40328
   6.05606    0.01670    0.57763    2.81255    0.38154
   6.06607    0.01655    0.57927    2.89699    0.32625
   6.07608    0.01642    0.58090    2.97464    0.23568
   6.08609    0.01629    0.58251    3.03432    0.11148
   6.09610    0.01617    0.58411    3.06514   -0.04043
   6.10611    0.01605    0.58569    3.05854   -0.20994
   6.11612    0.01594    0.58727    3.01034   -0.38404
   6.12613    0.01584    0.58883    2.92170   -0.54917
   6.13614    0.01574    0.59037    2.79867   -0.69372
   6.14615    0.01565    0.59191    2.65055   -0.80986
   6.15616    0.01557    0.59343    2.48771   -0.89405
   6.16617    0.01550    0.59493    2.31972   -0.94656
   6.17618    0.01543    0.59643    2.15430   -0.97025
   6.18619    0.01537    0.59790    1.99692   -0.96938
   6.19620    0.01532    0.59935    1.85098   -0.94858
   6.20621    0.01527    0.60079    1.71825   -0.91228
   6.21622    0.01523    0.60220    1.59933   -0.86433
   6.22623    0.01520    0.60359    1.49407   -0.80794
   6.23624    0.01516    0.60495    1.40185   -0.74563
   6.24625    0.01511    0.60628    1.32188   -0.67937
   6.25626    0.01506    0.60759    1.25329   -0.61065
   6.26627    0.01499    0.60888    1.19524   -0.54058
   6.27628    0.01490    0.61015    1.14698   -0.46999
   6.28629    0.01479    0.61140    1.10787   -0.39952
   6.29630    0.01467    0.61266    1.07743   -0.32964
   6.30631    0.01452    0.61391    1.05528   -0.26075
   6.31632    0.01436    0.61517    1.04118   -0.19321
   6.32633    0.01420    0.61644    1.03505   -0.12741
   6.33634    0.01403    0.61771    1.03689   -0.06377
  6.346     0.1387E-1  0.6190      1.047     -.2850E-2
   6.35636    0.01371    0.62027    1.06507    0.05466
   6.36637    0.01355    0.62156    1.09184    0.10784
   6.37638    0.01340    0.62284    1.12735    0.15547
   6.38639    0.01326    0.62412    1.17168    0.19599
   6.39640    0.01312    0.62539    1.22463    0.22747
   6.40641    0.01300    0.62666    1.28551    0.24758
   6.41642    0.01287    0.62792    1.35292    0.25369
   6.42643    0.01276    0.62918    1.42442    0.24309
   6.43644    0.01264    0.63042    1.49634    0.21342
   6.44645    0.01253    0.63166    1.56369    0.16325
   6.45646    0.01243    0.63290    1.62049    0.09286
  6.466     0.1233E-1  0.6341      1.660     0.4797E-2
   6.47648    0.01223    0.63534    1.67825   -0.09583
   6.48649    0.01214    0.63654    1.67052   -0.20187
   6.49650    0.01205    0.63774    1.63698   -0.30534
   6.50651    0.01196    0.63893    1.58035   -0.39886
   6.51652    0.01187    0.64012    1.50565   -0.47694
   6.52653    0.01179    0.64129    1.41896   -0.53662
   6.53654    0.01171    0.64246    1.32627   -0.57730
   6.54655    0.01163    0.64362    1.23261   -0.60019
   6.55656    0.01155    0.64477    1.14173   -0.60759
   6.56657    0.01148    0.64592    1.05610   -0.60219
   6.57658    0.01140    0.64705    0.97712   -0.58668
   6.58659    0.01133    0.64818    0.90537   -0.56348
   6.59660    0.01127    0.64930    0.84092   -0.53461
   6.60661    0.01120    0.65042    0.78348   -0.50171
   6.61662    0.01114    0.65153    0.73260   -0.46605
   6.62663    0.01108    0.65263    0.68774   -0.42861
   6.63664    0.01102    0.65372    0.64835   -0.39012
   6.64665    0.01096    0.65480    0.61392   -0.35108
   6.65666    0.01091    0.65588    0.58396   -0.31190
   6.66667    0.01086    0.65695    0.55806   -0.27282
   6.67668    0.01081    0.65801    0.53585   -0.23403
   6.68669    0.01077    0.65906    0.51703   -0.19565
   6.69670    0.01073    0.66010    0.50136   -0.15775
   6.70671    0.01069    0.66113    0.48863   -0.12037
   6.71672    0.01065    0.66215    0.47872   -0.08354
   6.72673    0.01062    0.66316    0.47153   -0.04727
   6.73674    0.01058    0.66415    0.46700   -0.01157
   6.74675    0.01054    0.66513    0.46514    0.02354
   6.75676    0.01049    0.66610    0.46600    0.05801
   6.76677    0.01044    0.66706    0.46966    0.09179
   6.77678    0.01038    0.66801    0.47626    0.12478
   6.78679    0.01032    0.66896    0.48597    0.15683
   6.79680    0.01024    0.66990    0.49899    0.18771
   6.80681    0.01016    0.67084    0.51558    0.21711
   6.81682    0.01008    0.67178    0.53599    0.24460
    6.8268     0.0100     0.6727     0.5605     0.2696
    6.8368     0.0099     0.6737     0.5892     0.2913
    6.8468     0.0098     0.6746     0.6222     0.3088
    6.8569     0.0097     0.6756     0.6594     0.3208
    6.8669     0.0097     0.6765     0.7003     0.3259
    6.8769     0.0096     0.6774     0.7439     0.3226
    6.8869     0.0095     0.6784     0.7885     0.3094
    6.8969     0.0094     0.6793     0.8318     0.2851
    6.9069     0.0094     0.6802     0.8707     0.2494
    6.9169     0.0093     0.6811     0.9017     0.2028
    6.9269     0.0092     0.6821     0.9213     0.1475
    6.9369     0.0092     0.6830     0.9271     0.0871
    6.9469     0.0091     0.6839     0.9180     0.0257
    6.9570     0.0090     0.6848     0.8945    -0.0320
    6.9670     0.0090     0.6857     0.8589    -0.0824
    6.9770     0.0089     0.6866     0.8145    -0.1231
    6.9870     0.0089     0.6874     0.7647    -0.1528
    6.9970     0.0088     0.6883     0.7128    -0.1720
    7.0070     0.0088     0.6892     0.6612    -0.1816
    7.0170     0.0087     0.6901     0.6118    -0.1830
    7.0270     0.0087     0.6909     0.5657    -0.1778
    7.0370     0.0086     0.6918     0.5234    -0.1675
    7.0470     0.0086     0.6927     0.4851    -0.1533
    7.0571     0.0085     0.6935     0.4507    -0.1364
    7.0671     0.0085     0.6943     0.4201    -0.1175
    7.0771     0.0084     0.6952     0.3929    -0.0972
    7.0871     0.0084     0.6960     0.3689    -0.0762
    7.0971     0.0083     0.6969     0.3477    -0.0547
    7.1071     0.0083     0.6977     0.3290    -0.0329
    7.1171     0.0082     0.6985     0.3126    -0.0112
    7.1271     0.0082     0.6993     0.2982     0.0105
    7.1371     0.0081     0.7001     0.2856     0.0319
    7.1471     0.0081     0.7009     0.2747     0.0531
    7.1572     0.0081     0.7018     0.2652     0.0740
    7.1672     0.0080     0.7026     0.2572     0.0946
    7.1772     0.0080     0.7033     0.2504     0.1150
    7.1872     0.0079     0.7041     0.2448     0.1350
    7.1972     0.0079     0.7049     0.2404     0.1548
    7.2072     0.0079     0.7057     0.2371     0.1743
    7.2172     0.0078     0.7065     0.2348     0.1935
    7.2272     0.0078     0.7073     0.2337     0.2125
    7.2372     0.0078     0.7080     0.2336     0.2313
    7.2472     0.0077     0.7088     0.2347     0.2498
    7.2573     0.0077     0.7095     0.2370     0.2682
    7.2673     0.0077     0.7103     0.2405     0.2862
    7.2773     0.0076     0.7110     0.2454     0.3040
    7.2873     0.0076     0.7118     0.2517     0.3214
    7.2973     0.0076     0.7125     0.2596     0.3384
    7.3073     0.0075     0.7132     0.2693     0.3548
    7.3173     0.0075     0.7139     0.2808     0.3704
    7.3273     0.0075     0.7147     0.2944     0.3850
    7.3373     0.0074     0.7154     0.3103     0.3981
    7.3473     0.0074     0.7161     0.3284     0.4094
  7.357     0.7327E-2  0.7168     0.3490     0.4183   
  7.367     0.7280E-2  0.7175     0.3718     0.4240   
  7.377     0.7234E-2  0.7182     0.3966     0.4257   
  7.387     0.7188E-2  0.7189     0.4227     0.4225   
  7.397     0.7143E-2  0.7196     0.4493     0.4135   
  7.407     0.7099E-2  0.7203     0.4747     0.3982   
  7.417     0.7056E-2  0.7210     0.4974     0.3764   
  7.427     0.7014E-2  0.7217     0.5152     0.3484   
  7.437     0.6973E-2  0.7224     0.5262     0.3158   
  7.447     0.6933E-2  0.7231     0.5290     0.2804   
  7.457     0.6894E-2  0.7238     0.5231     0.2450   
  7.467     0.6856E-2  0.7245     0.5091     0.2119   
  7.477     0.6818E-2  0.7252     0.4883     0.1834   
  7.487     0.6781E-2  0.7259     0.4627     0.1606   
  7.497     0.6745E-2  0.7265     0.4341     0.1441   
  7.508     0.6710E-2  0.7272     0.4045     0.1337   
  7.518     0.6674E-2  0.7279     0.3752     0.1287   
  7.528     0.6640E-2  0.7285     0.3472     0.1284   
  7.538     0.6606E-2  0.7292     0.3211     0.1317   
  7.548     0.6572E-2  0.7299     0.2972     0.1380   
  7.558     0.6539E-2  0.7305     0.2756     0.1464   
  7.568     0.6506E-2  0.7312     0.2563     0.1563   
  7.578     0.6474E-2  0.7318     0.2390     0.1673   
  7.588     0.6442E-2  0.7325     0.2237     0.1791   
  7.598     0.6410E-2  0.7331     0.2101     0.1913   
  7.608     0.6378E-2  0.7337     0.1981     0.2038   
  7.618     0.6347E-2  0.7344     0.1875     0.2163   
  7.628     0.6317E-2  0.7350     0.1781     0.2289   
  7.638     0.6286E-2  0.7356     0.1698     0.2414   
  7.648     0.6256E-2  0.7363     0.1626     0.2539   
  7.658     0.6226E-2  0.7369     0.1562     0.2661   
  7.668     0.6197E-2  0.7375     0.1507     0.2782   
  7.678     0.6168E-2  0.7381     0.1458     0.2901   
  7.688     0.6139E-2  0.7387     0.1417     0.3019   
  7.698     0.6111E-2  0.7393     0.1381     0.3135   
  7.708     0.6083E-2  0.7400     0.1352     0.3249   
  7.718     0.6055E-2  0.7406     0.1328     0.3362   
  7.728     0.6027E-2  0.7412     0.1309     0.3473   
  7.738     0.6000E-2  0.7418     0.1295     0.3583   
  7.748     0.5974E-2  0.7424     0.1287     0.3692   
  7.758     0.5947E-2  0.7430     0.1284     0.3800   
  7.768     0.5921E-2  0.7436     0.1286     0.3907   
  7.778     0.5896E-2  0.7441     0.1293     0.4013   
  7.788     0.5871E-2  0.7447     0.1306     0.4118   
  7.798     0.5846E-2  0.7453     0.1325     0.4223   
  7.808     0.5822E-2  0.7459     0.1351     0.4326   
  7.818     0.5798E-2  0.7465     0.1384     0.4428   
  7.828     0.5774E-2  0.7470     0.1425     0.4529   
  7.838     0.5750E-2  0.7476     0.1474     0.4627   
  7.848     0.5726E-2  0.7482     0.1533     0.4723   
  7.858     0.5702E-2  0.7487     0.1602     0.4815   
  7.868     0.5678E-2  0.7493     0.1683     0.4901   
  7.878     0.5653E-2  0.7499     0.1777     0.4981   
  7.888     0.5627E-2  0.7504     0.1884     0.5051   
  7.898     0.5601E-2  0.7510     0.2004     0.5108   
  7.908     0.5574E-2  0.7515     0.2139     0.5148   
  7.918     0.5547E-2  0.7521     0.2286     0.5167   
  7.928     0.5520E-2  0.7526     0.2442     0.5158   
  7.938     0.5493E-2  0.7532     0.2603     0.5118   
  7.948     0.5466E-2  0.7537     0.2761     0.5041   
  7.958     0.5439E-2  0.7543     0.2907     0.4925   
  7.968     0.5413E-2  0.7548     0.3028     0.4771   
  7.978     0.5387E-2  0.7553     0.3112     0.4586   
  7.988     0.5361E-2  0.7559     0.3151     0.4380   
  7.998     0.5336E-2  0.7564     0.3138     0.4166   
  8.008     0.5311E-2  0.7569     0.3074     0.3962   
  8.018     0.5287E-2  0.7575     0.2966     0.3780   
  8.028     0.5263E-2  0.7580     0.2824     0.3631   
  8.038     0.5239E-2  0.7585     0.2660     0.3518   
  8.048     0.5215E-2  0.7590     0.2486     0.3443   
  8.058     0.5192E-2  0.7596     0.2311     0.3402   
  8.068     0.5169E-2  0.7601     0.2141     0.3391   
  8.078     0.5146E-2  0.7606     0.1982     0.3404   
  8.088     0.5123E-2  0.7611     0.1835     0.3436   
  8.098     0.5101E-2  0.7616     0.1701     0.3482   
  8.108     0.5078E-2  0.7621     0.1581     0.3539   
  8.118     0.5056E-2  0.7626     0.1474     0.3604   
  8.128     0.5034E-2  0.7631     0.1379     0.3674   
  8.138     0.5013E-2  0.7636     0.1294     0.3747   
  8.148     0.4991E-2  0.7641     0.1219     0.3823   
  8.158     0.4970E-2  0.7646     0.1153     0.3899   
  8.168     0.4949E-2  0.7651     0.1094     0.3975   
  8.178     0.4928E-2  0.7656     0.1042     0.4052   
  8.188     0.4907E-2  0.7661     0.9966E-1  0.4128   
  8.198     0.4886E-2  0.7666     0.9563E-1  0.4203   
  8.208     0.4865E-2  0.7671     0.9209E-1  0.4277   
  8.218     0.4845E-2  0.7676     0.8899E-1  0.4350   
  8.228     0.4825E-2  0.7681     0.8629E-1  0.4422   
  8.238     0.4805E-2  0.7685     0.8395E-1  0.4493   
  8.248     0.4785E-2  0.7690     0.8195E-1  0.4563   
  8.258     0.4765E-2  0.7695     0.8027E-1  0.4632   
  8.268     0.4745E-2  0.7700     0.7888E-1  0.4700   
  8.278     0.4725E-2  0.7704     0.7778E-1  0.4768   
  8.288     0.4706E-2  0.7709     0.7695E-1  0.4834   
  8.298     0.4687E-2  0.7714     0.7640E-1  0.4901   
  8.308     0.4668E-2  0.7719     0.7611E-1  0.4966   
  8.318     0.4649E-2  0.7723     0.7610E-1  0.5031   
  8.328     0.4630E-2  0.7728     0.7638E-1  0.5096   
  8.338     0.4611E-2  0.7732     0.7695E-1  0.5160   
  8.348     0.4593E-2  0.7737     0.7783E-1  0.5224   
  8.358     0.4574E-2  0.7742     0.7905E-1  0.5288   
  8.368     0.4556E-2  0.7746     0.8063E-1  0.5351   
  8.378     0.4538E-2  0.7751     0.8261E-1  0.5414   
  8.388     0.4520E-2  0.7755     0.8502E-1  0.5476   
  8.398     0.4502E-2  0.7760     0.8792E-1  0.5537   
  8.408     0.4485E-2  0.7764     0.9135E-1  0.5597   
  8.418     0.4467E-2  0.7769     0.9537E-1  0.5656   
  8.428     0.4450E-2  0.7773     0.1001     0.5711   
  8.438     0.4432E-2  0.7778     0.1055     0.5764   
  8.448     0.4415E-2  0.7782     0.1117     0.5811   
  8.458     0.4397E-2  0.7786     0.1187     0.5852   
  8.468     0.4380E-2  0.7791     0.1266     0.5885   
  8.478     0.4362E-2  0.7795     0.1353     0.5906   
  8.488     0.4345E-2  0.7799     0.1447     0.5913   
  8.498     0.4327E-2  0.7804     0.1546     0.5903   
  8.509     0.4310E-2  0.7808     0.1647     0.5872   
  8.519     0.4293E-2  0.7812     0.1745     0.5817   
  8.529     0.4275E-2  0.7817     0.1833     0.5739   
  8.539     0.4258E-2  0.7821     0.1903     0.5638   
  8.549     0.4241E-2  0.7825     0.1948     0.5518   
  8.559     0.4224E-2  0.7829     0.1964     0.5388   
  8.569     0.4208E-2  0.7834     0.1947     0.5257   
  8.579     0.4191E-2  0.7838     0.1900     0.5134   
  8.589     0.4174E-2  0.7842     0.1826     0.5027   
  8.599     0.4158E-2  0.7846     0.1734     0.4942   
  8.609     0.4142E-2  0.7850     0.1630     0.4879   
  8.619     0.4126E-2  0.7854     0.1522     0.4840   
  8.629     0.4110E-2  0.7859     0.1414     0.4821   
  8.639     0.4094E-2  0.7863     0.1310     0.4820   
  8.649     0.4078E-2  0.7867     0.1214     0.4833   
  8.659     0.4062E-2  0.7871     0.1125     0.4857   
  8.669     0.4047E-2  0.7875     0.1045     0.4889   
  8.679     0.4031E-2  0.7879     0.9730E-1  0.4927   
  8.689     0.4016E-2  0.7883     0.9088E-1  0.4969   
  8.699     0.4000E-2  0.7887     0.8517E-1  0.5015   
  8.709     0.3985E-2  0.7891     0.8011E-1  0.5062   
  8.719     0.3970E-2  0.7895     0.7563E-1  0.5110   
  8.729     0.3955E-2  0.7899     0.7166E-1  0.5159   
  8.739     0.3940E-2  0.7903     0.6815E-1  0.5208   
  8.749     0.3925E-2  0.7907     0.6505E-1  0.5256   
  8.759     0.3910E-2  0.7911     0.6231E-1  0.5305   
  8.769     0.3896E-2  0.7915     0.5990E-1  0.5352   
  8.779     0.3881E-2  0.7918     0.5777E-1  0.5400   
  8.789     0.3867E-2  0.7922     0.5591E-1  0.5446   
  8.799     0.3852E-2  0.7926     0.5428E-1  0.5492   
  8.809     0.3838E-2  0.7930     0.5286E-1  0.5537   
  8.819     0.3824E-2  0.7934     0.5165E-1  0.5582   
  8.829     0.3810E-2  0.7938     0.5062E-1  0.5626   
  8.839     0.3795E-2  0.7942     0.4976E-1  0.5670   
  8.849     0.3781E-2  0.7945     0.4907E-1  0.5713   
  8.859     0.3768E-2  0.7949     0.4854E-1  0.5756   
  8.869     0.3754E-2  0.7953     0.4817E-1  0.5798   
  8.879     0.3740E-2  0.7957     0.4795E-1  0.5840   
  8.889     0.3726E-2  0.7960     0.4789E-1  0.5882   
  8.899     0.3713E-2  0.7964     0.4799E-1  0.5923   
  8.909     0.3699E-2  0.7968     0.4826E-1  0.5965   
  8.919     0.3686E-2  0.7971     0.4870E-1  0.6006   
  8.929     0.3672E-2  0.7975     0.4934E-1  0.6047   
  8.939     0.3659E-2  0.7979     0.5017E-1  0.6088   
  8.949     0.3646E-2  0.7982     0.5122E-1  0.6128   
  8.959     0.3632E-2  0.7986     0.5251E-1  0.6169   
  8.969     0.3619E-2  0.7990     0.5406E-1  0.6209   
  8.979     0.3606E-2  0.7993     0.5591E-1  0.6249   
  8.989     0.3593E-2  0.7997     0.5809E-1  0.6288   
  8.999     0.3580E-2  0.8001     0.6063E-1  0.6326   
  9.009     0.3568E-2  0.8004     0.6358E-1  0.6363   
  9.019     0.3555E-2  0.8008     0.6697E-1  0.6398   
  9.029     0.3542E-2  0.8011     0.7086E-1  0.6430   
  9.039     0.3530E-2  0.8015     0.7527E-1  0.6458   
  9.049     0.3517E-2  0.8018     0.8023E-1  0.6482   
  9.059     0.3505E-2  0.8022     0.8572E-1  0.6499   
  9.069     0.3492E-2  0.8025     0.9172E-1  0.6507   
  9.079     0.3480E-2  0.8029     0.9810E-1  0.6505   
  9.089     0.3468E-2  0.8032     0.1047     0.6490   
  9.099     0.3455E-2  0.8036     0.1111     0.6461   
  9.109     0.3443E-2  0.8039     0.1171     0.6416   
  9.119     0.3431E-2  0.8043     0.1221     0.6356   
  9.129     0.3419E-2  0.8046     0.1257     0.6283   
  9.139     0.3407E-2  0.8049     0.1274     0.6202   
  9.149     0.3395E-2  0.8053     0.1271     0.6117   
  9.159     0.3383E-2  0.8056     0.1247     0.6036   
  9.169     0.3372E-2  0.8060     0.1205     0.5963   
  9.179     0.3360E-2  0.8063     0.1150     0.5904   
  9.189     0.3348E-2  0.8066     0.1085     0.5859   
  9.199     0.3337E-2  0.8070     0.1015     0.5829   
  9.209     0.3325E-2  0.8073     0.9454E-1  0.5814   
  9.219     0.3314E-2  0.8076     0.8776E-1  0.5810   
  9.229     0.3302E-2  0.8080     0.8137E-1  0.5816   
  9.239     0.3291E-2  0.8083     0.7548E-1  0.5830   
  9.249     0.3280E-2  0.8086     0.7012E-1  0.5850   
  9.259     0.3268E-2  0.8089     0.6531E-1  0.5875   
  9.269     0.3257E-2  0.8093     0.6100E-1  0.5902   
  9.279     0.3246E-2  0.8096     0.5717E-1  0.5932   
  9.289     0.3235E-2  0.8099     0.5377E-1  0.5963   
  9.299     0.3224E-2  0.8102     0.5076E-1  0.5995   
  9.309     0.3213E-2  0.8106     0.4809E-1  0.6027   
  9.319     0.3202E-2  0.8109     0.4573E-1  0.6060   
  9.329     0.3191E-2  0.8112     0.4365E-1  0.6092   
  9.339     0.3181E-2  0.8115     0.4180E-1  0.6125   
  9.349     0.3170E-2  0.8118     0.4017E-1  0.6157   
  9.359     0.3159E-2  0.8122     0.3874E-1  0.6188   
  9.369     0.3149E-2  0.8125     0.3748E-1  0.6220   
  9.379     0.3138E-2  0.8128     0.3637E-1  0.6250   
  9.389     0.3128E-2  0.8131     0.3540E-1  0.6281   
  9.399     0.3117E-2  0.8134     0.3457E-1  0.6311   
  9.409     0.3107E-2  0.8137     0.3385E-1  0.6341   
  9.419     0.3096E-2  0.8140     0.3325E-1  0.6370   
  9.429     0.3086E-2  0.8144     0.3275E-1  0.6399   
  9.439     0.3076E-2  0.8147     0.3235E-1  0.6428   
  9.449     0.3066E-2  0.8150     0.3205E-1  0.6456   
  9.459     0.3056E-2  0.8153     0.3185E-1  0.6484   
  9.469     0.3046E-2  0.8156     0.3175E-1  0.6513   
  9.479     0.3036E-2  0.8159     0.3174E-1  0.6541   
  9.489     0.3026E-2  0.8162     0.3183E-1  0.6568   
  9.499     0.3016E-2  0.8165     0.3202E-1  0.6596   
  9.510     0.3006E-2  0.8168     0.3233E-1  0.6624   
  9.520     0.2996E-2  0.8171     0.3274E-1  0.6651   
  9.530     0.2986E-2  0.8174     0.3329E-1  0.6679   
  9.540     0.2977E-2  0.8177     0.3397E-1  0.6706   
  9.550     0.2967E-2  0.8180     0.3480E-1  0.6734   
  9.560     0.2957E-2  0.8183     0.3580E-1  0.6761   
  9.570     0.2948E-2  0.8186     0.3698E-1  0.6788   
  9.580     0.2938E-2  0.8189     0.3837E-1  0.6815   
  9.590     0.2929E-2  0.8192     0.3998E-1  0.6841   
  9.600     0.2920E-2  0.8195     0.4186E-1  0.6866   
  9.610     0.2910E-2  0.8197     0.4401E-1  0.6891   
  9.620     0.2901E-2  0.8200     0.4648E-1  0.6914   
  9.630     0.2892E-2  0.8203     0.4929E-1  0.6934   
  9.640     0.2883E-2  0.8206     0.5246E-1  0.6952   
  9.650     0.2873E-2  0.8209     0.5599E-1  0.6966   
  9.660     0.2864E-2  0.8212     0.5988E-1  0.6975   
  9.670     0.2855E-2  0.8215     0.6406E-1  0.6978   
  9.680     0.2846E-2  0.8218     0.6844E-1  0.6973   
  9.690     0.2837E-2  0.8220     0.7285E-1  0.6958   
  9.700     0.2828E-2  0.8223     0.7708E-1  0.6934   
  9.710     0.2819E-2  0.8226     0.8081E-1  0.6899   
  9.720     0.2810E-2  0.8229     0.8372E-1  0.6855   
  9.730     0.2801E-2  0.8232     0.8553E-1  0.6803   
  9.740     0.2792E-2  0.8235     0.8600E-1  0.6748   
  9.750     0.2783E-2  0.8237     0.8507E-1  0.6692   
  9.760     0.2774E-2  0.8240     0.8284E-1  0.6641   
  9.770     0.2765E-2  0.8243     0.7953E-1  0.6597   
  9.780     0.2756E-2  0.8246     0.7545E-1  0.6563   
  9.790     0.2748E-2  0.8248     0.7092E-1  0.6539   
  9.800     0.2739E-2  0.8251     0.6624E-1  0.6525   
  9.810     0.2730E-2  0.8254     0.6162E-1  0.6519   
  9.820     0.2722E-2  0.8257     0.5721E-1  0.6521   
  9.830     0.2713E-2  0.8259     0.5310E-1  0.6529   
  9.840     0.2705E-2  0.8262     0.4935E-1  0.6541   
  9.850     0.2696E-2  0.8265     0.4596E-1  0.6557   
  9.860     0.2688E-2  0.8267     0.4292E-1  0.6575   
  9.870     0.2680E-2  0.8270     0.4021E-1  0.6595   
  9.880     0.2671E-2  0.8273     0.3780E-1  0.6616   
  9.890     0.2663E-2  0.8275     0.3566E-1  0.6638   
  9.900     0.2655E-2  0.8278     0.3377E-1  0.6660   
  9.910     0.2647E-2  0.8281     0.3210E-1  0.6683   
  9.920     0.2639E-2  0.8283     0.3062E-1  0.6705   
  9.930     0.2631E-2  0.8286     0.2932E-1  0.6728   
  9.940     0.2622E-2  0.8289     0.2816E-1  0.6750   
  9.950     0.2614E-2  0.8291     0.2714E-1  0.6772   
  9.960     0.2607E-2  0.8294     0.2624E-1  0.6794   
  9.970     0.2599E-2  0.8296     0.2545E-1  0.6816   
  9.980     0.2591E-2  0.8299     0.2476E-1  0.6837   
  9.990     0.2583E-2  0.8302     0.2416E-1  0.6858   
  10.00     0.2575E-2  0.8304     0.2364E-1  0.6879   
# 
# 02/04/2017 at 12:22 YAMBO @ narro [start]
# 02/04/2017 at 12:22               [end]
#  
# Timing   [Min/Max/Average]: 30s/30s/30s
#
# .-Input file : yambo.in
# | optics                       # [R OPT] Optics
# | bse                          # [R BSE] Bethe Salpeter Equation.
# | bsk                          # [R BSK] Bethe Salpeter Equation kernel
# | bss                          # [R BSS] Bethe Salpeter Equation solver
# | em1s                         # [R Xs] Static Inverse Dielectric Matrix
# | rim_cut                      # [R RIM CUT] Coulomb potential
# | BoseTemp= 0.000000     eV    # Bosonic Temperature
# | RandQpts= 1000000            # [RIM] Number of random q-points in the BZ
# | RandGvec= 1            RL    # [RIM] Coulomb interaction RS components
# | CUTGeo= "none"               # [CUT] Coulomb Cutoff geometry: box/cylinder/sphere X/Y/Z/XY..
# | % CUTBox
# |  0.00     | 0.00     | 0.00     |        # [CUT] [au] Box sides
# | %
# | CUTRadius= 0.000000          # [CUT] [au] Sphere/Cylinder radius
# | CUTCylLen= 0.000000          # [CUT] [au] Cylinder length
# | Chimod= "Hartree"            # [X] IP/Hartree/ALDA/LRC/BSfxc
# | BSEmod= "resonant"           # [BSE] resonant/retarded/coupling
# | BSKmod= "SEX"                # [BSE] IP/Hartree/HF/ALDA/SEX/BSfxc
# | BSSmod= "d"                  # [BSS] (h)aydock/(d)iagonalization/(i)nversion/(t)ddft`
# | BSENGexx= 111          RL    # [BSK] Exchange components
# | BSENGBlk= 111          RL    # [BSK] Screened interaction block size
# | #WehCpl                      # [BSK] eh interaction included also in coupling
# | % KfnQP_E
# |  3.500000 | 1.000000 | 1.000000 |        # [EXTQP BSK BSS] E parameters  (c/v) eV|adim|adim
# | %
# | % BEnRange
# |   0.00000 | 10.00000 | eV    # [BSS] Energy range
# | %
# | % BDmRange
# |   0.10000 |  0.10000 | eV    # [BSS] Damping range
# | %
# | BEnSteps= 1000               # [BSS] Energy steps
# | % BLongDir
# | 0.1000E-4 | 0.000    | 0.000    |        # [BSS] [cc] Electric Field
# | %
# | % BSEBands
# |  1 | 2 |                     # [BSK] Bands range
# | %
# | WRbsWF                       # [BSS] Write to disk excitonic the WFs
# | % BndsRnXs
# |  1 | 2 |                     # [Xs] Polarization function bands
# | %
# | NGsBlkXs= 111          RL    # [Xs] Response block size
# | % DmRngeXs
# | 0.1000E-2 |0.1000E-2 | eV    # [Xs] Damping range
# | %
# | % LongDrXs
# | 0.1000E-4 | 0.000    | 0.000    |        # [Xs] [cc] Electric Field
# | %
