#                                                                     
#  __  __   ________   ___ __ __    _______   ______                  
# /_/\/_/\ /_______/\ /__//_//_/\ /_______/\ /_____/\                 
# \ \ \ \ \\::: _  \ \\::\| \| \ \\::: _  \ \\:::_ \ \                
#  \:\_\ \ \\::(_)  \ \\:.      \ \\::(_)  \/_\:\ \ \ \               
#   \::::_\/ \:: __  \ \\:.\-/\  \ \\::  _  \ \\:\ \ \ \              
#     \::\ \  \:.\ \  \ \\. \  \  \ \\::(_)  \ \\:\_\ \ \             
#      \__\/   \__\/\__\/ \__\/ \__\/ \_______\/ \_____\/             
#                                                                     
#                                                                     
#       Version 5.0.0 Revision 18659 Hash 2b957b32a                   
#                Branch is devel-dichroism                            
#           MPI+OpenMP+SLK+SLEPC+HDF5_IO Build                        
#                http://www.yambo-code.org                            
#
# Absorption @ Q(1)                 q->0 direction:  0.999999975E-5   0.00000000      0.00000000   
#
# [GEN] GF Energies                               : Perdew, Burke & Ernzerhof(X)+Perdew, Burke & Ernzerhof(C)
# [GEN] Wavefunctions                             : Perdew, Burke & Ernzerhof(X)+Perdew, Burke & Ernzerhof(C)
# [GEN] Green`s Function                          : Retarded
# [GEN] Gauge                                     : Length
# [GEN] [r,Vnl] included                          : yes
#    Diamagnetic term
#    A [nel]
#:    -2.12612343   
#
#    E/ev[1]            EPS-Im[2]          EPS-Re[3]
#
     0.00000000         0.00000000         1.48782897   
    0.668896288E-1     0.673612521E-5      1.48785138   
    0.133779258        0.134774182E-4      1.48791897   
    0.200668901        0.202288993E-4      1.48803163   
    0.267558515        0.269959037E-4      1.48818970   
    0.334448159        0.337835481E-4      1.48839295   
    0.401337802        0.405971150E-4      1.48864174   
    0.468227416        0.474418521E-4      1.48893607   
    0.535117030        0.543232600E-4      1.48927641   
    0.602006733        0.612467556E-4      1.48966277   
    0.668896317        0.682179307E-4      1.49009597   
    0.735785961        0.752424312E-4      1.49057543   
    0.802675605        0.823261435E-4      1.49110258   
    0.869565189        0.894749901E-4      1.49167728   
    0.936454833        0.966951557E-4      1.49229956   
     1.00334454        0.103992890E-3      1.49297071   
     1.07023406        0.111374757E-3      1.49369109   
     1.13712370        0.118847420E-3      1.49446082   
     1.20401347        0.126417843E-3      1.49528122   
     1.27090299        0.134093323E-3      1.49615240   
     1.33779263        0.141881217E-3      1.49707532   
     1.40468228        0.149789397E-3      1.49805081   
     1.47157192        0.157825998E-3      1.49907959   
     1.53846157        0.165999416E-3      1.50016248   
     1.60535121        0.174318629E-3      1.50130033   
     1.67224085        0.182792966E-3      1.50249493   
     1.73913038        0.191431944E-3      1.50374627   
     1.80602002        0.200246068E-3      1.50505614   
     1.87290967        0.209246020E-3      1.50642562   
     1.93979943        0.218443151E-3      1.50785577   
     2.00668907        0.227849465E-3      1.50934839   
     2.07357860        0.237477478E-3      1.51090431   
     2.14046812        0.247340795E-3      1.51252580   
     2.20735788        0.257453561E-3      1.51421380   
     2.27424741        0.267830939E-3      1.51597059   
     2.34113693        0.278488849E-3      1.51779747   
     2.40802693        0.289444317E-3      1.51969683   
     2.47491646        0.300715677E-3      1.52167034   
     2.54180598        0.312322227E-3      1.52372050   
     2.60869575        0.324284862E-3      1.52584922   
     2.67558527        0.336625555E-3      1.52805948   
     2.74247479        0.349368347E-3      1.53035355   
     2.80936456        0.362538616E-3      1.53273427   
     2.87625432        0.376163924E-3      1.53520465   
     2.94314384        0.390273810E-3      1.53776741   
     3.01003337        0.404900260E-3      1.54042673   
     3.07692313        0.420077587E-3      1.54318547   
     3.14381266        0.435843220E-3      1.54604769   
     3.21070242        0.452237524E-3      1.54901755   
     3.27759194        0.469303952E-3      1.55209923   
     3.34448171        0.487090321E-3      1.55529737   
     3.41137099        0.505648321E-3      1.55861712   
     3.47826076        0.525034789E-3      1.56206369   
     3.54515076        0.545311312E-3      1.56564283   
     3.61204004        0.566545699E-3      1.56936073   
     3.67892981        0.588811876E-3      1.57322431   
     3.74581933        0.612190983E-3      1.57724011   
     3.81270909        0.636773999E-3      1.58141661   
     3.87959886        0.662658829E-3      1.58576167   
     3.94648838        0.689955603E-3      1.59028459   
     4.01337814        0.718786323E-3      1.59499514   
     4.08026743        0.749285275E-3      1.59990406   
     4.14715719        0.781603449E-3      1.60502303   
     4.21404648        0.815908599E-3      1.61036468   
     4.28093624        0.852390192E-3      1.61594260   
     4.34782648        0.891258533E-3      1.62177265   
     4.41471577        0.932752097E-3      1.62787151   
     4.48160553        0.977141084E-3      1.63425732   
     4.54849482        0.102473004E-2      1.64095032   
     4.61538458        0.107586710E-2      1.64797342   
     4.68227386        0.113094831E-2      1.65535164   
     4.74916410        0.119042909E-2      1.66311288   
     4.81605387        0.125483249E-2      1.67128778   
     4.88294315        0.132476212E-2      1.67991161   
     4.94983292        0.140092114E-2      1.68902373   
     5.01672220        0.148412678E-2      1.69866776   
     5.08361197        0.157533912E-2      1.70889497   
     5.15050173        0.167568715E-2      1.71976233   
     5.21739149        0.178651197E-2      1.73133469   
     5.28428125        0.190941046E-2      1.74368787   
     5.35117054        0.204629777E-2      1.75690842   
     5.41806030        0.219949428E-2      1.77109766   
     5.48494959        0.237182062E-2      1.78637373   
     5.55183935        0.256674411E-2      1.80287564   
     5.61872911        0.278855697E-2      1.82076871   
     5.68561888        0.304263365E-2      1.84024954   
     5.75250864        0.333576929E-2      1.86155593   
     5.81939793        0.367665174E-2      1.88497639   
     5.88628769        0.407655258E-2      1.91086721   
     5.95317698        0.455027586E-2      1.93966913   
     6.02006674        0.511761056E-2      1.97193909   
     6.08695650        0.580546353E-2      2.00838804   
     6.15384626        0.665117754E-2      2.04993892   
     6.22073603        0.770782633E-2      2.09781408   
     6.28762531        0.905282144E-2      2.15366483   
     6.35451508        0.108027589E-1      2.21977949   
     6.42140484        0.131397573E-1      2.29942489   
     6.48829412        0.163612086E-1      2.39742923   
     6.55518389        0.209800545E-1      2.52124739   
     6.62207365        0.279430170E-1      2.68301916   
     6.68896341        0.391593240E-1      2.90394974   
     6.75585270        0.589656308E-1      3.22468185   
     6.82274199        0.990481526E-1      3.73416018   
     6.88963175        0.200615749         4.67130852   
     6.95652151        0.604384899         6.96449709   
     7.02341175         7.87951899         19.6140881   
     7.09030151         2.42719889        -9.11567307   
     7.15719032        0.398819059        -2.85749722   
     7.22408009        0.156346798        -1.20554066   
     7.29096985        0.830286890E-1    -0.447271824   
     7.35785961        0.515489355E-1    -0.109840631E-1
     7.42474937        0.352253020E-1     0.273455441   
     7.49163866        0.256942399E-1     0.474369228   
     7.55852842        0.196558274E-1     0.624497175   
     7.62541819        0.155957565E-1     0.741481662   
     7.69230795        0.127398102E-1     0.835674644   
     7.75919771        0.106587932E-1     0.913551211   
     7.82608652        0.909925811E-2     0.979369938   
     7.89297676        0.790370349E-2      1.03605068   
     7.95986652        0.697015412E-2      1.08566082   
     8.02675629        0.623021135E-2      1.12970781   
     8.09364510        0.563665247E-2      1.16931856   
     8.16053486        0.515601691E-2      1.20535409   
     8.22742462        0.476411544E-2      1.23848391   
     8.29431438        0.444311555E-2      1.26923895   
     8.36120415        0.417966535E-2      1.29804611   
     8.42809296        0.396363111E-2      1.32525480   
     8.49498272        0.378723443E-2      1.35115540   
     8.56187248        0.364445522E-2      1.37599182   
     8.62876320        0.353060104E-2      1.39997232   
     8.69565296        0.344201224E-2      1.42327774   
     8.76254177        0.337582245E-2      1.44606686   
     8.82943153        0.332980789E-2      1.46848214   
     8.89632130        0.330226868E-2      1.49065220   
     8.96321106        0.329192961E-2      1.51269627   
     9.03010082        0.329788751E-2      1.53472614   
     9.09698963        0.331955845E-2      1.55684841   
     9.16387939        0.335664395E-2      1.57916772   
     9.23076916        0.340911932E-2      1.60178614   
     9.29765892        0.347722066E-2      1.62480807   
     9.36454773        0.356144225E-2      1.64833844   
     9.43143749        0.366255874E-2      1.67248845   
     9.49832821        0.378163136E-2      1.69737422   
     9.56521797        0.392005593E-2      1.72312009   
     9.63210773        0.407959847E-2      1.74986148   
     9.69899654        0.426245807E-2      1.77774608   
     9.76588631        0.447136723E-2      1.80693960   
     9.83277607        0.470967172E-2      1.83762646   
     9.89966583        0.498150801E-2      1.87001657   
     9.96655560        0.529197976E-2      1.90435076   
     10.0334444        0.564741390E-2      1.94090819   
     10.1003342        0.605574204E-2      1.98001409   
     10.1672239        0.652693817E-2      2.02205491   
     10.2341137        0.707371905E-2      2.06749177   
     10.3010035        0.771247409E-2      2.11688280   
     10.3678932        0.846460368E-2      2.17090940   
     10.4347830        0.935855415E-2      2.23042226   
     10.5016727        0.104327239E-1      2.29649019   
     10.5685625        0.117400922E-1      2.37048578   
     10.6354513        0.133554246E-1      2.45420122   
     10.7023411        0.153872743E-1      2.55003548   
     10.7692308        0.179981682E-1      2.66127729   
     10.8361206        0.214408953E-1      2.79257393   
     10.9030104        0.261267722E-1      2.95073748   
     10.9698992        0.327630378E-1      3.14620328   
     11.0367889        0.426535234E-1      3.39586997   
     11.1036787        0.584263392E-1      3.72910571   
     11.1705685        0.860600248E-1      4.20206165   
     11.2374582        0.141725123         4.93759537   
     11.3043480        0.282883614         6.26689434   
     11.3712378        0.851245224         9.49151611   
     11.4381275         11.9846821         27.6458683   
     11.5050173         3.05857348        -11.6822739   
     11.5719070        0.534159422        -3.56216002   
     11.6387959        0.221777156        -1.29719734   
     11.7056856        0.128522262       -0.181322694   
     11.7725754        0.910350829E-1     0.534079969   
     11.8394651        0.750728771E-1      1.08082819   
     11.9063540        0.705718100E-1      1.56228352   
     11.9732437        0.748691112E-1      2.04336691   
     12.0401335        0.893723369E-1      2.58522701   
     12.1070232        0.120828234         3.27415061   
     12.1739130        0.189725071         4.27810001   
     12.2408028        0.370652944         6.03359032   
     12.3076925         1.10967183         10.2417679   
     12.3745823         15.7245226         33.9502373   
     12.4414721         3.95607853        -17.3344059   
     12.5083618        0.684368432        -6.85154438   
     12.5752506        0.275212109        -3.98339939   
     12.6421404        0.149667516        -2.63414073   
     12.7090302        0.953425393E-1     -1.83835578   
     12.7759199        0.670733750E-1     -1.30514240   
     12.8428097        0.505983531E-1    -0.916535139   
     12.9096985        0.402710214E-1    -0.615373731   
     12.9765882        0.335028023E-1    -0.370310903   
     13.0434780        0.289850887E-1    -0.162428617   
     13.1103678        0.260166731E-1     0.207245946E-1
     13.1772575        0.242204797E-1     0.188100755   
     13.2441473        0.234185159E-1     0.346849084   
     13.3110371        0.235839132E-1     0.503441095   
     13.3779268        0.248441044E-1     0.664668977   
     13.4448166        0.275415629E-1     0.838836253   
     13.5117054        0.323997289E-1      1.03765786   
     13.5785952        0.409450457E-1      1.27998555   
     13.6454840        0.566836111E-1      1.60033011   
     13.7123737        0.890257359E-1      2.07221842   
     13.7792635        0.170662493         2.88901281   
     13.8461533        0.486135215         4.78139782   
     13.9130430         5.36659098         14.3698416   
     13.9799328         2.38408589        -9.26604462   
     14.0468235        0.366366625        -3.38087177   
     14.1137133        0.146140352        -1.85827017   
     14.1806030        0.827948451E-1     -1.13160968   
     14.2474928        0.589236319E-1    -0.671593189   
     14.3143806        0.532464646E-1    -0.306153297   
     14.3812704        0.698854178E-1     0.848101377E-1
     14.4481602        0.198331743        0.817298293   
     14.5150499         8.11302471       -0.555207014   
     14.5819397        0.188216880        -1.34502244   
     14.6488295        0.556947216E-1    -0.687602878   
     14.7157192        0.294093266E-1    -0.421234727   
     14.7826090        0.195107497E-1    -0.262325644   
     14.8494987        0.145260338E-1    -0.150250673   
     14.9163876        0.115631511E-1    -0.638177395E-1
     14.9832773        0.960632227E-2     0.654059649E-2
     15.0501671        0.821829867E-2     0.658900738E-1
     15.1170568        0.718250917E-2     0.117227077   
     15.1839466        0.638014777E-2     0.162470877   
     15.2508364        0.574079668E-2     0.202925801   
     15.3177261        0.522009656E-2     0.239522517   
     15.3846159        0.478871865E-2     0.272949398   
     15.4515057        0.442649657E-2     0.303732455   
     15.5183954        0.411912426E-2     0.332283497   
     15.5852833        0.385619211E-2     0.358931780   
     15.6521730        0.362994289E-2     0.383948863   
     15.7190628        0.343454001E-2     0.407558680   
     15.7859535        0.326552615E-2     0.429951906   
     15.8528433        0.311947800E-2     0.451293588   
     15.9197330        0.299378531E-2     0.471727550   
     15.9866228        0.288647297E-2     0.491383374   
     16.0535126        0.279610138E-2     0.510378957   
     16.1204014        0.272169779E-2     0.528823614   
     16.1872902        0.266271224E-2     0.546821952   
     16.2541809        0.261900970E-2     0.564477146   
     16.3210697        0.259088818E-2     0.581892014   
     16.3879604        0.257913279E-2     0.599172950   
     16.4548492        0.258510024E-2     0.616433263   
     16.5217400        0.261086039E-2     0.633798301   
     16.5886288        0.265942747E-2     0.651409864   
     16.6555195        0.273510092E-2     0.669433594   
     16.7224083        0.284400559E-2     0.688070416   
     16.7892990        0.299495040E-2     0.707569838   
     16.8561859        0.320085604E-2     0.728252888   
     16.9230766        0.348122069E-2     0.750548065   
     16.9899654        0.386653864E-2     0.775046408   
     17.0568562        0.440685311E-2     0.802601695   
     17.1237450        0.518955290E-2     0.834511518   
     17.1906357        0.638019806E-2     0.872882545   
     17.2575264        0.832935609E-2     0.921444714   
     17.3244152        0.119070057E-1     0.987660646   
     17.3913059        0.198701899E-1      1.08952320   
     17.4581928        0.456957892E-1      1.28693497   
     17.5250835        0.286148071         1.99319828   
     17.5919724        0.505375624       -0.407568574   
     17.6588631        0.674614310E-1     0.625758052   
     17.7257519        0.534523018E-1     0.989328027   
     17.7926426        0.110554248         1.47127175   
     17.8595314        0.976302147         3.42681694   
     17.9264221        0.645152330        -1.79958701   
     17.9933109        0.906778201E-1    -0.293560028   
     18.0602016        0.356120914E-1     0.803223252E-1
     18.1270905        0.196790621E-1     0.255802214   
     18.1939793        0.130014569E-1     0.362071157   
     18.2608700        0.966738164E-2     0.436594605   
     18.3277588        0.789682940E-2     0.494651735   
     18.3946495        0.704832748E-2     0.544168591   
     18.4615383        0.693351775E-2     0.590482235   
     18.5284290        0.769268116E-2     0.638745904   
     18.5953178        0.100473575E-1     0.696666658   
     18.6622086        0.167472381E-1     0.781792223   
     18.7290955        0.433673076E-1     0.957128465   
     18.7959862        0.435582638         1.77339470   
     18.8628750        0.224951252       -0.283196807   
     18.9297657        0.340896137E-1     0.264381766   
     18.9966564        0.138351964E-1     0.407112122   
     19.0635452        0.784628466E-2     0.476149797   
     19.1304359        0.526859192E-2     0.518897533   
     19.1973248        0.391182676E-2     0.549136877   
     19.2642155        0.310193840E-2     0.572365880   
     19.3311043        0.257593137E-2     0.591228604   
     19.3979931        0.221458939E-2     0.607172430   
     19.4648819        0.195913110E-2     0.621078014   
     19.5317726        0.178230472E-2     0.633547068   
     19.5986614        0.168460305E-2     0.645085812   
     19.6655521        0.174011395E-2     0.656385183   
     19.7324409        0.268826541E-2     0.669839442   
     19.7993317        0.448944941E-1     0.648286343   
     19.8662205        0.218677544E-2     0.670325637   
     19.9331112        0.137627474E-2     0.681365728   
     20.0000000        0.117470522E-2     0.689783692   
# 
# 09/30/2020 at 09:45 yambo_kerr @ unimi-XPS-8930 [start]
# 09/30/2020 at 09:45                             [end]
#
# .-Input file  yambo.in
# | optics                           # [R] Linear Response optical properties
# | dipoles                          # [R] Oscillator strenghts (or dipoles)
# | bse                              # [R][BSE] Bethe Salpeter Equation.
# | ElecTemp= 0.025861         eV    # Electronic Temperature
# | BoseTemp= 0.025861         eV    # Bosonic Temperature
# | DIP_Threads= 1                   # [OPENMP/X] Number of threads for dipoles
# | BS_nCPU_LinAlg_INV= 1            # [PARALLEL] CPUs for Linear Algebra (if -1 it is automatically set)
# | BS_nCPU_LinAlg_DIAGO= 1          # [PARALLEL] CPUs for Linear Algebra (if -1 it is automatically set)
# | X_Threads= 1                     # [OPENMP/X] Number of threads for response functions
# | K_Threads= 1                     # [OPENMP/BSK] Number of threads for response functions
# | BSEmod= "retarded"               # [BSE] resonant/retarded/coupling
# | BSKmod= "IP"                     # [BSE] IP/Hartree/HF/ALDA/SEX/BSfxc
# | DipBandsALL                    # [DIP] Compute all bands range, not only valence and conduction
# | BSENGexx= 28671            RL    # [BSK] Exchange components
# | BSEprop= "abs dichr"             # [BSE] abs/kerr/magn/dichr trace
# | % BSEQptR
# |  1 | 1 |                             # [BSK] Transferred momenta range
# | %
# | % BSEBands
# |   1 | 20 |                           # [BSK] Bands range
# | %
# | % BEnRange
# |   0.00000 | 20.00000 |         eV    # [BSS] Energy range
# | %
# | % BDmRange
# |  0.010000 | 0.010000 |         eV    # [BSS] Damping range
# | %
# | BEnSteps= 300                    # [BSS] Energy steps
# | % BLongDir
# |  0.100000E-4 |  0.00000    |  0.00000    # [BSS] [cc] Electric Field
# | %
