#                                                                     
# :   :::   :::     ::::    ::::  :::::::::   ::::::::                
# :+:   :+: :+: :+:   +:+:+: :+:+:+ :+:    :+: :+:    :+              
#  +:+ +:+ +:+   +:+  +:+ +:+:+ +:+ +:+    +:+ +:+    +:+             
#   +#++: +#++:++#++: +#+  +:+  +#+ +#++:++#+  +#+    +:+             
#    +#+  +#+     +#+ +#+       +#+ +#+    +#+ +#+    +#+             
#    #+#  #+#     #+# #+#       #+# #+#    #+# #+#    #+#             
#    ###  ###     ### ###       ### #########   ########              
#                                                                     
#                                                                     
#       Version 5.0.1 Revision 19888 Hash 3e18fdf84                   
#                Branch is devel-dbgrid-ph                            
#         MPI+OpenMP+SLK+SLEPC+HDF5_MPI_IO Build                      
#                http://www.yambo-code.org                            
#
# Phonon DOS function
#
#   E(meV)             DOS(w)
#
      0.00000000        0.181492999   
     0.366177142        0.377318323   
     0.732354283        0.784023225   
      1.09853137         1.62734842   
      1.46470857         3.37020564   
      1.83088577         6.94725418   
      2.19706273         14.1844387   
      2.56324005         28.4017792   
      2.92941713         54.7026711   
      3.29559422         97.8283005   
      3.66177154         153.511368   
      4.02794886         196.925095   
      4.39412546         195.756714   
      4.76030302         151.010986   
      5.12648010         95.5343628   
      5.49265718         53.1976128   
      5.85883427         27.5791473   
      6.22501183         13.8071814   
      6.59118843         6.86321974   
      6.95736551         3.54695868   
      7.32354307         2.16745043   
      7.68972015         1.99087346   
      8.05589771         2.92662144   
      8.42207432         5.49750614   
      8.78825092         11.1281252   
      9.15442848         22.9005547   
      9.52060604         47.0947723   
      9.88678265         95.9279175   
      10.2529602         191.291885   
      10.6191368         365.695068   
      10.9853144         646.221985   
      11.3514910         1000.69025   
      11.7176685         1287.41467   
      12.0838461         1358.91199   
      12.4500237         1230.71655   
      12.8162003         995.094238   
      13.1823769         713.735657   
      13.5485554         460.853088   
      13.9147310         297.736328   
      14.2809076         241.282227   
      14.6470861         293.888397   
      15.0132627         470.613342   
      15.3794403         788.750183   
      15.7456169         1220.50916   
      16.1117954         1677.61719   
      16.4779720         2110.85718   
      16.8441486         2534.92847   
      17.2103252         2834.68774   
      17.5765018         2730.71045   
      17.9426804         2151.38843   
      18.3088570         1404.23523   
      18.6750355         800.480591   
      19.0412121         420.533081   
      19.4073887         211.383057   
      19.7735653         103.921211   
      20.1397419         50.6132126   
      20.5059204         24.7072430   
      20.8720970         12.4264994   
      21.2382736         7.06030464   
      21.6044521         5.63994026   
      21.9706287         7.37571144   
      22.3368073         13.2312527   
      22.7029819         26.4392166   
      23.0691605         54.1864853   
      23.4353371         111.100067   
      23.8015137         225.223221   
      24.1676922         445.138733   
      24.5338688         837.651428   
      24.9000473         1444.98572   
      25.2662220         2175.59741   
      25.6324005         2736.63257   
      25.9985771         2831.03223   
      26.3647537         2453.25049   
      26.7309322         1829.36328   
      27.0971107         1198.30408   
      27.4632854         722.605835   
      27.8294621         450.762665   
      28.1956406         356.928406   
      28.5618153         399.602600   
      28.9279938         524.439392   
      29.2941723         641.070129   
      29.6603508         671.798279   
      30.0265255         638.438354   
      30.3927040         597.277344   
      30.7588806         531.606628   
      31.1250553         410.160339   
      31.4912338         267.258575   
      31.8574123         152.980148   
      32.2235909         81.4637222   
      32.5897636         43.1067047   
      32.9559441         25.6568909   
      33.3221207         21.7546902   
      33.6882973         29.6814213   
      34.0544739         53.4430008   
      34.4206505         103.986732   
      34.7868309         200.194214   
      35.1530037         362.304596   
      35.5191841         581.683105   
      35.8853607         771.656799   
      36.2515373         797.589722   
      36.6177139         637.819702   
      36.9838905         415.868835   
      37.3500710         240.287262   
      37.7162437         136.878342   
      38.0824242         92.5071106   
      38.4486008         94.9153137   
      38.8147774         146.882309   
      39.1809540         270.384003   
      39.5471306         504.349243   
      39.9133072         877.178162   
      40.2794838         1323.55981   
      40.6456642         1610.36560   
      41.0118408         1511.14282   
      41.3780174         1110.77148   
      41.7441940         682.069763   
      42.1103745         378.198334   
      42.4765472         206.320633   
      42.8427238         128.252106   
      43.2089043         115.310959   
      43.5750809         159.952271   
      43.9412575         271.595093   
      44.3074341         457.780151   
      44.6736145         678.419983   
      45.0397873         811.643433   
      45.4059639         750.850464   
      45.7721443         550.332520   
      46.1383209         348.545197   
      46.5044975         220.452866   
      46.8706741         172.610138   
      47.2368546         188.741074   
      47.6030273         240.936600   
      47.9692039         280.595673   
      48.3353844         263.678925   
      48.7015610         200.681152   
      49.0677376         138.451630   
      49.4339142         108.689880   
      49.8000946         123.829895   
      50.1662674         196.348618   
      50.5324440         347.537903   
      50.8986244         596.059937   
      51.2648010         930.516541   
      51.6309776         1309.10754   
      51.9971542         1696.14050   
      52.3633347         2016.90588   
      52.7295074         2105.24023   
      53.0956841         1909.71143   
      53.4618645         1619.05835   
      53.8280373         1362.83240   
      54.1942215         1080.63416   
      54.5603943         748.958984   
      54.9265709         452.661713   
      55.2927513         251.264343   
      55.6589241         139.838776   
      56.0251007         92.7406464   
      56.3912811         93.5830765   
      56.7574577         143.763702   
      57.1236305         265.109314   
      57.4898148         500.134705   
      57.8559875         898.401672   
      58.2221680         1473.59595   
      58.5883446         2153.79956   
      58.9545174         2783.98047   
      59.3207016         3202.16577   
      59.6868744         3400.46875   
      60.0530510         3593.57129   
      60.4192314         3885.05298   
      60.7854080         4006.97729   
      61.1515808         3735.44434   
      61.5177612         3319.04883   
      61.8839378         3092.86450   
      62.2501106         2998.05566   
      62.6162949         2825.74341   
      62.9824677         2575.61157   
      63.3486443         2265.28760   
      63.7148247         1802.86304   
      64.0810013         1236.86975   
      64.4471817         748.412109   
      64.8133545         433.321014   
      65.1795273         276.738434   
      65.5457077         227.817154   
      65.9118881         230.256973   
      66.2780609         226.106522   
      66.6442413         185.021576   
      67.0104141         124.128708   
      67.3765945         71.8807755   
      67.7427750         38.0714989   
      68.1089478         19.2127056   
      68.4751205         9.45917034   
      68.8413010         4.60046673   
      69.2074814         2.22416139   
      69.5736618         1.07218957   
      69.9398346        0.516151369   
      70.3060074        0.248308539   
      70.6721954        0.119415365   
      71.0383682        0.574206151E-1
      71.4045410        0.276084635E-1
      71.7707214        0.132738119E-1
      72.1368942        0.638186466E-2
      72.5030746        0.306827924E-2
      72.8692551        0.147514872E-2
# 
# 05/06/2021 at 15:42 ypp_ph @ attacc-lavoro [start]
# 05/06/2021 at 15:42                        [end]
#
# .-Input file  yambo.in
# | phonons                          # [R] Phononic properties
# | dos                              # [R] DOS
# | BoseTemp= 0.000000         eV    # Bosonic Temperature
# | PhBroad= 0.500000E-3       eV    # Phonon broadening (Eliashberg & DOS)
# | PhStps= 200                      # Energy steps
