#                                                           
# :::   :::   :::     ::::    ::::  :::::::::   ::::::::    
# :+:   :+: :+: :+:   +:+:+: :+:+:+ :+:    :+: :+:    :+:   
#  +:+ +:+ +:+   +:+  +:+ +:+:+ +:+ +:+    +:+ +:+    +:+   
#   +#++: +#++:++#++: +#+  +:+  +#+ +#++:++#+  +#+    +:+   
#    +#+  +#+     +#+ +#+       +#+ +#+    +#+ +#+    +#+   
#    #+#  #+#     #+# #+#       #+# #+#    #+# #+#    #+#   
#    ###  ###     ### ###       ### #########   ########    
#                                                           
#                                                           
#        Version 4.0.2 Revision 13795 Hash db7840b          
#                        MPI Build                          
#                http://www.yambo-code.org                  
#
# Joint density of states @ Q(1) [q->0 direction] :0.5774E-5 0.5774E-5 0.5774E-5
#
# - Energies      are Teter 93(XC)
# - The Green`s function is Retarded -
#
#   BSK|Identifier              :2453
#      |Dimension               :97
#      |Bands                   :5 - 10
#      |Exchange           [res]: yes
#      |Correlation        [res]: yes
#      |Kernel`s coupling       : no
#      |Exchange           [cpl]: no
#      |Correlation        [cpl]: no
#      |W interaction is bare   : no
#      |ALDA kernel in R-space  : no
#      |RL vectors    [exchange]:51
#      |RL vectors [correlation]:51
#      |E/h energy range    [ev]:-1.000000 - -1.000000
#      |Coupling range     [o/o]: 100.0000 -  100.0000
#    W |Interaction is diagonal : no
#      |Matrix size             :51
#      |Bands                   :1 - 60
#      |e/h energy range    [ev]:-1.000000 - -1.000000
#      |Poles              [o/o]: 100.0000
#      |RL vectors in the sum   :3473
#      |[r,Vnl] included        : yes
#      |Field direction         :0.1000E-4  0.000000  0.000000
#      |Coulomb Cutoff          :none
#      |xc-Kernel               :none
#   RIM|RL components      [col]:0
#      |Random points      [col]:0
#
#  E/ev[1]    jdos-Im[2] jdos-Re[3] jdoso-Im[4]jdoso-Re[5]jdos`-Im[6]jdos`-Re[7]
#
   0.00000    0.00000   10.77980    0.00000    3.24866
   0.02004    0.02795   10.78184   -1.80851    3.64530
   0.04008    0.05664   10.78796   -3.23123    4.72864
   0.06012    0.08686   10.79813   -3.99710    6.18958
   0.08016    0.11954   10.81230   -4.08034    7.62570
   0.10020    0.15582   10.83032   -3.69087    8.74842
   0.12024    0.19712   10.85186   -3.10059    9.48345
   0.14028    0.24531   10.87624   -2.49983    9.90000
   0.16032    0.30282   10.90213   -1.97553   10.10371
   0.18036    0.37272   10.92703   -1.54897   10.18163
   0.20040    0.45869   10.94635   -1.21241   10.19163
   0.22044    0.56433   10.95191   -0.94954   10.16828
   0.24048    0.69121   10.92986   -0.74397   10.13119
   0.26052    0.83372   10.85872   -0.58201   10.09093
   0.28056    0.96898   10.71119   -0.45303   10.05305
   0.30060    1.04343   10.46829   -0.34896   10.02029
   0.32064    0.97323   10.15524   -0.26381    9.99382
  0.340681   0.692870   9.879940  -0.193088   9.974023
  0.360721   0.246662   9.800784  -0.133450   9.960869
   0.38076   -0.19353    9.99527   -0.08237    9.95411
   0.40080   -0.46031   10.37842   -0.03793    9.95342
 0.4208     -.5170      10.79     0.1357E-2   9.958   
   0.44088   -0.43221   11.13318    0.03663    9.96901
   0.46092   -0.28888   11.38032    0.06880    9.98471
   0.48096   -0.13860   11.55390    0.09859   10.00540
 0.5010     -.2927E-2   11.68     0.1266      10.03   
   0.52104    0.11320   11.78428    0.15326   10.06097
   0.54108    0.21163   11.87626    0.17904   10.09562
   0.56112    0.29613   11.96565    0.20426   10.13483
   0.58116    0.37046   12.05728    0.22924   10.17851
   0.60120    0.43782   12.15395    0.25426   10.22673
   0.62124    0.50076   12.25738    0.27957   10.27954
   0.64128    0.56131   12.36868    0.30543   10.33702
   0.66132    0.62109   12.48865    0.33208   10.39936
   0.68136    0.68147   12.61799    0.35977   10.46665
   0.70140    0.74361   12.75734    0.38877   10.53917
   0.72144    0.80858   12.90739    0.41936   10.61714
   0.74148    0.87744   13.06889    0.45184   10.70086
   0.76152    0.95123   13.24268    0.48656   10.79065
   0.78156    1.03107   13.42970    0.52390   10.88693
   0.80160    1.11821   13.63105    0.56431   10.99016
   0.82164    1.21405   13.84795    0.60830   11.10081
   0.84168    1.32024   14.08181    0.65648   11.21954
   0.86172    1.43873   14.33423    0.70956   11.34696
   0.88176    1.57184   14.60704    0.76842   11.48386
   0.90180    1.72242   14.90228    0.83409   11.63107
   0.92184    1.89401   15.22225    0.90785   11.78961
   0.94188    2.09099   15.56953    0.99127   11.96059
   0.96192    2.31888   15.94694    1.08631   12.14522
   0.98196    2.58475   16.35748    1.19541   12.34490
   1.00200    2.89763   16.80428    1.32168   12.56111
   1.02204    3.26930   17.29019    1.46911   12.79550
   1.04208    3.71513   17.81742    1.64283   13.04968
   1.06212    4.25536   18.38647    1.84954   13.32514
   1.08216    4.91660   18.99440    2.09803   13.62297
   1.10220    5.73360   19.63155    2.39994   13.94322
   1.12224    6.75068   20.27600    2.77068   14.28410
   1.14228    8.02111   20.88399    3.23056   14.63974
   1.16232    9.60064   21.37564    3.80589   14.99737
   1.18236   11.52697   21.61733    4.52920   15.33135
   1.20240   13.77468   21.41393    5.43658   15.59427
   1.22244   16.18652   20.54327    6.55748   15.70380
   1.24248   18.43171   18.87130    7.88820   15.53100
   1.26252   20.09459   16.50807    9.34141   14.90758
   1.28257   20.90805   13.83050   10.68634   13.69184
   1.30261   20.91550   11.26673   11.55989   11.91319
   1.32265   20.35423    9.04924   11.64890    9.88828
   1.34269   19.41158    7.22399   10.94155    8.09724
   1.36273   18.18016    5.84164    9.73913    6.87609
   1.38277   16.80682    5.00526    8.41192    6.27299
   1.40281   15.53972    4.73597    7.20469    6.15337
   1.42285   14.61414    4.90240    6.21642    6.34864
   1.44289   14.15891    5.27929    5.45867    6.72735
   1.46293   14.18421    5.62176    4.90806    7.20541
   1.48297   14.59240    5.71001    4.53460    7.73441
   1.50301   15.18976    5.39610    4.31321    8.28849
   1.52305   15.73335    4.65768    4.22743    8.85437
   1.54309   16.01828    3.60816    4.27004    9.42481
   1.56313   15.94835    2.44343    4.44309    9.99377
   1.58317   15.55990    1.36396    4.75795   10.55211
   1.60321   15.00277    0.49094    5.23512   11.08210
   1.62325   14.45904   -0.20266    5.90266   11.54964
   1.64329   14.01196   -0.87886    6.79002   11.89278
   1.66333   13.56063   -1.70452    7.91041   12.00788
   1.68337   12.88210   -2.68320    9.22248   11.74386
   1.70341   11.83002   -3.61112   10.56968   10.93310
   1.72345   10.47640   -4.23989   11.64147    9.49967
   1.74349    9.03409   -4.46477   12.06419    7.61453
   1.76353    7.69061   -4.33958   11.65124    5.71087
   1.78357    6.53679   -3.98121   10.56670    4.23229
  1.803607   5.587212  -3.495693   9.178823   3.368943
  1.823647   4.819954  -2.955704   7.804871   3.055960
  1.843687   4.202809  -2.404253   6.608339   3.127006
  1.863727   3.705007  -1.864358   5.633140   3.427740
  1.883767   3.300929  -1.347055   4.864327   3.850840
  1.903808   2.970407  -0.856664   4.268108   4.331450
  1.923848   2.697949  -0.393880   3.809810   4.833642
   1.94389    2.47174    0.04244    3.46024    5.33905
  1.963928   2.282750   0.454285   3.196637   5.839322
  1.983968   2.124071   0.843996   3.001920   6.331708
  2.004008   1.990359   1.213969   2.863642   6.816500
  2.024048   1.877460   1.566517   2.772917   7.295642
  2.044088   1.782122   1.903819   2.723674   7.771873
  2.064128   1.701775   2.227889   2.712070   8.248521
  2.084168   1.634388   2.540587   2.736120   8.729055
  2.104208   1.578347   2.843609   2.795524   9.217197
  2.124248   1.532366   3.138535   2.891567   9.716706
   2.14429    1.49543    3.42682    3.02721   10.23145
   2.16433    1.46673    3.70982    3.20733   10.76533
   2.18437    1.44566    3.98882    3.43904   11.32207
   2.20441    1.43174    4.26503    3.73235   11.90511
   2.22445    1.42466    4.53963    4.10088   12.51686
   2.24449    1.42419    4.81376    4.56313   13.15789
   2.26453    1.43024    5.08853    5.14374   13.82503
   2.28457    1.44281    5.36507    5.87510   14.50806
   2.30461    1.46202    5.64451    6.79836   15.18407
   2.32465    1.48807    5.92800    7.96192   15.80787
   2.34469    1.52131    6.21674    9.41343   16.29831
   2.36473    1.56217    6.51198   11.17648   16.52312
   2.38477    1.61126    6.81504   13.20346   16.29886
   2.40481    1.66931    7.12734   15.31383   15.44187
   2.42485    1.73726    7.45039   17.18707   13.89566
   2.44489    1.81626    7.78585   18.51103   11.84651
   2.46493    1.90771    8.13552   19.20371    9.62210
   2.48497    2.01336    8.50139   19.39985    7.41418
   2.50501    2.13535    8.88566   19.17622    5.20741
   2.52505    2.27631    9.29076   18.41696    3.02361
   2.54509    2.43954    9.71938   17.02139    1.10968
   2.56513    2.62912   10.17451   15.14243   -0.21712
   2.58517    2.85021   10.65944   13.11782   -0.83234
   2.60521    3.10934   11.17776   11.24098   -0.83804
   2.62525    3.41488   11.73324    9.65582   -0.42623
   2.64529    3.77758   12.32980    8.38774    0.23145
   2.66533    4.21145   12.97107    7.40530    1.01762
   2.68537    4.73480   13.65985    6.66102    1.86293
   2.70541    5.37176   14.39695    6.10994    2.73047
   2.72545    6.15406   15.17901    5.71561    3.60305
   2.74549    7.12320   15.99474    5.45068    4.47482
   2.76553    8.33201   16.81815    5.29580    5.34625
   2.78557    9.84409   17.59731    5.23829    6.22135
   2.80561   11.72613   18.23715    5.27107    7.10612
   2.82565   14.02385   18.57857    5.39189    8.00772
   2.84569   16.70921   18.38825    5.60307    8.93402
   2.86573   19.60002   17.39564    5.91151    9.89326
   2.88577   22.30346   15.41898    6.32926   10.89377
   2.90581   24.28872   12.54753    6.87442   11.94365
   2.92585   25.12186    9.22900    7.57267   13.04983
   2.94589   24.72404    6.13308    8.45941   14.21668
   2.96593   23.44676    3.84261    9.58286   15.44344
   2.98597   21.88354    2.59589   11.00804   16.71918
   3.00601   20.58552    2.26962   12.82114   18.01412
   3.02605   19.90745    2.53686   15.13334   19.26403
   3.04609   20.01318    3.01021   18.07927   20.34374
   3.06613   20.92478    3.28705   21.79984   21.02566
   3.08617   22.51528    2.94135   26.38508   20.92579
   3.10621   24.42496    1.56330   31.74057   19.46801
   3.12625   25.99407   -1.05009   37.35835   15.96701
   3.14629   26.43608   -4.59768   42.11721    9.99396
   3.16633   25.33175   -8.23701   44.51191    2.00120
   3.18637   22.96994  -11.07889   43.57354   -6.43553
   3.20641   20.07225  -12.72936   39.69908  -13.44945
   3.22645   17.27861  -13.31433   34.29304  -18.05197
   3.24649   14.92740  -13.18005   28.72217  -20.35146
   3.26653   13.11323  -12.66573   23.76044  -20.98425
   3.28657   11.79881  -12.03314   19.65683  -20.59889
   3.30661   10.87800  -11.47054   16.38226  -19.66526
   3.32665   10.19404  -11.09485   13.80866  -18.47446
   3.34669    9.56066  -10.92466   11.79541  -17.19147
   3.36673    8.83100  -10.86238   10.22072  -15.90364
   3.38677    7.97607  -10.75480    8.98845  -14.65349
   3.40681    7.07431  -10.50044    8.02587  -13.45867
   3.42685    6.22464  -10.09021    7.27937  -12.32331
   3.44689    5.48614   -9.56865    6.71033  -11.24452
   3.46693    4.87468   -8.98722    6.29185  -10.21589
  3.486974   4.381957  -8.383782   6.006398  -9.229558
  3.507014   3.991476  -7.780806   5.844384  -8.277379
  3.527054   3.686561  -7.189450   5.803458  -7.351858
  3.547094   3.453327  -6.613884   5.888368  -6.447165
  3.567134   3.281304  -6.054255   6.111526  -5.560528
  3.587174   3.163224  -5.508507   6.493899  -4.694710
  3.607214   3.094648  -4.973395   7.066081  -3.862277
  3.627254   3.073665  -4.445057   7.868044  -3.092873
  3.647294   3.100749  -3.919382   8.945238  -2.444756
   3.66733    3.17881   -3.39214   10.33456   -2.02001
   3.68737    3.31345   -2.85930   12.03040   -1.97580
   3.70741    3.51348   -2.31728   13.92684   -2.50627
   3.72745    3.79164   -1.76348   15.76806   -3.75530
   3.74749    4.16584   -1.19736   17.20499   -5.67238
   3.76753    4.66049   -0.62214   18.00811   -7.97622
   3.78758    5.30831   -0.04816   18.21539  -10.37193
   3.80762    6.15164    0.50145   17.96550  -12.77999
   3.82766    7.24193    0.98110   17.23347  -15.23809
   3.84770    8.63324    1.30799   15.86309  -17.62478
   3.86774   10.36180    1.34403   13.84728  -19.62494
   3.88778   12.40061    0.88679   11.43818  -20.98841
   3.90782   14.59010   -0.29746    8.96017  -21.70544
   3.92786   16.59615   -2.36146    6.61685  -21.93206
   3.94790   17.99617   -5.23291    4.46032  -21.84533
   3.96794   18.47637   -8.61093    2.44761  -21.56411
   3.98798   17.91390  -12.12426    0.49866  -21.12923
   4.00802   16.31141  -15.40421   -1.46157  -20.50336
   4.02806   13.82001  -18.07747   -3.46058  -19.57556
   4.04810   10.77283  -19.89036   -5.42032  -18.18803
   4.06814    7.53689  -20.81926   -7.10373  -16.22558
   4.08818    4.34876  -20.98432   -8.15715  -13.77325
   4.10822    1.31097  -20.49279   -8.32785  -11.19996
   4.12826   -1.50087  -19.36790   -7.69087   -8.97772
   4.14830   -3.92793  -17.59640   -6.59284   -7.38073
   4.16834   -5.70667  -15.26204   -5.39318   -6.40182
   4.18838   -6.59635  -12.65617   -4.30690   -5.88531
   4.20842   -6.57741  -10.21501   -3.41104   -5.66341
  4.228456  -5.905767  -8.291116  -2.706244  -5.611325
  4.248497  -4.946402  -6.990579  -2.164304  -5.650129
  4.268537  -3.979722  -6.218074  -1.751873  -5.734043
  4.288577  -3.143628  -5.811831  -1.439394  -5.837929
  4.308617  -2.474223  -5.631155  -1.203260  -5.948680
  4.328657  -1.959277  -5.579638  -1.025443  -6.059927
  4.348697  -1.571372  -5.598562  -0.892433  -6.168999
  4.368737  -1.282658  -5.654416  -0.794177  -6.275216
  4.388777  -1.069738  -5.728911  -0.723201  -6.378932
  4.408818  -0.914411  -5.812515  -0.673941  -6.481014
  4.428858  -0.802987  -5.900571  -0.642238  -6.582556
  4.448898  -0.725331  -5.991162  -0.624985  -6.684731
  4.468938  -0.673984  -6.083798  -0.619857  -6.788735
  4.488978  -0.643468  -6.178787  -0.625126  -6.895725
  4.509017  -0.629765  -6.276851  -0.639527  -7.006825
  4.529058  -0.629941  -6.378898  -0.662152  -7.123138
  4.549098  -0.641871  -6.485942  -0.692383  -7.245739
  4.569138  -0.664040  -6.599031  -0.729842  -7.375691
  4.589178  -0.695407  -6.719247  -0.774351  -7.514069
  4.609218  -0.735310  -6.847686  -0.825913  -7.661966
  4.629258  -0.783387  -6.985465  -0.884695  -7.820518
  4.649298  -0.839538  -7.133753  -0.951024  -7.990916
  4.669338  -0.903894  -7.293748  -1.025386  -8.174421
  4.689379  -0.976802  -7.466745  -1.108434  -8.372396
  4.709419  -1.058816  -7.654115  -1.201005  -8.586316
  4.729459  -1.150718  -7.857337  -1.304140  -8.817790
  4.749499  -1.253517  -8.078053  -1.419115  -9.068604
  4.769539  -1.368491  -8.318023  -1.547483  -9.340724
  4.789579  -1.497225  -8.579263  -1.691128  -9.636356
  4.809619  -1.641665  -8.863954  -1.852334  -9.957955
   4.82966   -1.80420   -9.17457   -2.03388  -10.30829
   4.84970   -1.98774   -9.51391   -2.23914  -10.69048
   4.86974   -2.19589   -9.88507   -2.47227  -11.10803
   4.88978   -2.43307  -10.29159   -2.73838  -11.56491
   4.90982   -2.70479  -10.73740   -3.04381  -12.06558
   4.92986   -3.01792  -11.22693   -3.39649  -12.61502
   4.94990   -3.38112  -11.76511   -3.80641  -13.21881
   4.96994   -3.80538  -12.35728   -4.28625  -13.88304
   4.98998   -4.30479  -13.00916   -4.85230  -14.61419
   5.01002   -4.89754  -13.72652   -5.52557  -15.41889
   5.03006   -5.60730  -14.51469   -6.33352  -16.30325
   5.05010   -6.46518  -15.37742   -7.31220  -17.27175
   5.07014   -7.51212  -16.31493   -8.50930  -18.32496
   5.09018   -8.80213  -17.32017   -9.98798  -19.45560
   5.11022  -10.40579  -18.37224  -11.83159  -20.64108
   5.13026  -12.41302  -19.42490  -14.14819  -21.83056
   5.15030  -14.93179  -20.38725  -17.07190  -22.92238
   5.17034  -18.07470  -21.09484  -20.75306  -23.72741
   5.19038  -21.91819  -21.27551  -25.31835  -23.91734
   5.21042  -26.41552  -20.53394  -30.76728  -22.97550
   5.23046  -31.26764  -18.41325  -36.77187  -20.22322
   5.25050  -35.83374  -14.59371  -42.43832  -15.07497
   5.27054  -39.23754   -9.18435  -46.34297   -7.60982
   5.29058  -40.74477   -2.88058  -47.24971    0.96460
   5.31062  -40.20839    3.26764  -45.11271    8.80081
   5.33066  -38.15417    8.41416  -41.12340   14.65333
   5.35070  -35.36203   12.29150  -36.69711   18.47211
   5.37074  -32.39975   15.07292  -32.62350   20.94743
   5.39078  -29.53601   17.01736  -28.95270   22.78699
   5.41082  -26.91902   18.32297  -25.35276   24.27303
   5.43086  -24.66169   19.20144  -21.59109   25.24602
   5.45090  -22.77498   19.89984  -17.78293   25.43694
   5.47094  -21.14664   20.61732  -14.26503   24.77764
   5.49098  -19.59350   21.45289  -11.35159   23.44983
   5.51102  -17.90751   22.37996   -9.18758   21.77608
   5.53106  -15.94718   23.22372   -7.71738   20.07011
   5.55110  -13.75226   23.75517   -6.76300   18.51996
   5.57114  -11.50935   23.85989   -6.14316   17.17630
   5.59118   -9.39781   23.58002   -5.73594   16.01428
   5.61122   -7.50170   23.02616   -5.47845   14.99024
   5.63126   -5.82444   22.29068   -5.34591   14.06722
   5.65130   -4.34010   21.41440   -5.33524   13.22098
   5.67134   -3.04134   20.39282   -5.45655   12.44022
   5.69138   -1.97274   19.21176   -5.72967   11.72746
   5.71142   -1.22761   17.90806   -6.18220   11.10304
   5.73146   -0.88091   16.61293   -6.84513   10.61372
   5.75150   -0.90162   15.50914   -7.74006   10.34509
   5.77154   -1.14536   14.72878   -8.84867   10.43155
   5.79158   -1.42327   14.29861  -10.05811   11.04162
   5.81162   -1.56261   14.14146  -11.10548   12.29766
   5.83166   -1.46346   14.08467  -11.61368   14.12286
   5.85170   -1.17833   13.92139  -11.30252   16.15384
   5.87174   -0.91207   13.56723  -10.21914   17.91369
   5.89178   -0.84087   13.16230   -8.69121   19.11557
   5.91182   -0.90796   12.93209   -7.06829   19.75586
   5.93186   -0.86990   12.91562   -5.55794   19.98457
   5.95190   -0.58221   12.89835   -4.22740   19.96668
   5.97194   -0.16643   12.65395   -3.06398   19.82372
   5.99198    0.14205   12.16995   -2.02240   19.62853
   6.01202    0.22134   11.60176   -1.04828   19.41541
   6.03206    0.10409   11.09592   -0.08738   19.18857
   6.05210   -0.12167   10.70679    0.90995   18.92439
   6.07214   -0.39153   10.42393    1.98087   18.56775
   6.09218   -0.68002   10.21949    3.13113   18.02818
   6.11222   -0.98782   10.07335    4.29978   17.19110
   6.13226   -1.32782    9.98116    5.32324   15.97167
   6.15230   -1.71490    9.95697    5.95925   14.41723
   6.17234   -2.15505   10.03492    6.02773   12.76642
   6.19238   -2.62866   10.26645    5.56539   11.33503
   6.21242   -3.06989   10.70103    4.79636   10.31334
   6.23246   -3.36422   11.34050    3.96030    9.70279
   6.25250   -3.40010   12.09366    3.20286    9.40180
   6.27254   -3.15590   12.80263    2.57682    9.29820
   6.29258   -2.72070   13.34289    2.08283    9.30786
   6.31262   -2.22011   13.68509    1.70161    9.37750
   6.33266   -1.74346   13.86905    1.41029    9.47619
   6.35271   -1.32949   13.95223    1.18851    9.58705
   6.37275   -0.98417   13.98169    1.01999    9.70130
   6.39279   -0.69924   13.98858    0.89226    9.81480
   6.41283   -0.46279   13.99142    0.79597    9.92584
   6.43287   -0.26350   14.00064    0.72414   10.03408
   6.45291   -0.09199   14.02180    0.67157   10.13988
   6.47295    0.05916   14.05789    0.63439   10.24391
   6.49299    0.19573   14.11041    0.60970   10.34699
   6.51303    0.32222   14.18019    0.59535   10.44999
   6.53307    0.44225   14.26770    0.58972   10.55378
   6.55311    0.55878   14.37336    0.59163   10.65922
   6.57315    0.67432   14.49760    0.60024   10.76711
   6.59319    0.79114   14.64097    0.61495   10.87827
   6.61323    0.91135   14.80417    0.63542   10.99347
   6.63327    1.03702   14.98811    0.66147   11.11351
   6.65331    1.17033   15.19388    0.69312   11.23919
   6.67335    1.31359   15.42287    0.73054   11.37133
   6.69339    1.46940   15.67668    0.77409   11.51075
   6.71343    1.64078   15.95724    0.82431   11.65841
   6.73347    1.83125   16.26677    0.88193   11.81528
   6.75351    2.04509   16.60788    0.94795   11.98239
   6.77355    2.28751   16.98353    1.02365   12.16095
   6.79359    2.56500   17.39707    1.11068   12.35218
   6.81363    2.88572   17.85219    1.21116   12.55749
   6.83367    3.26005   18.35290    1.32783   12.77840
   6.85371    3.70133   18.90325    1.46419   13.01646
   6.87375    4.22694   19.50705    1.62482   13.27337
   6.89379    4.85964   20.16712    1.81569   13.55064
   6.91383    5.62936   20.88375    2.04463   13.84953
   6.93387    6.57577   21.65238    2.32207   14.17056
   6.95391    7.75077   22.45877    2.66177   14.51256
   6.97395    9.22133   23.27121    3.08202   14.87142
   6.99399   11.06924   24.02652    3.60668   15.23727
   7.01403   13.38423   24.60927    4.26597   15.58973
   7.03407   16.23795   24.82432    5.09510   15.89042
   7.05411   19.62651   24.37774    6.12765   16.07098
   7.07415   23.37484   22.90295    7.37597   16.01979
   7.09419   27.05101   20.07933    8.78979   15.57893
   7.11423   29.98176   15.83449   10.19436   14.58383
   7.13427   31.43987   10.52537   11.26277   12.98262
   7.15431   30.97612    4.95552   11.63177   10.98660
   7.17435   28.71950    0.08098   11.16076    9.04890
   7.19439   25.31731   -3.45332   10.05782    7.58870
   7.21443   21.54323   -5.52235    8.69814    6.75441
   7.23447   17.97126   -6.37497    7.38042    6.45711
   7.25451   14.88737   -6.38864    6.24862    6.52687
   7.27455   12.35904   -5.90193    5.33578    6.81465
   7.29459   10.33850   -5.15543    4.62297    7.21926
  7.314629   8.739125  -4.298167   4.075839   7.680340
  7.334669   7.473694  -3.414534   3.660643   8.164632
  7.354709   6.467908  -2.548617   3.349280   8.655301
  7.374749   5.663166  -1.721399   3.120077   9.144747
  7.394789   5.014450  -0.940919   2.956849   9.630633
   7.41483    4.48777   -0.20850    2.84787   10.11334
   7.43487    4.05738    0.47810    2.78484   10.59489
   7.45491    3.70382    1.12266    2.76218   11.07801
   7.47495    3.41221    1.72963    2.77646   11.56601
   7.49499    3.17118    2.30352    2.82607   12.06232
   7.51503    2.97189    2.84871    2.91104   12.57068
   7.53507    2.80750    3.36925    3.03301   13.09487
   7.55511    2.67266    3.86895    3.19534   13.63880
   7.57515    2.56318    4.35123    3.40326   14.20636
   7.59519    2.47574    4.81930    3.66442   14.80140
   7.61523    2.40776    5.27604    3.98936   15.42722
   7.63527    2.35725    5.72419    4.39248   16.08631
   7.65531    2.32265    6.16627    4.89316   16.77889
   7.67535    2.30284    6.60469    5.51720   17.50130
   7.69539    2.29700    7.04172    6.29833   18.24211
   7.71543    2.30463    7.47960    7.27902   18.97626
   7.73547    2.32551    7.92055    8.50863   19.65484
   7.75551    2.35967    8.36672   10.03343   20.19067
   7.77555    2.40739    8.82037   11.87108   20.44423
   7.79559    2.46924    9.28373   13.95937   20.22771
   7.81563    2.54605    9.75921   16.09685   19.36625
   7.83567    2.63898   10.24928   17.95170   17.83327
   7.85571    2.74953   10.75665   19.23265   15.84740
   7.87575    2.87964   11.28413   19.89712   13.73468
   7.89579    3.03175   11.83489   20.09063   11.65458
   7.91583    3.20888   12.41229   19.86426    9.57949
   7.93587    3.41487   13.02012   19.08712    7.55859
   7.95591    3.65444   13.66246   17.68571    5.86596
   7.97595    3.93359   14.34390   15.85101    4.80597
   7.99599    4.25983   15.06936   13.92925    4.46929
   8.01603    4.64275   15.84432   12.19750    4.73403
   8.03607    5.09454   16.67446   10.78270    5.40811
   8.05611    5.63101   17.56570    9.70222    6.32883
   8.07615    6.27258   18.52347    8.92488    7.38850
   8.09619    7.04605   19.55210    8.40798    8.52580
   8.11623    7.98643   20.65273    8.11443    9.70999
   8.13627    9.13964   21.82046    8.01772   10.92899
   8.15631   10.56510   23.03863    8.10293   12.18123
   8.17635   12.33693   24.26886    8.36657   13.47059
   8.19639   14.54141   25.43592    8.81638   14.80369
   8.21643   17.26164   26.40599    9.47205   16.18682
   8.23647   20.54025   26.96791   10.36692   17.62389
   8.25651   24.31036   26.84258   11.55066   19.11181
   8.27655   28.32730   25.76311   13.09329   20.63454
   8.29659   32.18315   23.62477   15.08885   22.15099
   8.31663   35.47099   20.58983   17.65801   23.57558
   8.33667   37.99779   17.00817   20.94034   24.74497
   8.35671   39.85291   13.16416   25.06404   25.36998
   8.37675   41.20083    9.05417   30.05827   24.98273
   8.39679   41.92736    4.47620   35.67555   22.93658
   8.41683   41.55609   -0.52859   41.14341   18.59689
   8.43687   39.69473   -5.37804   45.09787   11.85558
   8.45691   36.53066   -9.28175   46.13514    3.70202
   8.47695   32.71194  -11.81475   43.85864   -3.99585
   8.49699   28.87541  -13.02048   39.23921   -9.65771
   8.51703   25.43139  -13.16068   33.78612  -12.82702
   8.53707   22.60750  -12.54204   28.62742  -13.92840
   8.55711   20.50371  -11.46856   24.27921  -13.64391
   8.57715   19.12028  -10.21775   20.84557  -12.54642
   8.59719   18.38075   -9.02494   18.24922  -11.01693
   8.61723   18.14458   -8.07002   16.36538   -9.28016
   8.63727   18.22570   -7.44987   15.08111   -7.45978
   8.65731   18.44728   -7.15767   14.31378   -5.62083
   8.67735   18.70524   -7.12100   14.01536   -3.79940
   8.69739   18.97481   -7.27115   14.17159   -2.02224
   8.71743   19.27967   -7.58591   14.80019   -0.32447
   8.73747   19.64458   -8.12103   15.94790    1.23174
   8.75751   20.00658   -8.99402   17.68132    2.53048
   8.77755   20.17264  -10.27037   20.05989    3.36756
   8.79760   19.90815  -11.86075   23.06845    3.41594
   8.81764   19.05978  -13.53885   26.48770    2.23709
   8.83768   17.61518  -15.01543   29.72963   -0.56324
   8.85772   15.72805  -16.02667   31.83618   -4.96407
   8.87776   13.67492  -16.44860   31.91983  -10.18774
   8.89780   11.71961  -16.33733   29.85102  -14.95965
   8.91784   10.01403  -15.84844   26.37109  -18.31845
   8.93788    8.59938  -15.13956   22.47128  -20.06986
   8.95792    7.45463  -14.32631   18.83554  -20.54658
   8.97796    6.53646  -13.48009   15.74885  -20.20235
   8.99800    5.80048  -12.64046   13.24608  -19.40098
   9.01803    5.20857  -11.82698   11.25648  -18.37938
   9.03808    4.73048  -11.04779    9.68378  -17.27554
   9.05812    4.34306  -10.30482    8.43909  -16.16431
   9.07816    4.02877   -9.59661    7.44954  -15.08300
   9.09820    3.77449   -8.92011    6.65903  -14.04820
   9.11824    3.57041   -8.27146    6.02497  -13.06491
   9.13828    3.40934   -7.64660    5.51571  -12.13235
   9.15832    3.28605   -7.04128    5.10761  -11.24646
   9.17836    3.19696   -6.45145    4.78329  -10.40190
  9.198397   3.139796  -5.872995   4.530030  -9.592628
  9.218436   3.113518  -5.301979   4.338774  -8.812593
  9.238477   3.118182  -4.734404   4.203425  -8.055620
  9.258516   3.154994  -4.166370   4.120387  -7.315865
  9.278557   3.226399  -3.593862   4.088315  -6.587480
  9.298596   3.336270  -3.012940   4.108068  -5.864918
  9.318637   3.490233  -2.419600   4.182828  -5.142750
  9.338676   3.696093  -1.810072   4.318408  -4.415998
  9.358717   3.964535  -1.180923   4.523817  -3.680181
  9.378757   4.309940  -0.529786   4.812000  -2.932065
  9.398798   4.751687   0.143787   5.201025  -2.170519
  9.418838   5.315511   0.836227   5.715407  -1.398649
  9.438877   6.035245   1.536701   6.387684  -0.627061
  9.458918   6.953859   2.221077   7.259256   0.119960
  9.478957   8.121923   2.842016   8.378291   0.794525
  9.498998   9.589581   3.314759   9.790866   1.310966
   9.51904   11.38261    3.50149   11.51514    1.53132
   9.53908   13.45513    3.21086   13.49190    1.26858
   9.55912   15.62754    2.24731   15.52355    0.34521
   9.57916   17.57808    0.53297   17.28015   -1.27320
   9.59920   18.97463   -1.78311   18.46386   -3.37580
   9.61924   19.66674   -4.40625   19.02201   -5.63667
   9.63928   19.67497   -7.10829   19.09704   -7.88930
   9.65932   19.00419   -9.75251   18.74498  -10.16030
   9.67936   17.62955  -12.12556   17.83666  -12.40827
   9.69940   15.67906  -13.93468   16.28991  -14.36696
   9.71944   13.46998  -15.01095   14.28533  -15.72994
   9.73948   11.33010  -15.41075   12.16494  -16.40090
   9.75952    9.45439  -15.32178   10.20733  -16.49940
   9.77956    7.90047  -14.93833    8.53978  -16.22053
   9.79960    6.64800  -14.40434    7.17770  -15.73213
   9.81964    5.64802  -13.81003    6.08463  -15.14758
   9.83968    4.84925  -13.20656    5.21081  -14.53403
   9.85972    4.20741  -12.62061    4.50961  -13.92803
   9.87976    3.68723  -12.06474    3.94255  -13.34767
   9.89980    3.26163  -11.54381    3.47967  -12.80092
   9.91984    2.90997  -11.05844    3.09803  -12.29004
   9.93988    2.61666  -10.60730    2.78025  -11.81453
   9.95992    2.36978  -10.18798    2.51308  -11.37238
   9.97996    2.16024   -9.79784    2.28647  -10.96111
  10.00000    1.98100   -9.43411    2.09262  -10.57797
# 
# 08/10/2016 at 20:45 YAMBO_PL @ marini-Galago-UltraPro [start]
# 08/10/2016 at 20:45                                   [end]
#  
# Timing   [Min/Max/Average]: 07s/07s/07s
#
# .-Input file : yambo.in
# | optics                       # [R OPT] Optics
# | bse                          # [R BSE] Bethe Salpeter Equation.
# | bsk                          # [R BSK] Bethe Salpeter Equation kernel
# | bss                          # [R BSS] Bethe Salpeter Equation solver
# | em1s                         # [R Xs] Static Inverse Dielectric Matrix
# | photolum                     # [R] Photo-Luminescence
# | BoseTemp= 0.000000     eV    # Bosonic Temperature
# | DBsFRAGpm= "+ALL"            # [IO] Space-separated list of +DB to be FRAG and -DB NOT to be FRAG. DB=(DIP,X,W,HF,COLLS,K,BS,QINDX,
# | FFTGvecs=  3473        RL    # [FFT] Plane-waves
# | X_all_q_nCPU_invert= 1       # [PARALLEL] CPUs for matrix inversion
# | BS_nCPU_invert= 1            # [PARALLEL] CPUs for matrix inversion
# | BS_nCPU_diago= 1             # [PARALLEL] CPUs for matrix diagonalization
# | Chimod= "hartree"            # [X] IP/Hartree/ALDA/LRC/BSfxc
# | BSEmod= "retarded"           # [BSE] resonant/retarded/coupling
# | BSKmod= "SEX"                # [BSE] IP/Hartree/HF/ALDA/SEX/BSfxc
# | BSSmod= "di"                 # [BSS] (h)aydock/(d)iagonalization/(i)nversion/(t)ddft`
# | BSENGexx=  51          RL    # [BSK] Exchange components
# | BSENGBlk=  51          RL    # [BSK] Screened interaction block size
# | #WehCpl                      # [BSK] eh interaction included also in coupling
# | % PL_weights
# |  1.000000 | 1.000000 | 1.000000 |        # [PL] [cc] Weights of the carthesian components of the emitted radiation
# | %
# | KfnRTdb= "f @ 0 fs < 02_ypp_carriers/ndb.RT_carriers" # [EXTRT BSK BSS] Database
# | RfnRTdb= "f @ 0 fs < 02_ypp_carriers/ndb.RT_carriers" # [EXTRT R] Database
# | % BEnRange
# |   0.00000 | 10.00000 | eV    # [BSS] Energy range
# | %
# | % BDmRange
# |   0.10000 |  0.10000 | eV    # [BSS] Damping range
# | %
# | BEnSteps=  500               # [BSS] Energy steps
# | % BLongDir
# | 0.5774E-5 |0.5774E-5 |0.5774E-5 |        # [BSS] [cc] Electric Field
# | %
# | % BSEBands
# |   5 | 10 |                   # [BSK] Bands range
# | %
# | BSSInvMode= "f"              # [BSS] Inversion solver modality `(f)ull/(p)erturbative`
# | BSEPSInvTrs=   0.0100        # [BSS EPS] Inversion treshold. Relative[o/o](>0)/Absolute(<0)
# | BSSInvPFratio= 1.000000      # [BSS] Inversion solver. Ratio between the number of frequencies solved pert/full
# | BSPLInvTrs= 1.000000         # [BSS PL] Inversion treshold
# | % BndsRnXs
# |    1 |  60 |                 # [Xs] Polarization function bands
# | %
# | NGsBlkXs=  51          RL    # [Xs] Response block size
# | % DmRngeXs
# | 0.1000E-2 |0.1000E-2 | eV    # [Xs] Damping range
# | %
# | % LongDrXs
# | 0.1000E-4 | 0.000    | 0.000    |        # [Xs] [cc] Electric Field
# | %
