#                                                           
# ooooo   oooo ..     ooo        ooo ooooooooo.    .oooo.   
#  `88.   .8" .88.    `88.       .88 `88"   `Y8b  dP"  `Yb  
#   `88. .8" .8"88.    888b     d"88  88     888 88      88 
#    `88.8" .8" `88.   8 Y88. .P  88  88oooo888" 88      88 
#     `88" .88ooo888.  8  `888"   88  88    `88b 88      88 
#      88 .8"     `88. 8    Y     88  88    .88P `8b    d8" 
#     o88o88o      888o8          88 o88bood8P"   `Ybod8P"  
#                                                           
#                                                           
#         Version 4.0.2 Revision 13792 Hash 0d5ab8c         
#                         MPI Build                         
#                 http://www.yambo-code.org                 
#
# Joint density of states @ Q(1) [q->0 direction] :0.5774E-5 0.5774E-5 0.5774E-5
#
# - Energies      are Teter 93(XC)
# - The Green`s function is Retarded -
#
#   BSK|Identifier              :6559
#      |Dimension               :97
#      |Bands                   :5 - 10
#      |Exchange           [res]: yes
#      |Correlation        [res]: yes
#      |Kernel`s coupling       : yes
#      |Exchange           [cpl]: yes
#      |Correlation        [cpl]: no
#      |W interaction is bare   : no
#      |ALDA kernel in R-space  : no
#      |RL vectors    [exchange]:51
#      |RL vectors [correlation]:51
#      |E/h energy range    [ev]:-1.000000 - -1.000000
#      |Coupling range     [o/o]: 100.0000 -  100.0000
#    W |Interaction is diagonal : no
#      |Matrix size             :51
#      |Bands                   :1 - 60
#      |e/h energy range    [ev]:-1.000000 - -1.000000
#      |Poles              [o/o]: 100.0000
#      |RL vectors in the sum   :3473
#      |[r,Vnl] included        : yes
#      |Field direction         :0.1000E-4  0.000000  0.000000
#      |Coulomb Cutoff          :none
#      |xc-Kernel               :none
#   RIM|RL components      [col]:0
#      |Random points      [col]:0
#
#  E/ev[1]    jdos-Im[2] jdos-Re[3] jdoso-Im[4]jdoso-Re[5]jdos`-Im[6]jdos`-Re[7]
#
  0.000     0.9731     0.5780E-5   0.000      3.249   
   0.02004    0.97722    0.18033   -1.80851    3.64530
   0.04008    0.98985    0.36174   -3.23123    4.72864
   0.06012    1.01138    0.54530   -3.99710    6.18958
   0.08016    1.04260    0.73207   -4.08034    7.62570
  0.100200   1.084695   0.923102  -3.690872   8.748417
  0.120240   1.139369   1.119337  -3.100592   9.483448
  0.140281   1.208989   1.321594  -2.499830   9.900003
   0.16032    1.29681    1.53038   -1.97553   10.10371
   0.18036    1.40724    1.74563   -1.54897   10.18163
   0.20040    1.54624    1.96620   -1.21241   10.19163
   0.22044    1.72164    2.18896   -0.94954   10.16828
   0.24048    1.94341    2.40722   -0.74397   10.13119
   0.26052    2.22318    2.60811   -0.58201   10.09093
   0.28056    2.57191    2.76864   -0.45303   10.05305
   0.30060    2.99324    2.85125   -0.34896   10.02029
  0.320641   3.469336   2.803040  -0.263808   9.993823
  0.340681   3.940332   2.569670  -0.193088   9.974023
  0.360721   4.295889   2.135980  -0.133450   9.960869
   0.38076    4.41578    1.57552   -0.08237    9.95411
   0.40080    4.25656    1.04074   -0.03793    9.95342
 0.4208      3.891     0.6694     0.1357E-2   9.958   
   0.44088    3.44304    0.50803    0.03663    9.96901
   0.46092    3.01204    0.52545    0.06880    9.98471
   0.48096    2.64411    0.66494    0.09859   10.00540
   0.50100    2.34941    0.87732    0.12658   10.03086
   0.52104    2.12135    1.12939    0.15326   10.06097
   0.54108    1.94841    1.40144    0.17904   10.09562
   0.56112    1.81936    1.68265    0.20426   10.13483
   0.58116    1.72487    1.96760    0.22924   10.17851
   0.60120    1.65774    2.25390    0.25426   10.22673
   0.62124    1.61257    2.54086    0.27957   10.27954
   0.64128    1.58540    2.82872    0.30543   10.33702
   0.66132    1.57338    3.11824    0.33208   10.39936
   0.68136    1.57451    3.41042    0.35977   10.46665
   0.70140    1.58744    3.70644    0.38877   10.53917
   0.72144    1.61132    4.00756    0.41936   10.61714
   0.74148    1.64574    4.31513    0.45184   10.70086
   0.76152    1.69065    4.63056    0.48656   10.79065
   0.78156    1.74632    4.95534    0.52390   10.88693
   0.80160    1.81337    5.29107    0.56431   10.99016
   0.82164    1.89274    5.63944    0.60830   11.10081
   0.84168    1.98574    6.00230    0.65648   11.21954
   0.86172    2.09409    6.38168    0.70956   11.34696
   0.88176    2.22003    6.77978    0.76842   11.48386
   0.90180    2.36643    7.19904    0.83409   11.63107
   0.92184    2.53690    7.64213    0.90785   11.78961
   0.94188    2.73607    8.11199    0.99127   11.96059
   0.96192    2.96986    8.61179    1.08631   12.14522
   0.98196    3.24587    9.14489    1.19541   12.34490
   1.00200    3.57394    9.71467    1.32168   12.56111
   1.02204    3.96692   10.32423    1.46911   12.79550
   1.04208    4.44168   10.97585    1.64283   13.04968
   1.06212    5.02045   11.66976    1.84954   13.32514
   1.08216    5.73254   12.40224    2.09803   13.62297
   1.10220    6.61621   13.16183    2.39994   13.94322
   1.12224    7.72012   13.92297    2.77068   14.28410
   1.14228    9.10237   14.63518    3.23056   14.63974
   1.16232   10.82251   15.20673    3.80589   14.99737
   1.18236   12.91714   15.48540    4.52920   15.33135
   1.20240   15.34687   15.25135    5.43658   15.59427
   1.22244   17.91761   14.26219    6.55748   15.70380
   1.24248   20.24003   12.39365    7.88820   15.53100
   1.26252   21.85453    9.81701    9.34141   14.90758
   1.28257   22.51447    6.98642   10.68634   13.69184
   1.30261   22.31946    4.35294   11.55989   11.91319
   1.32265   21.52254    2.14772   11.64890    9.88828
   1.34269   20.33626    0.46777   10.94155    8.09724
   1.36273   18.97612   -0.61302    9.73913    6.87609
   1.38277   17.71452   -1.11316    8.41192    6.27299
   1.40281   16.78352   -1.20794    7.20469    6.15337
   1.42285   16.26711   -1.16126    6.21642    6.34864
   1.44289   16.09013   -1.20789    5.45867    6.72735
   1.46293   16.08712   -1.47208    4.90806    7.20541
   1.48297   16.09619   -1.96589    4.53460    7.73441
   1.50301   15.99597   -2.64423    4.31321    8.28849
   1.52305   15.69059   -3.42215    4.22743    8.85437
   1.54309   15.13489   -4.15839    4.27004    9.42481
   1.56313   14.39125   -4.69487    4.44309    9.99377
   1.58317   13.62811   -4.95134    4.75795   10.55211
   1.60321   13.03336   -4.99056    5.23512   11.08210
   1.62325   12.70624   -4.99573    5.90266   11.54964
   1.64329   12.59423   -5.18496    6.79002   11.89278
   1.66333   12.48984   -5.69807    7.91041   12.00788
   1.68337   12.11766   -6.48276    9.22248   11.74386
   1.70341   11.31799   -7.28605   10.56968   10.93310
   1.72345   10.16765   -7.82697   11.64147    9.49967
   1.74349    8.88887   -7.98188   12.06419    7.61453
   1.76353    7.67810   -7.79391   11.65124    5.71087
   1.78357    6.63366   -7.37360   10.56670    4.23229
  1.803607   5.776294  -6.823325   9.178823   3.368943
  1.823647   5.089120  -6.213664   7.804871   3.055960
  1.843687   4.543999  -5.586430   6.608339   3.127006
  1.863727   4.113575  -4.963971   5.633140   3.427740
  1.883767   3.775173  -4.356899   4.864327   3.850840
  1.903808   3.511374  -3.769186   4.268108   4.331450
  1.923848   3.309424  -3.201266   3.809810   4.833642
  1.943888   3.160462  -2.651795   3.460243   5.339052
  1.963928   3.058883  -2.118660   3.196637   5.839322
  1.983968   3.001908  -1.599715   3.001920   6.331708
  2.004008   2.989419  -1.093301   2.863642   6.816500
  2.024048   3.023939  -0.598961   2.772917   7.295642
  2.044088   3.110754  -0.118478   2.723674   7.771873
  2.064128   3.257878   0.342428   2.712070   8.248521
  2.084168   3.475300   0.771274   2.736120   8.729055
  2.104208   3.772148   1.144749   2.795524   9.217197
  2.124248   4.149120   1.424386   2.891567   9.716706
   2.14429    4.58314    1.55699    3.02721   10.23145
   2.16433    5.00680    1.49154    3.20733   10.76533
   2.18437    5.30413    1.22330    3.43904   11.32207
   2.20441    5.35949    0.83994    3.73235   11.90511
   2.22445    5.14456    0.49934    4.10088   12.51686
   2.24449    4.74372    0.33059    4.56313   13.15789
   2.26453    4.28220    0.36836    5.14374   13.82503
   2.28457    3.85125    0.57600    5.87510   14.50806
   2.30461    3.49140    0.89741    6.79836   15.18407
   2.32465    3.20972    1.28630    7.96192   15.80787
   2.34469    2.99867    1.71241    9.41343   16.29831
   2.36473    2.84687    2.15836   11.17648   16.52312
   2.38477    2.74371    2.61522   13.20346   16.29886
   2.40481    2.68069    3.07909   15.31383   15.44187
   2.42485    2.65154    3.54898   17.18707   13.89566
   2.44489    2.65195    4.02553   18.51103   11.84651
   2.46493    2.67920    4.51035   19.20371    9.62210
   2.48497    2.73193    5.00566   19.39985    7.41418
   2.50501    2.80993    5.51405   19.17622    5.20741
   2.52505    2.91404    6.03843   18.41696    3.02361
   2.54509    3.04616    6.58196   17.02139    1.10968
   2.56513    3.20933    7.14811   15.14243   -0.21712
   2.58517    3.40788    7.74056   13.11782   -0.83234
   2.60521    3.64768    8.36328   11.24098   -0.83804
  2.625250   3.936579   9.020404   9.655817  -0.426227
  2.645291   4.284962   9.716080   8.387742   0.231446
   2.66533    4.70653   10.45420    7.40530    1.01762
   2.68537    5.21939   11.23772    6.66102    1.86293
   2.70541    5.84755   12.06755    6.10994    2.73047
   2.72545    6.62269   12.94036    5.71561    3.60305
   2.74549    7.58628   13.84470    5.45068    4.47482
   2.76553    8.79122   14.75422    5.29580    5.34625
   2.78557   10.30105   15.61626    5.23829    6.22135
   2.80561   12.18199   16.33454    5.27107    7.10612
   2.82565   14.47838   16.74841    5.39189    8.00772
   2.84569   17.15919   16.62328    5.60307    8.93402
   2.86573   20.03732   15.68958    5.91151    9.89326
   2.88577   22.71578   13.77068    6.32926   10.89377
   2.90581   24.66446   10.96409    6.87442   11.94365
   2.92585   25.45660    7.72320    7.57267   13.04983
   2.94589   25.02274    4.71617    8.45941   14.21668
   2.96593   23.71943    2.51810    9.58286   15.44344
   2.98597   22.13823    1.35925   11.00804   16.71918
   3.00601   20.82483    1.11253   12.82114   18.01412
   3.02605   20.12902    1.45089   15.13334   19.26403
   3.04609   20.21158    1.98812   18.07927   20.34374
   3.06613   21.09239    2.32270   21.79984   21.02566
   3.08617   22.64279    2.02931   26.38508   20.92579
   3.10621   24.50093    0.69845   31.74057   19.46801
   3.12625   26.00428   -1.87260   37.35835   15.96701
   3.14629   26.36265   -5.38220   42.11721    9.99396
   3.16633   25.15183   -8.98682   44.51191    2.00120
   3.18637   22.65398  -11.79490   43.57354   -6.43553
   3.20641   19.58189  -13.40767   39.69908  -13.44945
   3.22645   16.56463  -13.94163   34.29304  -18.05197
   3.24649   13.92877  -13.72589   28.72217  -20.35146
   3.26653   11.75992  -13.07040   23.76044  -20.98425
   3.28657   10.02427  -12.19185   19.65683  -20.59889
   3.30661    8.64938  -11.22146   16.38226  -19.66526
   3.32665    7.56144  -10.23194   13.80866  -18.47446
   3.34669    6.69775   -9.26056   11.79541  -17.19147
   3.36673    6.00895   -8.32444   10.22072  -15.90364
   3.38677    5.45734   -7.42961    8.98845  -14.65349
   3.40681    5.01453   -6.57620    8.02587  -13.45867
   3.42685    4.65926   -5.76137    7.27937  -12.32331
   3.44689    4.37560   -4.98083    6.71033  -11.24452
   3.46693    4.15169   -4.22968    6.29185  -10.21589
  3.486974   3.978747  -3.502880   6.006398  -9.229558
  3.507014   3.850368  -2.795416   5.844384  -8.277379
  3.527054   3.762078  -2.102402   5.803458  -7.351858
  3.547094   3.710977  -1.419069   5.888368  -6.447165
  3.567134   3.695555  -0.740756   6.111526  -5.560528
   3.58717    3.71560   -0.06286    6.49390   -4.69471
  3.607214   3.772157   0.619206   7.066081  -3.862277
  3.627254   3.867668   1.310061   7.868044  -3.092873
  3.647294   4.006117   2.014343   8.945238  -2.444756
   3.66733    4.19336    2.73676   10.33456   -2.02001
   3.68737    4.43758    3.48188   12.03040   -1.97580
   3.70741    4.74995    4.25395   13.92684   -2.50627
   3.72745    5.14558    5.05639   15.76806   -3.75530
   3.74749    5.64472    5.89082   17.20499   -5.67238
   3.76753    6.27440    6.75525   18.00811   -7.97622
   3.78758    7.07023    7.64086   18.21539  -10.37193
   3.80762    8.07795    8.52628   17.96550  -12.77999
   3.82766    9.35305    9.36792   17.23347  -15.23809
   3.84770   10.95452   10.08528   15.86309  -17.62478
   3.86774   12.92470   10.54275   13.84728  -19.62494
   3.88778   15.24421   10.54060   11.43818  -20.98841
   3.90782   17.76322    9.84798    8.96017  -21.70544
   3.92786   20.16034    8.31502    6.61685  -21.93206
   3.94790   22.03006    6.01622    4.46032  -21.84533
   3.96794   23.08143    3.25251    2.44761  -21.56411
   3.98798   23.22168    0.39106    0.49866  -21.12923
   4.00802   22.49294   -2.21104   -1.46157  -20.50336
   4.02806   21.09745   -4.20619   -3.46058  -19.57556
   4.04810   19.43075   -5.39164   -5.42032  -18.18803
   4.06814   17.92782   -5.83689   -7.10373  -16.22558
   4.08818   16.87850   -5.82060   -8.15715  -13.77325
   4.10822   16.37364   -5.69344   -8.32785  -11.19996
   4.12826   16.32220   -5.78787   -7.69087   -8.97772
   4.14830   16.46554   -6.34611   -6.59284   -7.38073
   4.16834   16.42575   -7.41689   -5.39318   -6.40182
   4.18838   15.86054   -8.77978   -4.30690   -5.88531
   4.20842   14.66839  -10.03361   -3.41104   -5.66341
   4.22846   13.04157  -10.84056   -2.70624   -5.61133
   4.24850   11.29675  -11.09817   -2.16430   -5.65013
   4.26854    9.67789  -10.89991   -1.75187   -5.73404
   4.28858    8.29528  -10.40306   -1.43939   -5.83793
  4.308617   7.163966  -9.742887  -1.203260  -5.948680
  4.328657   6.255489  -9.010104  -1.025443  -6.059927
  4.348697   5.529830  -8.257936  -0.892433  -6.168999
  4.368737   4.949255  -7.514780  -0.794177  -6.275216
  4.388777   4.482563  -6.794266  -0.723201  -6.378932
  4.408818   4.105325  -6.101744  -0.673941  -6.481014
  4.428858   3.798841  -5.438109  -0.642238  -6.582556
  4.448898   3.548929  -4.801961  -0.624985  -6.684731
  4.468938   3.344818  -4.190818  -0.619857  -6.788735
  4.488978   3.178306  -3.601745  -0.625126  -6.895725
  4.509017   3.043128  -3.031688  -0.639527  -7.006825
  4.529058   2.934474  -2.477620  -0.662152  -7.123138
  4.549098   2.848652  -1.936686  -0.692383  -7.245739
  4.569138   2.782826  -1.406149  -0.729842  -7.375691
  4.589178   2.734842  -0.883431  -0.774351  -7.514069
  4.609218   2.703085  -0.366072  -0.825913  -7.661966
  4.629258   2.686391   0.148277  -0.884695  -7.820518
  4.649298   2.683966   0.661895  -0.951024  -7.990916
  4.669338   2.695352   1.177010  -1.025386  -8.174421
  4.689379   2.720387   1.695841  -1.108434  -8.372396
  4.709419   2.759191   2.220629  -1.201005  -8.586316
  4.729459   2.812166   2.753646  -1.304140  -8.817790
  4.749499   2.880003   3.297261  -1.419115  -9.068604
  4.769539   2.963705   3.853949  -1.547483  -9.340724
  4.789579   3.064624   4.426338  -1.691128  -9.636356
  4.809619   3.184509   5.017250  -1.852334  -9.957955
   4.82966    3.32558    5.62973   -2.03388  -10.30829
   4.84970    3.49064    6.26711   -2.23914  -10.69048
   4.86974    3.68316    6.93306   -2.47227  -11.10803
   4.88978    3.90752    7.63158   -2.73838  -11.56491
   4.90982    4.16917    8.36714   -3.04381  -12.06558
   4.92986    4.47496    9.14463   -3.39649  -12.61502
   4.94990    4.83360    9.96946   -3.80641  -13.21881
   4.96994    5.25614   10.84744   -4.28625  -13.88304
   4.98998    5.75676   11.78472   -4.85230  -14.61419
   5.01002    6.35382   12.78751   -5.52557  -15.41889
   5.03006    7.07123   13.86148   -6.33352  -16.30325
   5.05010    7.94036   15.01066   -7.31220  -17.27175
   5.07014    9.00253   16.23535   -8.50930  -18.32496
   5.09018   10.31206   17.52829   -9.98798  -19.45560
   5.11022   11.93965   18.86786  -11.83159  -20.64108
   5.13026   13.97458   20.20630  -14.14819  -21.83056
   5.15030   16.52218   21.45053  -17.07190  -22.92238
   5.17034   19.68833   22.43460  -20.75306  -23.72741
   5.19038   23.53686   22.89059  -25.31835  -23.91734
   5.21042   28.00702   22.44341  -30.76728  -22.97550
   5.23046   32.80558   20.67743  -36.77187  -20.22322
   5.25050   37.34497   17.30855  -42.43832  -15.07497
   5.27054   40.83052   12.41780  -46.34297   -7.60982
   5.29058   42.55555    6.60367  -47.24971    0.96460
   5.31062   42.30767    0.83813  -45.11271    8.80081
   5.33066   40.52524   -4.02502  -41.12340   14.65333
   5.35070   37.95388   -7.66569  -36.69711   18.47211
   5.37074   35.16854  -10.22451  -32.62350   20.94743
   5.39078   32.43880  -11.95451  -28.95270   22.78699
   5.41082   29.88860  -13.03866  -25.35276   24.27303
   5.43086   27.61198  -13.62998  -21.59109   25.24602
   5.45090   25.66393  -13.89346  -17.78293   25.43694
   5.47094   24.04171  -14.00267  -14.26503   24.77764
   5.49098   22.65188  -14.12048  -11.35159   23.44983
   5.51102   21.29991  -14.30651   -9.18758   21.77608
   5.53106   19.81582  -14.43275   -7.71738   20.07011
   5.55110   18.21875  -14.28056   -6.76300   18.51996
   5.57114   16.69861  -13.73856   -6.14316   17.17630
   5.59118   15.45519  -12.86716   -5.73594   16.01428
   5.61122   14.59360  -11.82285   -5.47845   14.99024
   5.63126   14.11537  -10.77497   -5.34591   14.06722
   5.65130   13.93873   -9.85709   -5.33524   13.22098
   5.67134   13.92733   -9.12471   -5.45655   12.44022
   5.69138   13.95735   -8.52498   -5.72967   11.72746
   5.71142   14.00682   -7.93972   -6.18220   11.10304
   5.73146   14.16798   -7.29899   -6.84513   10.61372
   5.75150   14.55592   -6.64823   -7.74006   10.34509
   5.77154   15.21481   -6.11135   -8.84867   10.43155
   5.79158   16.09774   -5.80581  -10.05811   11.04162
   5.81162   17.12289   -5.78648  -11.10548   12.29766
   5.83166   18.24399   -6.07843  -11.61368   14.12286
   5.85170   19.42691   -6.75979  -11.30252   16.15384
   5.87174   20.54257   -7.95342  -10.21914   17.91369
   5.89178   21.32694   -9.70127   -8.69121   19.11557
   5.91182   21.47967  -11.84750   -7.06829   19.75586
   5.93186   20.83985  -14.04610   -5.55794   19.98457
   5.95190   19.49467  -15.92660   -4.22740   19.96668
   5.97194   17.69411  -17.27197   -3.06398   19.82372
   5.99198   15.69398  -18.02659   -2.02240   19.62853
   6.01202   13.70623  -18.22267   -1.04828   19.41541
   6.03206   11.89769  -17.95456   -0.08738   19.18857
   6.05210   10.36823  -17.35803    0.90995   18.92439
   6.07214    9.14703  -16.56750    1.98087   18.56775
   6.09218    8.21865  -15.68716    3.13113   18.02818
   6.11222    7.55183  -14.78866    4.29978   17.19110
   6.13226    7.11587  -13.92256    5.32324   15.97167
   6.15230    6.88462  -13.13250    5.95925   14.41723
   6.17234    6.83009  -12.46686    6.02773   12.76642
   6.19238    6.90610  -11.98265    5.56539   11.33503
   6.21242    7.02649  -11.73036    4.79636   10.31334
   6.23246    7.06128  -11.71042    3.96030    9.70279
   6.25250    6.88707  -11.82926    3.20286    9.40180
   6.27254    6.47299  -11.92597    2.57682    9.29820
   6.29258    5.90111  -11.87262    2.08283    9.30786
   6.31262    5.29177  -11.63658    1.70161    9.37750
   6.33266    4.73036  -11.25458    1.41029    9.47619
   6.35271    4.25258  -10.78124    1.18851    9.58705
   6.37275    3.86203  -10.26101    1.01999    9.70130
  6.392785   3.548689  -9.722533   0.892262   9.814795
  6.412825   3.299285  -9.181965   0.795970   9.925836
   6.43287    3.10156   -8.64741    0.72414   10.03408
   6.45291    2.94552   -8.12222    0.67157   10.13988
   6.47295    2.82345   -7.60713    0.63439   10.24391
   6.49299    2.72952   -7.10143    0.60970   10.34699
   6.51303    2.65947   -6.60368    0.59535   10.44999
   6.53307    2.61017   -6.11203    0.58972   10.55378
   6.55311    2.57944   -5.62446    0.59163   10.65922
   6.57315    2.56582   -5.13885    0.60024   10.76711
   6.59319    2.56846   -4.65301    0.61495   10.87827
   6.61323    2.58701   -4.16473    0.63542   10.99347
   6.63327    2.62161   -3.67167    0.66147   11.11351
   6.65331    2.67284   -3.17146    0.69312   11.23919
   6.67335    2.74175   -2.66157    0.73054   11.37133
   6.69339    2.82991   -2.13934    0.77409   11.51075
   6.71343    2.93945   -1.60192    0.82431   11.65841
   6.73347    3.07320   -1.04622    0.88193   11.81528
   6.75351    3.23484   -0.46888    0.94795   11.98239
   6.77355    3.42908    0.13375    1.02365   12.16095
   6.79359    3.66199    0.76563    1.11068   12.35218
   6.81363    3.94138    1.43105    1.21116   12.55749
   6.83367    4.27736    2.13451    1.32783   12.77840
   6.85371    4.68302    2.88053    1.46419   13.01646
   6.87375    5.17555    3.67334    1.62482   13.27337
   6.89379    5.77759    4.51612    1.81569   13.55064
   6.91383    6.51898    5.40946    2.04463   13.84953
   6.93387    7.43937    6.34906    2.32207   14.17056
   6.95391    8.59067    7.32077    2.66177   14.51256
   6.97395   10.03990    8.29284    3.08202   14.87142
   6.99399   11.86884    9.20179    3.60668   15.23727
   7.01403   14.16699    9.93155    4.26597   15.58973
   7.03407   17.00514   10.28605    5.09510   15.89042
   7.05411   20.37741    9.97069    6.12765   16.07098
   7.07415   24.10574    8.61947    7.37597   16.01979
   7.09419   27.75546    5.91485    8.78979   15.57893
   7.11423   30.65301    1.78914   10.19436   14.58383
   7.13427   32.07359   -3.39658   11.26277   12.98262
   7.15431   31.57281   -8.83624   11.63177   10.98660
   7.17435   29.28573  -13.57507   11.16076    9.04890
   7.19439   25.86300  -16.97366   10.05782    7.58870
   7.21443   22.07658  -18.91242    8.69814    6.75441
   7.23447   18.49660  -19.64222    7.38042    6.45711
   7.25451   15.40605  -19.53988    6.24862    6.52687
   7.27455   12.87092  -18.94258    5.33578    6.81465
   7.29459   10.84306  -18.08966    4.62297    7.21926
   7.31463    9.23577  -17.12929    4.07584    7.68034
   7.33467    7.96202  -16.14532    3.66064    8.16463
   7.35471    6.94764  -15.18146    3.34928    8.65530
   7.37475    6.13419  -14.25851    3.12008    9.14475
   7.39479    5.47675  -13.38433    2.95685    9.63063
   7.41483    4.94141  -12.56015    2.84787   10.11334
   7.43487    4.50248  -11.78363    2.78484   10.59489
   7.45491    4.14052  -11.05095    2.76218   11.07801
   7.47495    3.84069  -10.35754    2.77646   11.56601
   7.49499    3.59162   -9.69891    2.82607   12.06232
   7.51503    3.38449   -9.07056    2.91104   12.57068
   7.53507    3.21248   -8.46843    3.03301   13.09487
   7.55511    3.07021   -7.88864    3.19534   13.63880
   7.57515    2.95349   -7.32775    3.40326   14.20636
   7.59519    2.85902   -6.78249    3.66442   14.80140
   7.61523    2.78421   -6.24995    3.98936   15.42722
   7.63527    2.72705   -5.72733    4.39248   16.08631
   7.65531    2.68599   -5.21211    4.89316   16.77889
   7.67535    2.65990   -4.70180    5.51720   17.50130
   7.69539    2.64795   -4.19412    6.29833   18.24211
   7.71543    2.64965   -3.68677    7.27902   18.97626
   7.73547    2.66476   -3.17753    8.50863   19.65484
   7.75551    2.69330   -2.66420   10.03343   20.19067
   7.77555    2.73556   -2.14450   11.87108   20.44423
   7.79559    2.79210   -1.61615   13.95937   20.22771
   7.81563    2.86375   -1.07672   16.09685   19.36625
   7.83567    2.95164   -0.52372   17.95170   17.83327
   7.85571    3.05731    0.04559   19.23265   15.84740
   7.87575    3.18266    0.63405   19.89712   13.73468
   7.89579    3.33014    1.24486   20.09063   11.65458
   7.91583    3.50278    1.88139   19.86426    9.57949
   7.93587    3.70439    2.54748   19.08712    7.55859
   7.95591    3.93970    3.24719   17.68571    5.86596
   7.97595    4.21473    3.98517   15.85101    4.80597
   7.99599    4.53695    4.76636   13.92925    4.46929
   8.01603    4.91598    5.59625   12.19750    4.73403
   8.03607    5.36402    6.48054   10.78270    5.40811
  8.056112   5.896857   7.425169   9.702225   6.328826
  8.076152   6.534941   8.435587   8.924876   7.388498
  8.096192   7.305073   9.516140   8.407981   8.525804
   8.11623    8.24228   10.66797    8.11443    9.70999
   8.13627    9.39252   11.88619    8.01772   10.92899
   8.15631   10.81522   13.15409    8.10293   12.18123
   8.17635   12.58454   14.43330    8.36657   13.47059
   8.19639   14.78674   15.64846    8.81638   14.80369
   8.21643   17.50492   16.66565    9.47205   16.18682
   8.23647   20.78148   17.27357   10.36692   17.62389
   8.25651   24.54929   17.19311   11.55066   19.11181
   8.27655   28.56333   16.15763   13.09329   20.63454
   8.29659   32.41555   14.06291   15.08885   22.15099
   8.31663   35.69935   11.07174   17.65801   23.57558
   8.33667   38.22252    7.53401   20.94034   24.74497
   8.35671   40.07481    3.73360   25.06404   25.36998
   8.37675   41.42052   -0.33402   30.05827   24.98273
   8.39679   42.14457   -4.87124   35.67555   22.93658
   8.41683   41.76961   -9.83631   41.14341   18.59689
   8.43687   39.90322  -14.64586   45.09787   11.85558
   8.45691   36.73360  -18.50879   46.13514    3.70202
   8.47695   32.90954  -21.00009   43.85864   -3.99585
   8.49699   29.06850  -22.16339   39.23921   -9.65771
   8.51703   25.62155  -22.26083   33.78612  -12.82702
   8.53707   22.79657  -21.60018   28.62742  -13.92840
   8.55711   20.69298  -20.48639   24.27921  -13.64391
   8.57715   19.31019  -19.19734   20.84557  -12.54642
   8.59719   18.57084  -17.96835   18.24922  -11.01693
   8.61723   18.33357  -16.97876   16.36538   -9.28016
   8.63727   18.41188  -16.32446   15.08111   -7.45978
   8.65731   18.62933  -15.99757   14.31378   -5.62083
   8.67735   18.88282  -15.92524   14.01536   -3.79940
   8.69739   19.14824  -16.03902   14.17159   -2.02224
   8.71743   19.44979  -16.31707   14.80019   -0.32447
   8.73747   19.81229  -16.81585   15.94790    1.23174
   8.75751   20.17233  -17.65333   17.68132    2.53048
   8.77755   20.33641  -18.89486   20.05989    3.36756
   8.79760   20.06978  -20.45073   23.06845    3.41594
   8.81764   19.21935  -22.09442   26.48770    2.23709
   8.83768   17.77291  -23.53679   29.72963   -0.56324
   8.85772   15.88437  -24.51410   31.83618   -4.96407
   8.87776   13.83019  -24.90256   31.91983  -10.18774
   8.89780   11.87407  -24.75848   29.85102  -14.95965
   8.91784   10.16776  -24.23745   26.37109  -18.31845
   8.93788    8.75229  -23.49698   22.47128  -20.06986
   8.95792    7.60664  -22.65260   18.83554  -20.54658
   8.97796    6.68746  -21.77565   15.74885  -20.20235
   8.99800    5.95039  -20.90562   13.24608  -19.40098
   9.01803    5.35732  -20.06207   11.25648  -18.37938
   9.03808    4.87804  -19.25308    9.68378  -17.27554
   9.05812    4.48940  -18.48060    8.43909  -16.16431
   9.07816    4.17387  -17.74316    7.44954  -15.08300
   9.09820    3.91834  -17.03768    6.65903  -14.04820
   9.11824    3.71301  -16.36033    6.02497  -13.06491
   9.13828    3.55069  -15.70702    5.51571  -12.13235
   9.15832    3.42617  -15.07350    5.10761  -11.24646
   9.17836    3.33584  -14.45572    4.78329  -10.40190
   9.19840    3.27746  -13.84958    4.53003   -9.59263
   9.21844    3.24997  -13.25112    4.33877   -8.81259
   9.23848    3.25344  -12.65634    4.20342   -8.05562
   9.25852    3.28907  -12.06134    4.12039   -7.31587
   9.27856    3.35932  -11.46211    4.08832   -6.58748
   9.29860    3.46804  -10.85469    4.10807   -5.86492
   9.31864    3.62087  -10.23509    4.18283   -5.14275
  9.338676   3.825622  -9.599527   4.318408  -4.415998
  9.358717   4.092966  -8.944569   4.523817  -3.680181
  9.378757   4.437297  -8.267846   4.812000  -2.932065
  9.398798   4.877994  -7.568904   5.201025  -2.170519
  9.418838   5.440792  -6.851326   5.715407  -1.398649
  9.438877   6.159535  -6.125928   6.387684  -0.627061
  9.458918   7.077188  -5.416856   7.259256   0.119960
  9.478957   8.244301  -4.771468   8.378291   0.794525
  9.498998   9.711040  -4.274536   9.790866   1.310966
   9.51904   11.50312   -4.06389   11.51514    1.53132
   9.53908   13.57464   -4.33088   13.49190    1.26858
   9.55912   15.74585   -5.27102   15.52355    0.34521
   9.57916   17.69506   -6.96201   17.28015   -1.27320
   9.59920   19.09016   -9.25467   18.46386   -3.37580
   9.61924   19.78099  -11.85432   19.02201   -5.63667
   9.63928   19.78819  -14.53296   19.09704   -7.88930
   9.65932   19.11666  -17.15402   18.74498  -10.16030
   9.67936   17.74137  -19.50427   17.83666  -12.40827
   9.69940   15.79027  -21.29094   16.28991  -14.36696
   9.71944   13.58049  -22.34504   14.28533  -15.72994
   9.73948   11.43983  -22.72285   12.16494  -16.40090
   9.75952    9.56330  -22.61209   10.20733  -16.49940
   9.77956    8.00856  -22.20696    8.53978  -16.22053
   9.79960    6.75526  -21.65144    7.17770  -15.73213
   9.81964    5.75444  -21.03577    6.08463  -15.14758
   9.83968    4.95486  -20.41107    5.21081  -14.53403
   9.85972    4.31222  -19.80407    4.50961  -13.92803
   9.87976    3.79125  -19.22730    3.94255  -13.34767
   9.89980    3.36488  -18.68562    3.47967  -12.80092
   9.91984    3.01245  -18.17967    3.09803  -12.29004
   9.93988    2.71837  -17.70807    2.78025  -11.81453
   9.95992    2.47075  -17.26846    2.51308  -11.37238
   9.97996    2.26047  -16.85818    2.28647  -10.96111
  10.00000    2.08049  -16.47447    2.09262  -10.57797
# 
# 08/10/2016 at 14:20 YAMBO_PL @ anomaly [start]
# 08/10/2016 at 14:20                    [end]
#  
# Timing   [Min/Max/Average]: 15s/15s/15s
#
# .-Input file : INPUTS/04_bse_pl
# | optics                       # [R OPT] Optics
# | bse                          # [R BSE] Bethe Salpeter Equation.
# | bsk                          # [R BSK] Bethe Salpeter Equation kernel
# | bss                          # [R BSS] Bethe Salpeter Equation solver
# | em1s                         # [R Xs] Static Inverse Dielectric Matrix
# | photolum                     # [R] Photo-Luminescence
# | BoseTemp= 0.000000     eV    # Bosonic Temperature
# | FFTGvecs=  3473        RL    # [FFT] Plane-waves
# | X_all_q_nCPU_invert= 1       # [PARALLEL] CPUs for matrix inversion
# | BS_nCPU_invert= 1            # [PARALLEL] CPUs for matrix inversion
# | BS_nCPU_diago= 1             # [PARALLEL] CPUs for matrix diagonalization
# | Chimod= "hartree"            # [X] IP/Hartree/ALDA/LRC/BSfxc
# | BSEmod= "coupling"           # [BSE] resonant/retarded/coupling
# | BSKmod= "SEX"                # [BSE] IP/Hartree/HF/ALDA/SEX/BSfxc
# | BSSmod= "di"                 # [BSS] (h)aydock/(d)iagonalization/(i)nversion/(t)ddft`
# | BSENGexx=  51          RL    # [BSK] Exchange components
# | BSENGBlk=  51          RL    # [BSK] Screened interaction block size
# | #WehCpl                      # [BSK] eh interaction included also in coupling
# | % PL_weights
# |  1.000000 | 1.000000 | 1.000000 |        # [PL] [cc] Weights of the carthesian components of the emitted radiation
# | %
# | KfnRTdb= "f @ 0 fs < 02_ypp_carriers/ndb.RT_carriers" # [EXTRT BSK BSS] Database
# | RfnRTdb= "f @ 0 fs < 02_ypp_carriers/ndb.RT_carriers" # [EXTRT R] Database
# | % BEnRange
# |   0.00000 | 10.00000 | eV    # [BSS] Energy range
# | %
# | % BDmRange
# |   0.10000 |  0.10000 | eV    # [BSS] Damping range
# | %
# | BEnSteps=  500               # [BSS] Energy steps
# | % BLongDir
# | 0.5774E-5 |0.5774E-5 |0.5774E-5 |        # [BSS] [cc] Electric Field
# | %
# | % BSEBands
# |   5 | 10 |                   # [BSK] Bands range
# | %
# | BSSInvMode= "f"              # [BSS] Inversion solver modality `(f)ull/(p)erturbative`
# | BSEPSInvTrs=   0.0100        # [BSS EPS] Inversion treshold. Relative[o/o](>0)/Absolute(<0)
# | BSSInvPFratio= 1.000000      # [BSS] Inversion solver. Ratio between the number of frequencies solved pert/full
# | BSPLInvTrs= 0.200000         # [BSS PL] Inversion treshold
# | % BndsRnXs
# |    1 |  60 |                 # [Xs] Polarization function bands
# | %
# | NGsBlkXs=  51          RL    # [Xs] Response block size
# | % DmRngeXs
# | 0.1000E-2 |0.1000E-2 | eV    # [Xs] Damping range
# | %
# | % LongDrXs
# | 0.1000E-4 | 0.000    | 0.000    |        # [Xs] [cc] Electric Field
# | %
