#                                                           
# ooooo   oooo ..     ooo        ooo ooooooooo.    .oooo.   
#  `88.   .8" .88.    `88.       .88 `88"   `Y8b  dP"  `Yb  
#   `88. .8" .8"88.    888b     d"88  88     888 88      88 
#    `88.8" .8" `88.   8 Y88. .P  88  88oooo888" 88      88 
#     `88" .88ooo888.  8  `888"   88  88    `88b 88      88 
#      88 .8"     `88. 8    Y     88  88    .88P `8b    d8" 
#     o88o88o      888o8          88 o88bood8P"   `Ybod8P"  
#                                                           
#                                                           
#         Version 4.0.2 Revision 13795 Hash db7840b         
#                         MPI Build                         
#                 http://www.yambo-code.org                 
#
# Joint density of states @ Q(1) [q->0 direction] :0.5774E-5 0.5774E-5 0.5774E-5
#
# - Energies      are Teter 93(XC)
# - The Green`s function is Retarded -
#
#   BSK|Identifier              :5573
#      |Dimension               :97
#      |Bands                   :5 - 10
#      |Exchange           [res]: yes
#      |Correlation        [res]: yes
#      |Kernel`s coupling       : no
#      |Exchange           [cpl]: no
#      |Correlation        [cpl]: no
#      |W interaction is bare   : no
#      |ALDA kernel in R-space  : no
#      |RL vectors    [exchange]:51
#      |RL vectors [correlation]:51
#      |E/h energy range    [ev]:-1.000000 - -1.000000
#      |Coupling range     [o/o]: 100.0000 -  100.0000
#    W |Interaction is diagonal : no
#      |Matrix size             :51
#      |Bands                   :1 - 60
#      |e/h energy range    [ev]:-1.000000 - -1.000000
#      |Poles              [o/o]: 100.0000
#      |RL vectors in the sum   :3473
#      |[r,Vnl] included        : yes
#      |Field direction         :0.1000E-4  0.000000  0.000000
#      |Coulomb Cutoff          :none
#      |xc-Kernel               :none
#   RIM|RL components      [col]:0
#      |Random points      [col]:0
#
#  E/ev[1]    jdos-Im[2] jdos-Re[3] jdoso-Im[4]jdoso-Re[5]jdos`-Im[6]jdos`-Re[7]
#
   1.00000    2.86392   16.75788    1.30818   12.53870
   1.01717    3.17269   17.16821    1.43103   12.73669
   1.03433    3.53277   17.60857    1.57215   12.94894
   1.05150    3.95581   18.07972    1.73538   13.17640
   1.06867    4.45651   18.58105    1.92560   13.41991
   1.08584    5.05349   19.10941    2.14896   13.68001
   1.10300    5.77004   19.65733    2.41330   13.95647
   1.12017    6.63469   20.21005    2.72859   14.24798
   1.13734    7.68094   20.74090    3.10747   14.55114
   1.15451    8.94446   21.20484    3.56576   14.85887
   1.17167   10.45552   21.53003    4.12274   15.15836
   1.18884   12.22247   21.61115    4.80060   15.42727
   1.20601   14.20361   21.31256    5.62186   15.62834
   1.22318   16.27385   20.49659    6.60255   15.70336
   1.24034   18.21254   19.08748    7.73762   15.56786
   1.25751   19.75267   17.14682    8.97609   15.11516
   1.27468   20.69342   14.89197   10.19141   14.24494
   1.29185   20.99877   12.60895   11.17291   12.92576
   1.30901   20.78620   10.51577   11.68194   11.27009
   1.32618   20.21244    8.69839   11.57644    9.54228
   1.34335   19.37500    7.17069   10.90754    8.04675
   1.36051   18.32673    5.96906    9.88388    6.97914
   1.37768   17.15583    5.16187    8.74404    6.37336
   1.39485   16.01315    4.78034    7.66059    6.15424
   1.41202   15.06117    4.77081    6.72122    6.21313
   1.42918   14.41655    5.01058    5.95258    6.45345
   1.44635   14.13031    5.34766    5.34947    6.80466
   1.46352   14.19155    5.62899    4.89459    7.22050
   1.48069   14.53210    5.71841    4.56900    7.67264
   1.49785   15.03151    5.51899    4.35668    8.14454
   1.51502   15.53715    4.99970    4.24617    8.62690
   1.53219   15.90422    4.20671    4.23104    9.11440
   1.54936   16.03549    3.24603    4.30981    9.60331
   1.56652   15.90199    2.24963    4.48604   10.08951
   1.58369   15.54664    1.33822    4.76827   10.56646
   1.60086   15.07048    0.58193    5.16996   11.02237
   1.61803   14.59176   -0.03169    5.70870   11.43671
   1.63519   14.18308   -0.59516    6.40366   11.77475
   1.65236   13.82054   -1.22867    7.26906   11.98119
   1.66953   13.38532   -1.99719    8.30040   11.97478
   1.68670   12.73414   -2.84827    9.45028   11.65105
   1.70386   11.80190   -3.62950   10.59856   10.90735
   1.72103   10.64887   -4.18519   11.53985    9.70278
   1.73820    9.41123   -4.44357   12.03215    8.13464
   1.75536    8.21787   -4.42562   11.91735    6.45619
   1.77253    7.14652   -4.20035   11.22642    4.97524
   1.78970    6.22513   -3.84210   10.15681    3.90203
  1.806867   5.450804  -3.410129   8.948174   3.284530
  1.824034   4.806710  -2.945058   7.779795   3.054250
  1.841202   4.272279  -2.472343   6.744833   3.102992
  1.858369   3.827970  -2.006800   5.872475   3.331764
  1.875537   3.456960  -1.556402   5.157148   3.667219
  1.892704   3.145469  -1.124950   4.579289   4.060717
  1.909871   2.882445  -0.713744   4.116347   4.482226
  1.927039   2.659096  -0.322678   3.747532   4.914209
   1.94421    2.46846    0.04917    3.45544    5.34705
  1.961373   2.305024   0.403074   3.226098   5.775973
  1.978541   2.164377   0.740506   3.048630   6.199157
  1.995708   2.042997   1.062987   2.914708   6.616543
  2.012876   1.938045   1.371988   2.818048   7.029059
  2.030043   1.847228   1.668924   2.754051   7.438262
  2.047210   1.768675   1.955132   2.719465   7.846022
  2.064378   1.700859   2.231853   2.712152   8.254471
  2.081545   1.642532   2.500240   2.730972   8.665818
  2.098712   1.592666   2.761378   2.775667   9.082359
  2.115880   1.550415   3.016270   2.846851   9.506478
  2.133047   1.515085   3.265848   2.946009   9.940599
   2.15021    1.48611    3.51100    3.07557   10.38716
   2.16738    1.46304    3.75256    3.23909   10.84857
   2.18455    1.44550    3.99132    3.44140   11.32724
   2.20172    1.43321    4.22805    3.68892   11.82517
   2.21888    1.42595    4.46347    3.99004   12.34402
   2.23605    1.42359    4.69832    4.35566   12.88453
   2.25322    1.42603    4.93331    4.79979   13.44569
   2.27039    1.43324    5.16912    5.34025   14.02373
   2.28755    1.44525    5.40647    5.99934   14.60996
   2.30472    1.46214    5.64608    6.80415   15.18775
   2.32189    1.48406    5.88866    7.78550   15.72756
   2.33906    1.51122    6.13497    8.97411   16.18052
   2.35622    1.54386    6.38579   10.39077   16.47094
   2.37339    1.58234    6.64192   12.02708   16.49313
   2.39056    1.62707    6.90423   13.81651   16.12263
   2.40773    1.67856    7.17364   15.60978   15.25821
   2.42489    1.73742    7.45110   17.19061   13.89167
   2.44206    1.80438    7.73767   18.36374   12.15380
   2.45923    1.88032    8.03447   19.06460   10.25688
   2.47640    1.96629    8.34272   19.36712    8.35510
   2.49356    2.06352    8.66377   19.35868    6.47093
   2.51073    2.17351    8.99904   19.02168    4.57524
   2.52790    2.29806    9.35015   18.25710    2.72720
   2.54506    2.43931    9.71882   17.02354    1.11180
   2.56223    2.59989   10.10693   15.43164   -0.06924
   2.57940    2.78296   10.51654   13.69599   -0.72519
   2.59657    2.99242   10.94986   12.01970   -0.89838
   2.61373    3.23307   11.40925   10.52766   -0.70280
   2.63090    3.51083   11.89713    9.26690   -0.25955
   2.64807    3.83312   12.41596    8.23553    0.33477
   2.66524    4.20921   12.96794    7.40933    1.01375
   2.68240    4.65080   13.55481    6.75803    1.73574
   2.69957    5.17272   14.17726    6.25289    2.47665
   2.71674    5.79369   14.83396    5.86974    3.22364
   2.73391    6.53737   15.52012    5.58934    3.97103
   2.75107    7.43328   16.22496    5.39713    4.71748
   2.76824    8.51721   16.92765    5.28254    5.46423
   2.78541    9.83038   17.59137    5.23839    6.21419
   2.80258   11.41495   18.15462    5.26044    6.97120
   2.81974   13.30264   18.52138    5.34706    7.73969
   2.83691   15.49191   18.55458    5.49908    8.52457
   2.85408   17.91167   18.08498    5.71973    9.33093
   2.87124   20.38389   16.95255    6.01489   10.16405
   2.88841   22.61776   15.08566    6.39334   11.02914
   2.90558   24.27176   12.58450    6.86730   11.93120
   2.92275   25.07668    9.74612    7.45318   12.87455
   2.93991   24.95789    6.99346    8.17260   13.86220
   2.95708   24.08324    4.73010    9.05382   14.89467
   2.97425   22.79754    3.19871   10.13333   15.96812
   2.99142   21.48583    2.42771   11.45807   17.07102
   3.00858   20.45874    2.27865   13.08736   18.17895
   3.02575   19.91205    2.53034   15.09430   19.24610
   3.04292   19.94177    2.93777   17.56462   20.19184
   3.06009   20.56890    3.24915   20.58834   20.88112
   3.07725   21.73990    3.20003   24.23707   21.09927
   3.09442   23.29359    2.51865   28.51273   20.52905
   3.11159   24.91282    0.98222   33.25668   18.75641
   3.12876   26.12535   -1.45527   38.02935   15.35784
   3.14592   26.44168   -4.52833   42.04631   10.12564
   3.16309   25.61136   -7.68313   44.33945    3.37630
   3.18026   23.78312  -10.33207   44.21786   -3.93476
   3.19742   21.39079  -12.13724   41.72063  -10.57190
   3.21459   18.89331  -13.07883   37.58922  -15.63319
   3.23176   16.60568  -13.33370   32.79057  -18.86300
   3.24893   14.67825  -13.13186   28.07807  -20.50312
   3.26609   13.14729  -12.67906   23.86008  -20.98340
   3.28326   11.98533  -12.13706   20.27501  -20.71054
   3.30043   11.12865  -11.62807   17.31124  -19.99133
   3.31760   10.48557  -11.23757   14.89415  -19.03162
   3.33476    9.94180  -11.00430   12.93375  -17.96005
   3.35193    9.38285  -10.90408   11.34582  -16.85300
   3.36910    8.73579  -10.85484   10.05905  -15.75360
   3.38627    7.99875  -10.75910    9.01604  -14.68449
   3.40343    7.22511  -10.55501    8.17182  -13.65602
   3.42060    6.47958  -10.23271    7.49168  -12.67124
   3.43777    5.80683   -9.81646    6.94939  -11.72909
   3.45494    5.22563   -9.34000    6.52548  -10.82611
  3.472103   4.736818  -8.832518   6.205995  -9.957743
  3.489270   4.332349  -8.314363   5.981674  -9.118843
  3.506438   4.001433  -7.798010   5.847360  -8.304340
  3.523605   3.733586  -7.290148   5.801762  -7.509523
  3.540773   3.519861  -6.793667   5.847405  -6.730552
  3.557940   3.353162  -6.309125   5.990854  -5.965061
  3.575108   3.228169  -5.835621   6.243108  -5.213127
  3.592275   3.141191  -5.371453   6.620094  -4.478869
  3.609442   3.089976  -4.914402   7.143068  -3.772867
  3.626609   3.073601  -4.462006   7.838183  -3.116160
  3.643777   3.092421  -4.011646   8.734326  -2.545931
  3.660944   3.148102  -3.560681   9.856614  -2.122740
   3.67811    3.24371   -3.10653   11.21207   -1.93682
   3.69528    3.38393   -2.64677   12.76520   -2.10584
   3.71245    3.57537   -2.17939   14.40764   -2.74991
   3.72961    3.82697   -1.70307   15.94827   -3.93313
   3.74678    4.15061   -1.21771   17.16412   -5.59538
   3.76395    4.56178   -0.72541   17.91240   -7.55084
   3.78112    5.08040   -0.23194   18.20363   -9.59948
   3.79828    5.73153    0.25080   18.13490  -11.65400
   3.81545    6.54550    0.70089   17.74504  -13.73612
   3.83262    7.55651    1.08057   16.95846  -15.84617
   3.84979    8.79752    1.32830   15.68046  -17.85732
   3.86695   10.28798    1.35038   13.93558  -19.55787
   3.88412   12.01049    1.01772   11.89135  -20.79076
   3.90129   13.87747    0.18089    9.75904  -21.53492
   3.91846   15.70502   -1.28191    7.69296  -21.87475
   3.93562   17.23227   -3.39136    5.75982  -21.92747
   3.95279   18.20588   -6.02541    3.95832  -21.79172
   3.96996   18.46766   -8.96522    2.24955  -21.52719
   3.98712   17.95935  -11.97706    0.58126  -21.15107
   4.00429   16.68369  -14.82996   -1.09417  -20.63828
   4.02146   14.72057  -17.28452   -2.80018  -19.92366
   4.03863   12.25686  -19.14770   -4.51025  -18.91093
   4.05579    9.53549  -20.34656   -6.11789  -17.50372
   4.07296    6.75932  -20.92361   -7.42842  -15.67032
   4.09013    4.04512  -20.96427   -8.21428  -13.51998
   4.10730    1.44624  -20.52912   -8.33964  -11.31364
   4.12446   -0.99173  -19.63038   -7.85907   -9.35437
   4.14163   -3.17825  -18.25587   -6.98470   -7.83821
   4.15880   -4.95922  -16.43002   -5.95934   -6.79902
   4.17597   -6.15782  -14.27945   -4.95967   -6.16043
   4.19313   -6.66844  -12.04544   -4.07619   -5.81147
   4.21030   -6.53647  -10.00850   -3.33698   -5.65282
  4.227468  -5.948544  -8.371287  -2.736931  -5.611272
  4.244636  -5.138442  -7.195436  -2.257651  -5.638082
  4.261803  -4.294159  -6.428695  -1.877964  -5.702681
  4.278970  -3.524179  -5.970766  -1.578348  -5.786672
  4.296137  -2.871549  -5.723332  -1.342421  -5.879359
  4.313305  -2.340847  -5.610216  -1.157003  -5.974801
  4.330472  -1.919353  -5.579099  -1.011725  -6.069915
  4.347640  -1.589141  -5.596425  -0.898511  -6.163313
  4.364807  -1.332648  -5.641574  -0.811091  -6.254603
  4.381974  -1.134753  -5.702253  -0.744616  -6.343958
  4.399142  -0.983172  -5.771387  -0.695304  -6.431866
  4.416309  -0.868229  -5.845058  -0.660221  -6.518973
  4.433476  -0.782403  -5.921262  -0.637076  -6.606006
  4.450644  -0.719903  -5.999149  -0.624084  -6.693706
  4.467811  -0.676275  -6.078531  -0.619855  -6.782821
  4.484978  -0.648106  -6.159611  -0.623310  -6.874078
  4.502146  -0.632771  -6.242830  -0.633623  -6.968200
  4.519314  -0.628273  -6.328722  -0.650169  -7.065864
  4.536481  -0.633081  -6.417911  -0.672488  -7.167761
  4.553648  -0.646049  -6.511048  -0.700264  -7.274563
  4.570816  -0.666324  -6.608804  -0.733298  -7.386937
  4.587983  -0.693292  -6.711863  -0.771499  -7.505558
  4.605151  -0.726543  -6.820897  -0.814872  -7.631124
  4.622318  -0.765823  -6.936625  -0.863504  -7.764329
  4.639485  -0.811031  -7.059753  -0.917575  -7.905919
  4.656652  -0.862188  -7.191042  -0.977349  -8.056664
  4.673820  -0.919439  -7.331259  -1.043177  -8.217386
  4.690987  -0.983039  -7.481232  -1.115501  -8.388958
  4.708154  -1.053360  -7.641838  -1.194865  -8.572317
  4.725322  -1.130894  -7.814019  -1.281929  -8.768490
  4.742490  -1.216250  -7.998755  -1.377464  -8.978563
  4.759657  -1.310183  -8.197163  -1.482399  -9.203744
  4.776824  -1.413605  -8.410425  -1.597825  -9.445354
  4.793992  -1.527604  -8.639849  -1.725026  -9.704844
  4.811159  -1.653477  -8.886858  -1.865521  -9.983814
   4.82833   -1.79277   -9.15305   -2.02110  -10.28403
   4.84549   -1.94732   -9.44017   -2.19391  -10.60747
   4.86266   -2.11930   -9.75013   -2.38645  -10.95628
   4.87983   -2.31135  -10.08508   -2.60176  -11.33287
   4.89700   -2.52661  -10.44737   -2.84346  -11.73991
   4.91416   -2.76888  -10.83964   -3.11594  -12.18034
   4.93133   -3.04276  -11.26472   -3.42449  -12.65742
   4.94850   -3.35387  -11.72578   -3.77562  -13.17468
   4.96567   -3.70913  -12.22618   -4.17730  -13.73600
   4.98283   -4.11703  -12.76947   -4.63934  -14.34536
   5.00000   -4.58818  -13.35932   -5.17401  -15.00697
   5.01717   -5.13583  -13.99928   -5.79664  -15.72489
   5.03433   -5.77666  -14.69241   -6.52655  -16.50269
   5.05150   -6.53173  -15.44063   -7.38822  -17.34271
   5.06867   -7.42777  -16.24367   -8.41274  -18.24488
   5.08584   -8.49868  -17.09734   -9.63979  -19.20484
   5.10300   -9.78701  -17.99023  -11.11951  -20.21032
   5.12017  -11.34574  -18.89923  -12.91509  -21.23606
   5.13734  -13.23837  -19.78171  -15.10399  -22.23482
   5.15451  -15.53616  -20.56414  -17.77668  -23.12362
   5.17167  -18.30824  -21.12695  -21.02832  -23.76377
   5.18884  -21.59794  -21.28861  -24.93491  -23.93507
   5.20601  -25.37951  -20.79990  -29.50127  -23.31318
   5.22318  -29.49593  -19.37005  -34.56721  -21.47733
   5.24034  -33.60738  -16.74845  -39.68923  -18.00251
   5.25751  -37.20204  -12.85889  -44.08285  -12.68996
   5.27468  -39.71984   -7.92376  -46.79961   -5.87160
   5.29185  -40.76876   -2.47696  -47.19714    1.49940
   5.30901  -40.31757    2.80347  -45.37295    8.23650
   5.32618  -38.70410    7.37357  -42.09702   13.53657
   5.34335  -36.42882   11.01048  -38.30426   17.27056
   5.36052  -33.91063   13.77320  -34.64039   19.80164
   5.37768  -31.38846   15.83017  -31.32017   21.63115
   5.39485  -28.98037   17.32807  -28.22787   23.11748
   5.41202  -26.77348   18.38498  -25.13344   24.34844
   5.42918  -24.83552   19.13822  -21.91131   25.19169
   5.44635  -23.17504   19.74531  -18.63518   25.47017
   5.46352  -21.73020   20.34076  -15.51145   25.11393
   5.48069  -20.39486   21.00711  -12.75890   24.19708
   5.49785  -19.04019   21.76641  -10.52398   22.89730
   5.51502  -17.53994   22.56269   -8.84346   21.42993
   5.53219  -15.82866   23.26374   -7.65190   19.97780
   5.54936  -13.94838   23.72544   -6.83055   18.64675
   5.56652  -12.01976   23.87330   -6.26379   17.46832
   5.58369  -10.16415   23.72289   -5.86832   16.43015
   5.60086   -8.45384   23.34004   -5.59510   15.50516
   5.61803   -6.90893   22.79365   -5.41993   14.66704
   5.63519   -5.51885   22.12954   -5.33405   13.89572
   5.65236   -4.26677   21.36428   -5.33821   13.17817
   5.66953   -3.15054   20.49181   -5.43968   12.50825
   5.68670   -2.19753   19.50174   -5.65084   11.88735
   5.70386   -1.46437   18.40799   -5.98843   11.32596
   5.72103   -1.01045   17.27488   -6.47197   10.84740
   5.73820   -0.85224   16.21214   -7.11966   10.49319
   5.75536   -0.93693   15.33124   -7.93884   10.32915
   5.77253   -1.15984   14.69955   -8.90751   10.44799
   5.78970   -1.40070   14.32547   -9.94612   10.95777
   5.80687   -1.54932   14.16185  -10.89112   11.94048
   5.82403   -1.53010   14.10836  -11.50716   13.37845
   5.84120   -1.34066   14.03035  -11.57375   15.09436
   5.85837   -1.07590   13.82230  -11.01520   16.78963
   5.87554   -0.88146   13.48714   -9.95215   18.18759
   5.89270   -0.84242   13.14653   -8.61655   19.15645
   5.90987   -0.90186   12.94344   -7.22347   19.71442
   5.92704   -0.90075   12.90888   -5.90586   19.95774
   5.94421   -0.71982   12.92293   -4.71689   19.99382
   5.96137   -0.38676   12.81774   -3.65917   19.90921
   5.97854   -0.04338   12.51518   -2.71025   19.76288
   5.99571    0.17481   12.06531   -1.83792   19.58979
   6.01288    0.21976   11.57827   -1.00752   19.40612
   6.03004    0.12225   11.14184   -0.18514   19.21253
   6.04721   -0.06071   10.79101    0.66072   18.99474
   6.06438   -0.28409   10.52272    1.55572   18.72191
   6.08155   -0.52494   10.31982    2.51225   18.34417
   6.09871   -0.77769   10.16605    3.51545   17.79372
   6.11588   -1.04697   10.05236    4.50385   16.99821
   6.13305   -1.34198    9.97878    5.35700   15.91624
   6.15022   -1.67203    9.95548    5.91778   14.58924
   6.16738   -2.04155   10.00350    6.06587   13.16621
   6.18455   -2.44248   10.15402    5.79730   11.85188
   6.20172   -2.84424   10.44167    5.22930   10.80441
   6.21888   -3.18706   10.88711    4.52495   10.07551
   6.23605   -3.39187   11.47110    3.81643    9.62963
   6.25322   -3.39595   12.12067    3.17816    9.39531
   6.27039   -3.19360   12.73294    2.63765    9.30270
   6.28755   -2.84076   13.22634    2.19534    9.29817
   6.30472   -2.41841   13.57212    1.83998    9.34525
   6.32189   -1.99343   13.78626    1.55709    9.42078
   6.33906   -1.60390   13.90395    1.33287    9.51076
   6.35622   -1.26404   13.96021    1.15547    9.60702
   6.37339   -0.97410   13.98214    1.01529    9.70499
   6.39056   -0.72829   13.98827    0.90475    9.80229
   6.40773   -0.51902   13.99041    0.81791    9.89785
   6.42489   -0.33898   13.99577    0.75015    9.99135
   6.44206   -0.18185   14.00863    0.69789   10.08290
   6.45923   -0.04241   14.03148    0.65833   10.17285
   6.47639    0.08357   14.06573    0.62932   10.26170
   6.49356    0.19949   14.11218    0.60915   10.34996
   6.51073    0.30812   14.17130    0.59653   10.43817
   6.52790    0.41174   14.24342    0.59041   10.52690
   6.54506    0.51227   14.32876    0.59002   10.61666
   6.56223    0.61137   14.42760    0.59476   10.70800
   6.57940    0.71053   14.54025    0.60419   10.80142
   6.59657    0.81113   14.66709    0.61801   10.89740
   6.61373    0.91446   14.80857    0.63601   10.99645
   6.63090    1.02184   14.96529    0.65810   11.09908
   6.64807    1.13463   15.13793    0.68430   11.20576
   6.66524    1.25425   15.32731    0.71468   11.31702
   6.68240    1.38228   15.53441    0.74944   11.43338
   6.69957    1.52048   15.76031    0.78885   11.55541
   6.71674    1.67084   16.00633    0.83330   11.68368
   6.73391    1.83567   16.27390    0.88329   11.81882
   6.75107    2.01771   16.56469    0.93944   11.96152
   6.76824    2.22020   16.88053    1.00258   12.11250
   6.78541    2.44703   17.22349    1.07366   12.27251
   6.80258    2.70294   17.59582    1.15393   12.44244
   6.81974    2.99371   17.99996    1.24490   12.62318
   6.83691    3.32652   18.43849    1.34845   12.81572
   6.85408    3.71023   18.91392    1.46693   13.02105
   6.87124    4.15600   19.42865    1.60325   13.24022
   6.88841    4.67789   19.98449    1.76112   13.47420
   6.90558    5.29369   20.58211    1.94520   13.72385
   6.92275    6.02601   21.22000    2.16140   13.98969
   6.93991    6.90347   21.89273    2.41727   14.27164
   6.95708    7.96210   22.58825    2.72243   14.56845
   6.97425    9.24614   23.28321    3.08907   14.87693
   6.99142   10.80794   23.93618    3.53254   15.19050
   7.00858   12.70432   24.47744    4.07160   15.49707
   7.02575   14.98583   24.79627    4.72806   15.77549
   7.04292   17.67378   24.72952    5.52448   15.99046
   7.06009   20.72107   24.06242    6.47800   16.08632
   7.07725   23.96401   22.55947    7.58690   15.98143
   7.09442   27.09079   20.03796    8.80665   15.57082
   7.11159   29.66541   16.46715   10.02022   14.75057
   7.12876   31.22025   12.05246   11.02495   13.47716
   7.14592   31.41049    7.25434   11.57956   11.84386
   7.16309   30.17797    2.68420   11.52374   10.10095
   7.18026   27.79937   -1.11569   10.88504    8.55615
   7.19743   24.75186   -3.85795    9.85920    7.42226
   7.21459   21.51263   -5.53376    8.68690    6.75002
   7.23176   18.42912   -6.31719    7.54940    6.47204
   7.24893   15.69045   -6.44795    6.54189    6.48001
   7.26609   13.35948   -6.15051    5.69477    6.67422
   7.28326   11.42291   -5.59869    5.00319    6.98055
  7.300430   9.832880  -4.912251   4.447969   7.349710
  7.317597   8.532604  -4.167540   4.006770   7.751152
  7.334764   7.468328  -3.410336   3.658931   8.166976
  7.351932   6.594133  -2.666631   3.387103   8.587277
  7.369099   5.872540  -1.950077   3.177414   9.007079
  7.386266   5.273677  -1.266951   3.019046   9.424442
  7.403433   4.773977  -0.619177   2.903743   9.839146
  7.421      4.355     -.6181E-2   2.825      10.25   
   7.43777    4.00188    0.57385    2.77917   10.66461
   7.45494    3.70339    1.12349    2.76218   11.07867
   7.47210    3.45032    1.64554    2.77226   11.49626
   7.48927    3.23536    2.14286    2.80833   11.91962
   7.50644    3.05269    2.61821    2.87021   12.35102
   7.52360    2.89761    3.07424    2.95855   12.79282
   7.54077    2.76632    3.51343    3.07492   13.24748
   7.55794    2.65575    3.93805    3.22179   13.71743
   7.57511    2.56338    4.35024    3.40277   14.20515
   7.59227    2.48719    4.75198    3.62275   14.71300
   7.60944    2.42552    5.14512    3.88820   15.24316
   7.62661    2.37705    5.53140    4.20756   15.79731
   7.64378    2.34069    5.91244    4.59176   16.37629
   7.66094    2.31563    6.28980    5.05485   16.97931
   7.67811    2.30121    6.66494    5.61464   17.60266
   7.69528    2.29699    7.03929    6.29348   18.23799
   7.71245    2.30265    7.41427    7.11849   18.86895
   7.72961    2.31804    7.79124    8.12057   19.46649
   7.74678    2.34314    8.17159    9.33069   19.98243
   7.76395    2.37808    8.55669   10.77010   20.34188
   7.78112    2.42312    8.94798   12.43157   20.43981
   7.79828    2.47867    9.34687   14.25010   20.15227
   7.81545    2.54529    9.75488   16.07835   19.37712
   7.83262    2.62372   10.17359   17.70116   18.10402
   7.84979    2.71490   10.60467   18.92181   16.46137
   7.86695    2.81997   11.04990   19.67309   14.66151
   7.88412    2.94033   11.51114   20.02734   12.86157
   7.90129    3.07770   11.99047   20.07364   11.08671
   7.91846    3.23412   12.49007   19.79742    9.30795
   7.93562    3.41211   13.01237   19.10072    7.58241
   7.95279    3.61469   13.55996   17.94036    6.09396
   7.96996    3.84553   14.13567   16.42495    5.04618
   7.98713    4.10913   14.74262   14.76908    4.53355
   8.00429    4.41094   15.38403   13.17837    4.51688
   8.02146    4.75773   16.06347   11.78086    4.88395
   8.03863    5.15786   16.78458   10.62672    5.51458
   8.05579    5.62174   17.55106    9.71690    6.31293
   8.07296    6.16240   18.36635    9.03011    7.21346
   8.09013    6.79620   19.23324    8.53929    8.17577
   8.10730    7.54386   20.15321    8.21970    9.17728
   8.12446    8.43135   21.12490    8.05199   10.20679
   8.14163    9.49140   22.14241    8.02301   11.26054
   8.15880   10.76445   23.19172    8.12589   12.33906
   8.17597   12.29900   24.24544    8.35978   13.44536
   8.19313   14.14973   25.25513    8.72989   14.58362
   8.21030   16.37071   26.14116    9.24789   15.75804
   8.22747   18.99888   26.78272    9.93251   16.97154
   8.24464   22.02603   27.01663   10.81079   18.22437
   8.26180   25.36146   26.65878   11.91966   19.51156
   8.27897   28.80997   25.56069   13.30784   20.81898
   8.29614   32.10064   23.68437   15.03770   22.11714
   8.31330   34.97621   21.14192   17.18581   23.35101
   8.33047   37.29650   18.15311   19.84013   24.42479
   8.34764   39.08321   14.92947   23.08712   25.17971
   8.36481   40.45525   11.54676   26.98159   25.36858
   8.38198   41.46466    7.91315   31.48203   24.63814
   8.39914   41.95151    3.90545   36.34559   22.55612
   8.41631   41.58407   -0.39619   41.01288   18.74245
   8.43348   40.11534   -4.60305   44.60133   13.14036
   8.45064   37.62508   -8.19879   46.17768    6.29834
   8.46781   34.48974  -10.83479   45.27221   -0.66369
   8.48498   31.14958  -12.44441   42.20482   -6.56006
   8.50215   27.94069  -13.14622   37.86051  -10.70386
   8.51931   25.07603  -13.12276   33.16982  -13.04403
   8.53648   22.68093  -12.56832   28.76968  -13.91899
   8.55365   20.81489  -11.67414   24.96525  -13.76477
   8.57082   19.48318  -10.61726   21.83547  -12.95464
   8.58798   18.64825   -9.55295   19.34633  -11.75624
   8.60515   18.23646   -8.60966   17.42282  -10.34353
   8.62232   18.14288   -7.87952   15.98668   -8.82296
   8.63949   18.24592   -7.40254   14.97223   -7.25694
   8.65665   18.43905   -7.16279   14.33145   -5.68143
   8.67382   18.65901   -7.11237   14.03499   -4.11818
   8.69099   18.88656   -7.20547   14.07175   -2.58376
   8.70816   19.13167   -7.41826   14.44805   -1.09766
   8.72532   19.41667   -7.76427   15.18658    0.30988
   8.74249   19.74100   -8.30322   16.32399    1.58706
   8.75966   20.03798   -9.11135   17.90411    2.64666
   8.77682   20.17285  -10.21728   19.96159    3.34851
   8.79399   19.99596  -11.56059   22.48705    3.48412
   8.81116   19.40173  -13.00423   25.36503    2.78040
   8.82833   18.35740  -14.37045   28.29432    0.95866
   8.84549   16.91778  -15.47638   30.74489   -2.11483
   8.86266   15.22522  -16.18616   32.06689   -6.22312
   8.87983   13.46442  -16.45957   31.79868  -10.72425
   8.89700   11.79343  -16.35014   29.96736  -14.79237
   8.91416   10.30481  -15.95865   27.06708  -17.82738
   8.93133    9.02991  -15.38717   23.74008  -19.65999
   8.94850    7.96151  -14.71602   20.48514  -20.45168
   8.96567    7.07520  -14.00022   17.57111  -20.48795
   8.98283    6.34216  -13.27414   15.08773  -20.03836
   9.00000    5.73534  -12.55770   13.02550  -19.30578
   9.01717    5.23165  -11.86152   11.33329  -18.42602
   9.03434    4.81221  -11.19046    9.94994  -17.48373
   9.05150    4.46206  -10.54602    8.81838  -16.52897
   9.06867    4.16934   -9.92767    7.89004  -15.58968
   9.08584    3.92481   -9.33375    7.12560  -14.68039
   9.10300    3.72124   -8.76207    6.49395  -13.80750
   9.12017    3.55307   -8.21013    5.97077  -12.97267
   9.13734    3.41599   -7.67533    5.53709  -12.17486
   9.15451    3.30676   -7.15502    5.17826  -11.41148
   9.17167    3.22303   -6.64664    4.88299  -10.67925
  9.188842   3.163158  -6.147616   4.642557  -9.974452
  9.206009   3.126197  -5.655425   4.450460  -9.293209
  9.223176   3.111801  -5.167569   4.301893  -8.631683
  9.240344   3.120225  -4.681570   4.193517  -7.986071
  9.257511   3.152348  -4.194945   4.123337  -7.352671
  9.274679   3.209723  -3.705180   4.090529  -6.727800
  9.291846   3.294656  -3.209815   4.095478  -6.108000
  9.309013   3.410360  -2.706323   4.139762  -5.489817
  9.326180   3.561130  -2.192254   4.226326  -4.869981
  9.343348   3.752609  -1.665287   4.359650  -4.245444
  9.360516   3.992132  -1.123425   4.546067  -3.613597
  9.377683   4.289173  -0.565276   4.794176  -2.972524
    9.3949     4.6559     0.0094     5.1154    -2.3215
  9.412018   5.108023   0.598941   5.524458  -1.662027
  9.429185   5.665197   1.198046   6.040434  -0.999074
  9.446352   6.352067   1.795769   6.687022  -0.343615
  9.463520   7.198116   2.371644   7.492536   0.283667
  9.480687   8.236158   2.890232   8.488092   0.846906
  9.497855   9.497180   3.293912   9.701878   1.287910
   9.51502   10.99795    3.49559   11.14590    1.51940
   9.53219   12.71906    3.37777   12.79288    1.42585
   9.54936   14.57463    2.81014   14.54588    0.88489
   9.56652   16.39395    1.69851   16.22399   -0.17781
   9.58369   17.95169    0.05196   17.60470   -1.71831
   9.60086   19.05914   -1.99289   18.53255   -3.56111
   9.61803   19.64480   -4.24384   19.00356   -5.49983
   9.63519   19.72722   -6.55783   19.11496   -7.43065
   9.65236   19.31687   -8.85138   18.92136   -9.36774
   9.66953   18.38920  -11.01406   18.36182  -11.32066
   9.68670   16.96821  -12.86711   17.34097  -13.17761
   9.70386   15.19644  -14.23922   15.87174  -14.72980
   9.72103   13.29389  -15.06541   14.11662  -15.80802
   9.73820   11.46019  -15.40205   12.29772  -16.37708
   9.75537    9.81700  -15.37024   10.59129  -16.51645
   9.77253    8.40893  -15.09604    9.08882  -16.34963
   9.78970    7.23181  -14.68014    7.81398  -15.99119
   9.80687    6.25891  -14.19240    6.75272  -15.52685
   9.82403    5.45727  -13.67723    5.87593  -15.01384
   9.84120    4.79546  -13.16119    5.15201  -14.48742
   9.85837    4.24644  -12.65918    4.55220  -13.96813
   9.87554    3.78815  -12.17902    4.05245  -13.46729
   9.89270    3.40290  -11.72413    3.63319  -12.99039
   9.90987    3.07671  -11.29545    3.27889  -12.53963
   9.92704    2.79857  -10.89253    2.97728  -12.11522
   9.94421    2.55977  -10.51415    2.71866  -11.71630
   9.96137    2.35342  -10.15872    2.49538  -11.34153
   9.97854    2.17400   -9.82453    2.30134  -10.98923
   9.99571    2.01712   -9.50990    2.13169  -10.65775
  10.01288    1.87922   -9.21316    1.98249  -10.34542
  10.03004    1.75741   -8.93277    1.85058  -10.05064
  10.04721    1.64932   -8.66731    1.73337   -9.77196
  10.06438    1.55300   -8.41547    1.62874   -9.50802
  10.08154    1.46685   -8.17608    1.53492   -9.25757
  10.09871    1.38953   -7.94805    1.45046   -9.01954
  10.11588    1.31991   -7.73043    1.37415   -8.79289
  10.13305    1.25704   -7.52232    1.30496   -8.57672
  10.15022    1.20014   -7.32293    1.24202   -8.37017
  10.16738    1.14852   -7.13152    1.18459   -8.17253
  10.18455    1.10160   -6.94745    1.13205   -7.98310
  10.20172    1.05888   -6.77011    1.08386   -7.80125
  10.21888    1.01995   -6.59896    1.03956   -7.62645
  10.23605    0.98443   -6.43349    0.99873   -7.45819
  10.25322    0.95201   -6.27325    0.96104   -7.29600
  10.27039    0.92242   -6.11781    0.92618   -7.13944
  10.28755    0.89542   -5.96676    0.89389   -6.98813
  10.30472    0.87079   -5.81976    0.86392   -6.84173
  10.32189    0.84838   -5.67646    0.83609   -6.69989
  10.33906    0.82801   -5.53653    0.81020   -6.56231
  10.35622    0.80957   -5.39970    0.78609   -6.42872
  10.37339    0.79294   -5.26566    0.76363   -6.29886
  10.39056    0.77802   -5.13415    0.74269   -6.17248
  10.40773    0.76473   -5.00491    0.72316   -6.04937
  10.42489    0.75300   -4.87770    0.70493   -5.92930
  10.44206    0.74279   -4.75228    0.68793   -5.81208
  10.45923    0.73405   -4.62842    0.67206   -5.69754
  10.47640    0.72676   -4.50589    0.65727   -5.58550
  10.49356    0.72090   -4.38447    0.64348   -5.47579
  10.51073    0.71646   -4.26394    0.63064   -5.36826
  10.52790    0.71346   -4.14408    0.61871   -5.26276
  10.54506    0.71191   -4.02466    0.60763   -5.15915
  10.56223    0.71184   -3.90546    0.59737   -5.05730
  10.57940    0.71331   -3.78626    0.58789   -4.95709
  10.59657    0.71637   -3.66681    0.57917   -4.85838
  10.61373    0.72110   -3.54688    0.57117   -4.76106
  10.63090    0.72759   -3.42620    0.56388   -4.66501
  10.64807    0.73598   -3.30451    0.55729   -4.57012
  10.66524    0.74638   -3.18153    0.55136   -4.47627
  10.68240    0.75898   -3.05695    0.54609   -4.38336
  10.69957    0.77397   -2.93047    0.54148   -4.29130
  10.71674    0.79159   -2.80173    0.53751   -4.19997
  10.73391    0.81211   -2.67038    0.53420   -4.10926
  10.75107    0.83588   -2.53600    0.53153   -4.01906
  10.76824    0.86329   -2.39816    0.52951   -3.92929
  10.78541    0.89482   -2.25638    0.52816   -3.83982
  10.80258    0.93103   -2.11015    0.52748   -3.75056
  10.81974    0.97260   -1.95890    0.52749   -3.66138
  10.83691    1.02037   -1.80202    0.52821   -3.57220
  10.85408    1.07533   -1.63883    0.52966   -3.48288
  10.87125    1.13871   -1.46860    0.53188   -3.39331
  10.88841    1.21201   -1.29057    0.53489   -3.30336
  10.90558    1.29710   -1.10391    0.53873   -3.21291
  10.92275    1.39630   -0.90782    0.54346   -3.12182
  10.93991    1.51250   -0.70152    0.54912   -3.02996
  10.95708    1.64937   -0.48437    0.55577   -2.93717
  10.97425    1.81151   -0.25601    0.56349   -2.84331
  10.99142    2.00477   -0.01665    0.57235   -2.74818
  11.00858    2.23654    0.23254    0.58244   -2.65163
  11.02575    2.51605    0.48865    0.59387   -2.55345
  11.04292    2.85459    0.74587    0.60675   -2.45345
  11.06009    3.26537    0.99376    0.62121   -2.35140
  11.07725    3.76239    1.21462    0.63742   -2.24706
  11.09442    4.35740    1.38038    0.65555   -2.14016
  11.11159    5.05338    1.45018    0.67580   -2.03043
  11.12876    5.83381    1.37213    0.69842   -1.91754
  11.14592    6.65088    1.09482    0.72367   -1.80116
  11.16309    7.42291    0.59102    0.75186   -1.68091
  11.18026    8.05430   -0.11833    0.78338   -1.55638
  11.19743    8.47062   -0.96262    0.81865   -1.42712
  11.21459    8.64170   -1.84529    0.85819   -1.29261
  11.23176    8.58426   -2.66813    0.90259   -1.15231
  11.24893    8.36065   -3.35142    0.95256   -1.00558
  11.26610    8.06702   -3.86156    1.00897   -0.85175
  11.28326    7.79679   -4.22763    1.07282   -0.69006
  11.30043    7.59901   -4.52506    1.14534   -0.51969
  11.31760    7.45948   -4.83458    1.22803   -0.33969
  11.33476    7.31358   -5.19770    1.32270   -0.14907
  11.35193    7.08928   -5.59075    1.43157    0.05324
  11.36910    6.75963   -5.94074    1.55741    0.26841
  11.38627    6.36274   -6.17792    1.70365    0.49762
  11.40343    5.97358   -6.27940    1.87456    0.74200
  11.42060    5.66119   -6.27304    2.07555    1.00256
  11.43777    5.46539   -6.21669    2.31346    1.27997
  11.45494    5.39247   -6.17851    2.59696    1.57420
  11.47210    5.41539   -6.22416    2.93709    1.88399
  11.48927    5.47307   -6.40230    3.34782    2.20593
  11.50644    5.47806   -6.72217    3.84655    2.53286
  11.52361    5.34650   -7.13504    4.45457    2.85151
  11.54077    5.04225   -7.54662    5.19629    3.13875
  11.55794    4.59654   -7.86509    6.09672    3.35637
  11.57511    4.08141   -8.04445    7.17443    3.44492
  11.59227    3.56651   -8.08880    8.42741    3.31975
  11.60944    3.09561   -8.02930    9.81088    2.87668
  11.62661    2.68669   -7.90164   11.21468    2.01877
  11.64378    2.34122   -7.73494   12.46427    0.70541
  11.66094    2.05295   -7.54949   13.36610   -1.00433
  11.67811    1.81317   -7.35813   13.77621   -2.95889
  11.69528    1.61330   -7.16850   13.63405   -4.96379
  11.71245    1.44583   -6.98484   12.95959   -6.81875
  11.72961    1.30457   -6.80929   11.85625   -8.34452
  11.74678    1.18455   -6.64276   10.50057   -9.43118
  11.76395    1.08182   -6.48544    9.08490  -10.07303
  11.78112    0.99323   -6.33708    7.75407  -10.34594
  11.79828    0.91630   -6.19726    6.58317  -10.35548
  11.81545    0.84905   -6.06545    5.59232  -10.19771
  11.83262    0.78989   -5.94106    4.77085   -9.94446
  11.84979    0.73754   -5.82355    4.09572   -9.64378
  11.86695    0.69098   -5.71237    3.54167   -9.32551
  11.88412    0.64935   -5.60703    3.08572   -9.00732
  11.90129    0.61195   -5.50706    2.70851   -8.69897
  11.91846    0.57821   -5.41204    2.39443   -8.40553
  11.93562    0.54764   -5.32157    2.13105   -8.12918
  11.95279    0.51985   -5.23531    1.90860   -7.87045
  11.96996    0.49448   -5.15295    1.71938   -7.62898
  11.98713    0.47126   -5.07419    1.55733   -7.40395
  12.00429    0.44993   -4.99877    1.41764   -7.19424
  12.02146    0.43028   -4.92645    1.29647   -6.99867
  12.03863    0.41214   -4.85703    1.19075   -6.81611
  12.05579    0.39533   -4.79030    1.09801   -6.64542
  12.07296    0.37973   -4.72609    1.01623   -6.48559
  12.09013    0.36522   -4.66422    0.94377   -6.33565
  12.10730    0.35169   -4.60457    0.87927   -6.19475
  12.12446    0.33905   -4.54698    0.82162   -6.06210
  12.14163    0.32721   -4.49134    0.76988   -5.93697
  12.15880    0.31612   -4.43753    0.72327   -5.81875
  12.17597    0.30569   -4.38544    0.68112   -5.70685
  12.19313    0.29588   -4.33498    0.64289   -5.60076
  12.21030    0.28663   -4.28606    0.60811   -5.50000
  12.22747    0.27790   -4.23860    0.57636   -5.40419
  12.24464    0.26965   -4.19251    0.54729   -5.31290
  12.26180    0.26184   -4.14774    0.52062   -5.22584
  12.27897    0.25443   -4.10420    0.49608   -5.14266
  12.29614    0.24741   -4.06185    0.47345   -5.06310
  12.31331    0.24073   -4.02062    0.45252   -4.98689
  12.33047    0.23438   -3.98046    0.43313   -4.91382
  12.34764    0.22833   -3.94132    0.41513   -4.84367
  12.36481    0.22256   -3.90316    0.39839   -4.77625
  12.38198    0.21706   -3.86593    0.38278   -4.71137
  12.39914    0.21180   -3.82959    0.36821   -4.64888
  12.41631    0.20677   -3.79410    0.35458   -4.58865
  12.43348    0.20196   -3.75943    0.34182   -4.53051
  12.45064    0.19735   -3.72554    0.32983   -4.47437
  12.46781    0.19293   -3.69241    0.31857   -4.42010
  12.48498    0.18869   -3.65999    0.30797   -4.36758
  12.50215    0.18462   -3.62827    0.29798   -4.31674
  12.51931    0.18071   -3.59722    0.28855   -4.26747
  12.53648    0.17695   -3.56681    0.27964   -4.21969
  12.55365    0.17333   -3.53701    0.27121   -4.17332
  12.57082    0.16984   -3.50781    0.26322   -4.12829
  12.58798    0.16648   -3.47919    0.25565   -4.08455
  12.60515    0.16324   -3.45112    0.24845   -4.04200
  12.62232    0.16011   -3.42358    0.24162   -4.00062
  12.63949    0.15709   -3.39656    0.23511   -3.96033
  12.65665    0.15418   -3.37004    0.22891   -3.92110
  12.67382    0.15136   -3.34400    0.22301   -3.88286
  12.69099    0.14863   -3.31843    0.21737   -3.84557
  12.70816    0.14599   -3.29331    0.21198   -3.80921
  12.72532    0.14344   -3.26863    0.20683   -3.77371
  12.74249    0.14097   -3.24437    0.20191   -3.73905
  12.75966    0.13857   -3.22052    0.19719   -3.70520
  12.77682    0.13624   -3.19707    0.19267   -3.67210
  12.79399    0.13399   -3.17401    0.18833   -3.63975
  12.81116    0.13180   -3.15132    0.18417   -3.60811
  12.82833    0.12968   -3.12900    0.18017   -3.57716
  12.84549    0.12761   -3.10704    0.17633   -3.54685
  12.86266    0.12561   -3.08541    0.17264   -3.51718
  12.87983    0.12366   -3.06412    0.16908   -3.48811
  12.89700    0.12176   -3.04316    0.16565   -3.45964
  12.91416    0.11992   -3.02251    0.16235   -3.43171
  12.93133    0.11813   -3.00218    0.15917   -3.40435
  12.94850    0.11638   -2.98214    0.15610   -3.37750
  12.96567    0.11468   -2.96239    0.15313   -3.35116
  12.98283    0.11302   -2.94293    0.15027   -3.32531
  13.00000    0.11141   -2.92375    0.14750   -3.29994
# 
# 08/10/2016 at 20:54 YAMBO_PL @ marini-Galago-UltraPro [start]
# 08/10/2016 at 20:55                                   [end]
#  
# Timing   [Min/Max/Average]: 04s/04s/04s
#
# .-Input file : yambo.in
# | optics                       # [R OPT] Optics
# | bse                          # [R BSE] Bethe Salpeter Equation.
# | bsk                          # [R BSK] Bethe Salpeter Equation kernel
# | bss                          # [R BSS] Bethe Salpeter Equation solver
# | em1s                         # [R Xs] Static Inverse Dielectric Matrix
# | photolum                     # [R] Photo-Luminescence
# | DBsFRAGpm= "+ALL"            # [IO] Space-separated list of +DB to be FRAG and -DB NOT to be FRAG. DB=(DIP,X,W,HF,COLLS,K,BS,QINDX,
# | FFTGvecs=  3473        RL    # [FFT] Plane-waves
# | BS_nCPU_invert= 1            # [PARALLEL] CPUs for matrix inversion
# | BS_nCPU_diago= 1             # [PARALLEL] CPUs for matrix diagonalization
# | Chimod= "hartree"            # [X] IP/Hartree/ALDA/LRC/BSfxc
# | BSEmod= "retarded"           # [BSE] resonant/retarded/coupling
# | BSKmod= "SEX"                # [BSE] IP/Hartree/HF/ALDA/SEX/BSfxc
# | BSSmod= "di"                 # [BSS] (h)aydock/(d)iagonalization/(i)nversion/(t)ddft`
# | BSENGexx=  51          RL    # [BSK] Exchange components
# | BSENGBlk=  51          RL    # [BSK] Screened interaction block size
# | #WehCpl                      # [BSK] eh interaction included also in coupling
# | % PL_weights
# |  1.000000 | 1.000000 | 1.000000 |        # [PL] [cc] Weights of the carthesian components of the emitted radiation
# | %
# | KfnRTdb= "f @ 0 fs < 02_ypp_carriers/ndb.RT_carriers" # [EXTRT BSK BSS] Database
# | RfnRTdb= "f @ 0 fs < 02_ypp_carriers/ndb.RT_carriers" # [EXTRT R] Database
# | % BEnRange
# |   0.00000 | 13.00000 | eV    # [BSS] Energy range
# | %
# | % BDmRange
# |   0.10000 |  0.10000 | eV    # [BSS] Damping range
# | %
# | BEnSteps= 1192               # [BSS] Energy steps
# | % BLongDir
# | 0.5774E-5 |0.5774E-5 |0.5774E-5 |        # [BSS] [cc] Electric Field
# | %
# | % BSEBands
# |   5 | 10 |                   # [BSK] Bands range
# | %
# | BSSInvMode= "f"              # [BSS] Inversion solver modality `(f)ull/(p)erturbative`
# | BSEPSInvTrs=   0.0100        # [BSS EPS] Inversion treshold. Relative[o/o](>0)/Absolute(<0)
# | BSSInvPFratio= 1.000000      # [BSS] Inversion solver. Ratio between the number of frequencies solved pert/full
# | BSPLInvTrs= 1.000000         # [BSS PL] Inversion treshold
# | % BndsRnXs
# |    1 |  60 |                 # [Xs] Polarization function bands
# | %
# | NGsBlkXs=  51          RL    # [Xs] Response block size
# | % DmRngeXs
# | 0.1000E-2 |0.1000E-2 | eV    # [Xs] Damping range
# | %
# | % LongDrXs
# | 0.1000E-4 | 0.000    | 0.000    |        # [Xs] [cc] Electric Field
# | %
