#  __      __   ______   __       __  _______    ______               
# |  \    /  \ /      \ |  \     /  \|       \  /      \              
#  \$$\  /  $$|  $$$$$$\| $$\   /  $$| $$$$$$$\|  $$$$$$\             
#   \$$\/  $$ | $$__| $$| $$$\ /  $$$| $$__/ $$| $$  | $$             
#    \$$  $$  | $$    $$| $$$$\  $$$$| $$    $$| $$  | $$             
#     \$$$$   | $$$$$$$$| $$\$$ $$ $$| $$$$$$$\| $$  | $$             
#     | $$    | $$  | $$| $$ \$$$| $$| $$__/ $$| $$__/ $$             
#     | $$    | $$  | $$| $$  \$ | $$| $$    $$ \$$    $$             
#      \$$     \$$   \$$ \$$      \$$ \$$$$$$$   \$$$$$$              
#                                                                     
# Version 5.2.0 Revision 23455 Hash (prev commit) 4b9e8e27e8          
#                 Branch is phys-magnons                              
#         MPI+OpenMP+SLK+SLEPC+HDF5_MPI_IO Build                      
#                http://www.yambo-code.org                            
#
# Magnons (S+-) @ Q(1):   1.00000000      0.00000000      0.00000000    [q->0 direction]
#
# [GEN] GF Energies                               : Slater exchange(X)+Perdew & Wang(C)
# [GEN] Green`s Function                          : Resonant
#
# [GEN] Gauge                                     : Length
# [GEN] [r,Vnl] included                          : yes
#
# DIP band range                                  :   1   4
# DIP band range limits                           :   4   1
# DIP e/h energy range                            :  -1.00000000     -1.00000000    [eV]
# RL vectors in the sum                           :   4935
# [r,Vnl] included                                : yes
# Bands ordered                                   : no
# Direct v evaluation                             : no
# Approach used                                   : G-space v
# Dipoles computed                                : R V P Spin
# Wavefunctions                                   : Slater exchange(X)+Perdew & Wang(C)
#
#
# [K] Identifier                                  :   9673
# [K] Dimension                                   :  288
# [K] Bands                                       :   1   4
# [K] Exchange res                                : no
# [K] Correlation res                             : no
# [K] Kernel`s coupling                           : no
# [K] Exchange cpl                                : no
# [K] Correlation cpl                             : no
# [K] W interaction is bare                       : no
# [K] ALDA kernel in R-space                      : yes
# [K] E/h energy range                            :  -1.00000000     -1.00000000    [eV]
# [K] Coupling range                              :   100.000000      100.000000    [o/o]
# [X] Response Kind                               : BAR
#
#
#    E[1] [eV]          Im(Spm)            Re(Spm)            Im(Spm_o)          Re(Spm_o)
#
       -1.000000           0.163311E-3        0.018133           0.312515E-4        0.009526
       -0.995000           0.164214E-3        0.018174           0.313032E-4        0.009534
       -0.990000           0.165125E-3        0.018215           0.313550E-4        0.009542
       -0.985000           0.166044E-3        0.018257           0.314070E-4        0.009550
       -0.980000           0.166972E-3        0.018298           0.314591E-4        0.009558
       -0.975000           0.167908E-3        0.018340           0.315113E-4        0.009566
       -0.970000           0.168852E-3        0.018382           0.315637E-4        0.009573
       -0.965000           0.169805E-3        0.018425           0.316162E-4        0.009581
       -0.960000           0.170766E-3        0.018467           0.316688E-4        0.009589
       -0.955000           0.171737E-3        0.018510           0.317215E-4        0.009597
       -0.950000           0.172716E-3        0.018553           0.317745E-4        0.009605
       -0.945000           0.173704E-3        0.018596           0.318275E-4        0.009613
       -0.940000           0.174701E-3        0.018640           0.318806E-4        0.009621
       -0.935000           0.175708E-3        0.018684           0.319339E-4        0.009629
       -0.930000           0.176724E-3        0.018728           0.319873E-4        0.009637
       -0.925000           0.177749E-3        0.018772           0.320409E-4        0.009645
       -0.920000           0.178785E-3        0.018816           0.320945E-4        0.009653
       -0.915000           0.179829E-3        0.018861           0.321483E-4        0.009661
       -0.910000           0.180884E-3        0.018906           0.322023E-4        0.009669
       -0.905000           0.181948E-3        0.018952           0.322564E-4        0.009677
       -0.900000           0.183023E-3        0.018997           0.323106E-4        0.009685
       -0.895000           0.184108E-3        0.019043           0.323650E-4        0.009693
       -0.890000           0.185203E-3        0.019089           0.324195E-4        0.009701
       -0.885000           0.186309E-3        0.019136           0.324742E-4        0.009709
       -0.880000           0.187425E-3        0.019182           0.325290E-4        0.009718
       -0.875000           0.188553E-3        0.019229           0.325839E-4        0.009726
       -0.870000           0.189691E-3        0.019277           0.326389E-4        0.009734
       -0.865000           0.190840E-3        0.019324           0.326942E-4        0.009742
       -0.860000           0.192000E-3        0.019372           0.327495E-4        0.009750
       -0.855000           0.193172E-3        0.019420           0.328050E-4        0.009758
       -0.850000           0.194355E-3        0.019469           0.328606E-4        0.009767
       -0.845000           0.195550E-3        0.019517           0.329164E-4        0.009775
       -0.840000           0.196757E-3        0.019566           0.329724E-4        0.009783
       -0.835000           0.197976E-3        0.019616           0.330284E-4        0.009791
       -0.830000           0.199207E-3        0.019665           0.330846E-4        0.009800
       -0.825000           0.200450E-3        0.019715           0.331410E-4        0.009808
       -0.820000           0.201706E-3        0.019766           0.331975E-4        0.009816
       -0.815000           0.202974E-3        0.019816           0.332541E-4        0.009824
       -0.810000           0.204255E-3        0.019867           0.333109E-4        0.009833
       -0.805000           0.205549E-3        0.019918           0.333678E-4        0.009841
       -0.800000           0.206857E-3        0.019970           0.334249E-4        0.009850
       -0.795000           0.208178E-3        0.020022           0.334822E-4        0.009858
       -0.790000           0.209512E-3        0.020074           0.335395E-4        0.009866
       -0.785000           0.210860E-3        0.020126           0.335970E-4        0.009875
       -0.780000           0.212222E-3        0.020179           0.336548E-4        0.009883
       -0.775000           0.213598E-3        0.020232           0.337125E-4        0.009891
       -0.770000           0.214989E-3        0.020286           0.337705E-4        0.009900
       -0.765000           0.216394E-3        0.020340           0.338286E-4        0.009908
       -0.760000           0.217814E-3        0.020394           0.338869E-4        0.009917
       -0.755000           0.219248E-3        0.020449           0.339454E-4        0.009925
       -0.750000           0.220698E-3        0.020504           0.340039E-4        0.009934
       -0.745000           0.222164E-3        0.020559           0.340627E-4        0.009942
       -0.740000           0.223645E-3        0.020615           0.341216E-4        0.009951
       -0.735000           0.225142E-3        0.020671           0.341806E-4        0.009959
       -0.730000           0.226655E-3        0.020727           0.342398E-4        0.009968
       -0.725000           0.228185E-3        0.020784           0.342992E-4        0.009976
       -0.720000           0.229731E-3        0.020841           0.343587E-4        0.009985
       -0.715000           0.231294E-3        0.020899           0.344183E-4        0.009994
       -0.710000           0.232874E-3        0.020957           0.344782E-4        0.010002
       -0.705000           0.234471E-3        0.021015           0.345382E-4        0.010011
       -0.700000           0.236086E-3        0.021074           0.345983E-4        0.010020
       -0.695000           0.237719E-3        0.021133           0.346586E-4        0.010028
       -0.690000           0.239371E-3        0.021193           0.347191E-4        0.010037
       -0.685000           0.241040E-3        0.021253           0.347796E-4        0.010046
       -0.680000           0.242729E-3        0.021313           0.348404E-4        0.010054
       -0.675000           0.244437E-3        0.021374           0.349014E-4        0.010063
       -0.670000           0.246164E-3        0.021436           0.349624E-4        0.010072
       -0.665000           0.247911E-3        0.021497           0.350237E-4        0.010080
       -0.660000           0.249678E-3        0.021559           0.350851E-4        0.010089
       -0.655000           0.251466E-3        0.021622           0.351467E-4        0.010098
       -0.650000           0.253274E-3        0.021685           0.352084E-4        0.010107
       -0.645000           0.255104E-3        0.021749           0.352703E-4        0.010116
       -0.640000           0.256955E-3        0.021813           0.353324E-4        0.010124
       -0.635000           0.258828E-3        0.021877           0.353946E-4        0.010133
       -0.630000           0.260724E-3        0.021942           0.354570E-4        0.010142
       -0.625000           0.262643E-3        0.022007           0.355196E-4        0.010151
       -0.620000           0.264585E-3        0.022073           0.355824E-4        0.010160
       -0.615000           0.266551E-3        0.022140           0.356452E-4        0.010169
       -0.610000           0.268542E-3        0.022206           0.357083E-4        0.010178
       -0.605000           0.270558E-3        0.022274           0.357716E-4        0.010187
       -0.600000           0.272600E-3        0.022342           0.358349E-4        0.010196
       -0.595000           0.274668E-3        0.022410           0.358985E-4        0.010205
       -0.590000           0.276764E-3        0.022479           0.359623E-4        0.010214
       -0.585000           0.278889E-3        0.022548           0.360262E-4        0.010223
       -0.580000           0.281044E-3        0.022618           0.360903E-4        0.010232
       -0.575000           0.283230E-3        0.022689           0.361545E-4        0.010241
       -0.570000           0.285449E-3        0.022760           0.362190E-4        0.010250
       -0.565000           0.287703E-3        0.022831           0.362836E-4        0.010259
       -0.560000           0.289995E-3        0.022904           0.363484E-4        0.010268
       -0.555000           0.292329E-3        0.022976           0.364134E-4        0.010277
       -0.550000           0.294709E-3        0.023050           0.364785E-4        0.010286
       -0.545000           0.297142E-3        0.023124           0.365438E-4        0.010295
       -0.540000           0.299635E-3        0.023198           0.366094E-4        0.010304
       -0.535000           0.302203E-3        0.023273           0.366749E-4        0.010313
       -0.530000           0.304860E-3        0.023349           0.367408E-4        0.010323
       -0.525000           0.307632E-3        0.023425           0.368068E-4        0.010332
       -0.520000           0.310550E-3        0.023502           0.368731E-4        0.010341
       -0.515000           0.313654E-3        0.023580           0.369394E-4        0.010350
       -0.510000           0.316979E-3        0.023658           0.370059E-4        0.010359
       -0.505000           0.320514E-3        0.023736           0.370728E-4        0.010369
       -0.500000           0.324110E-3        0.023814           0.371396E-4        0.010378
       -0.495000           0.327419E-3        0.023893           0.372067E-4        0.010387
       -0.490000           0.330071E-3        0.023972           0.372741E-4        0.010397
       -0.485000           0.332071E-3        0.024052           0.373416E-4        0.010406
       -0.480000           0.333792E-3        0.024133           0.374092E-4        0.010415
       -0.475000           0.335583E-3        0.024215           0.374771E-4        0.010425
       -0.470000           0.337589E-3        0.024299           0.375451E-4        0.010434
       -0.465000           0.339820E-3        0.024383           0.376133E-4        0.010443
       -0.460000           0.342244E-3        0.024468           0.376817E-4        0.010453
       -0.455000           0.344822E-3        0.024553           0.377504E-4        0.010462
       -0.450000           0.347522E-3        0.024640           0.378191E-4        0.010472
       -0.445000           0.350323E-3        0.024727           0.378881E-4        0.010481
       -0.440000           0.353208E-3        0.024815           0.379573E-4        0.010491
       -0.435000           0.356168E-3        0.024903           0.380266E-4        0.010500
       -0.430000           0.359194E-3        0.024992           0.380962E-4        0.010510
       -0.425000           0.362281E-3        0.025083           0.381659E-4        0.010519
       -0.420000           0.365427E-3        0.025173           0.382359E-4        0.010529
       -0.415000           0.368629E-3        0.025265           0.383060E-4        0.010538
       -0.410000           0.371885E-3        0.025358           0.383763E-4        0.010548
       -0.405000           0.375194E-3        0.025451           0.384468E-4        0.010557
       -0.400000           0.378557E-3        0.025545           0.385175E-4        0.010567
       -0.395000           0.381973E-3        0.025640           0.385884E-4        0.010577
       -0.390000           0.385442E-3        0.025736           0.386596E-4        0.010586
       -0.385000           0.388964E-3        0.025833           0.387308E-4        0.010596
       -0.380000           0.392541E-3        0.025930           0.388023E-4        0.010606
       -0.375000           0.396172E-3        0.026029           0.388741E-4        0.010615
       -0.370000           0.399859E-3        0.026128           0.389460E-4        0.010625
       -0.365000           0.403601E-3        0.026229           0.390180E-4        0.010635
       -0.360000           0.407400E-3        0.026330           0.390904E-4        0.010645
       -0.355000           0.411258E-3        0.026432           0.391629E-4        0.010654
       -0.350000           0.415174E-3        0.026535           0.392356E-4        0.010664
       -0.345000           0.419150E-3        0.026640           0.393085E-4        0.010674
       -0.340000           0.423187E-3        0.026745           0.393816E-4        0.010684
       -0.335000           0.427287E-3        0.026851           0.394549E-4        0.010694
       -0.330000           0.431449E-3        0.026958           0.395285E-4        0.010704
       -0.325000           0.435676E-3        0.027067           0.396023E-4        0.010714
       -0.320000           0.439969E-3        0.027176           0.396762E-4        0.010723
       -0.315000           0.444330E-3        0.027286           0.397504E-4        0.010733
       -0.310000           0.448758E-3        0.027398           0.398248E-4        0.010743
       -0.305000           0.453257E-3        0.027511           0.398993E-4        0.010753
       -0.300000           0.457827E-3        0.027624           0.399741E-4        0.010763
       -0.295000           0.462469E-3        0.027739           0.400491E-4        0.010773
       -0.290000           0.467186E-3        0.027855           0.401243E-4        0.010783
       -0.285000           0.471979E-3        0.027973           0.401998E-4        0.010793
       -0.280000           0.476849E-3        0.028091           0.402754E-4        0.010803
       -0.275000           0.481799E-3        0.028211           0.403513E-4        0.010814
       -0.270000           0.486830E-3        0.028332           0.404274E-4        0.010824
       -0.265000           0.491943E-3        0.028454           0.405037E-4        0.010834
       -0.260000           0.497141E-3        0.028578           0.405802E-4        0.010844
       -0.255000           0.502424E-3        0.028702           0.406570E-4        0.010854
       -0.250000           0.507797E-3        0.028829           0.407339E-4        0.010864
       -0.245000           0.513259E-3        0.028956           0.408110E-4        0.010874
       -0.240000           0.518814E-3        0.029085           0.408884E-4        0.010885
       -0.235000           0.524463E-3        0.029215           0.409661E-4        0.010895
       -0.230000           0.530210E-3        0.029347           0.410439E-4        0.010905
       -0.225000           0.536054E-3        0.029480           0.411220E-4        0.010915
       -0.220000           0.542000E-3        0.029615           0.412002E-4        0.010926
       -0.215000           0.548049E-3        0.029751           0.412788E-4        0.010936
       -0.210000           0.554204E-3        0.029888           0.413575E-4        0.010946
       -0.205000           0.560467E-3        0.030028           0.414364E-4        0.010957
       -0.200000           0.566840E-3        0.030168           0.415156E-4        0.010967
       -0.195000           0.573328E-3        0.030311           0.415951E-4        0.010977
       -0.190000           0.579932E-3        0.030455           0.416747E-4        0.010988
       -0.185000           0.586654E-3        0.030600           0.417546E-4        0.010998
       -0.180000           0.593499E-3        0.030748           0.418347E-4        0.011009
       -0.175000           0.600468E-3        0.030897           0.419151E-4        0.011019
       -0.170000           0.607566E-3        0.031048           0.419957E-4        0.011030
       -0.165000           0.614794E-3        0.031200           0.420765E-4        0.011040
       -0.160000           0.622157E-3        0.031355           0.421575E-4        0.011051
       -0.155000           0.629657E-3        0.031511           0.422388E-4        0.011061
       -0.150000           0.637299E-3        0.031669           0.423204E-4        0.011072
       -0.145000           0.645086E-3        0.031829           0.424021E-4        0.011082
       -0.140000           0.653021E-3        0.031991           0.424841E-4        0.011093
       -0.135000           0.661108E-3        0.032155           0.425664E-4        0.011104
       -0.130000           0.669352E-3        0.032322           0.426488E-4        0.011114
       -0.125000           0.677756E-3        0.032490           0.427316E-4        0.011125
       -0.120000           0.686324E-3        0.032660           0.428146E-4        0.011136
       -0.115000           0.695062E-3        0.032832           0.428978E-4        0.011146
       -0.110000           0.703972E-3        0.033007           0.429812E-4        0.011157
       -0.105000           0.713060E-3        0.033184           0.430649E-4        0.011168
       -0.100000           0.722332E-3        0.033363           0.431489E-4        0.011179
       -0.095000           0.731791E-3        0.033545           0.432331E-4        0.011189
       -0.090000           0.741443E-3        0.033728           0.433175E-4        0.011200
       -0.085000           0.751293E-3        0.033915           0.434022E-4        0.011211
       -0.080000           0.761346E-3        0.034104           0.434872E-4        0.011222
       -0.075000           0.771610E-3        0.034295           0.435725E-4        0.011233
       -0.070000           0.782088E-3        0.034489           0.436579E-4        0.011244
       -0.065000           0.792787E-3        0.034685           0.437436E-4        0.011255
       -0.060000           0.803714E-3        0.034885           0.438296E-4        0.011266
       -0.055000           0.814875E-3        0.035087           0.439158E-4        0.011277
       -0.050000           0.826277E-3        0.035291           0.440023E-4        0.011288
       -0.045000           0.837926E-3        0.035499           0.440890E-4        0.011299
       -0.040000           0.849830E-3        0.035710           0.441761E-4        0.011310
       -0.035000           0.861998E-3        0.035923           0.442632E-4        0.011321
       -0.030000           0.874435E-3        0.036140           0.443508E-4        0.011332
       -0.025000           0.887152E-3        0.036360           0.444385E-4        0.011343
       -0.020000           0.900155E-3        0.036583           0.445267E-4        0.011354
       -0.015000           0.913453E-3        0.036809           0.446149E-4        0.011365
       -0.010000           0.927057E-3        0.037039           0.447034E-4        0.011376
       -0.005000           0.940974E-3        0.037272           0.447923E-4        0.011387
       -0.101370E-6        0.955215E-3        0.037508           0.448814E-4        0.011399
        0.005000           0.969791E-3        0.037749           0.449708E-4        0.011410
        0.010000           0.984711E-3        0.037993           0.450604E-4        0.011421
        0.015000           0.999986E-3        0.038240           0.451504E-4        0.011432
        0.020000           0.001016           0.038492           0.452405E-4        0.011444
        0.025000           0.001032           0.038747           0.453309E-4        0.011455
        0.030000           0.001048           0.039006           0.454217E-4        0.011466
        0.035000           0.001065           0.039270           0.455127E-4        0.011478
        0.040000           0.001082           0.039538           0.456040E-4        0.011489
        0.045000           0.001100           0.039810           0.456956E-4        0.011500
        0.050000           0.001118           0.040086           0.457874E-4        0.011512
        0.055000           0.001136           0.040368           0.458796E-4        0.011523
        0.060000           0.001156           0.040653           0.459719E-4        0.011535
        0.065000           0.001175           0.040944           0.460646E-4        0.011546
        0.070000           0.001195           0.041240           0.461576E-4        0.011558
        0.075000           0.001216           0.041540           0.462508E-4        0.011569
        0.080000           0.001237           0.041846           0.463444E-4        0.011581
        0.085000           0.001259           0.042157           0.464382E-4        0.011593
        0.090000           0.001281           0.042474           0.465323E-4        0.011604
        0.095000           0.001304           0.042796           0.466267E-4        0.011616
        0.100000           0.001327           0.043124           0.467214E-4        0.011628
        0.105000           0.001351           0.043458           0.468164E-4        0.011639
        0.110000           0.001376           0.043798           0.469117E-4        0.011651
        0.115000           0.001402           0.044144           0.470073E-4        0.011663
        0.120000           0.001428           0.044497           0.471031E-4        0.011674
        0.125000           0.001455           0.044856           0.471993E-4        0.011686
        0.130000           0.001483           0.045223           0.472958E-4        0.011698
        0.135000           0.001512           0.045596           0.473925E-4        0.011710
        0.140000           0.001541           0.045976           0.474896E-4        0.011722
        0.145000           0.001572           0.046364           0.475870E-4        0.011734
        0.150000           0.001603           0.046760           0.476846E-4        0.011746
        0.155000           0.001635           0.047163           0.477826E-4        0.011758
        0.160000           0.001669           0.047575           0.478808E-4        0.011769
        0.165000           0.001703           0.047995           0.479795E-4        0.011781
        0.170000           0.001738           0.048423           0.480783E-4        0.011793
        0.175000           0.001775           0.048861           0.481776E-4        0.011805
        0.180000           0.001813           0.049308           0.482770E-4        0.011818
        0.185000           0.001852           0.049764           0.483769E-4        0.011830
        0.190000           0.001892           0.050230           0.484770E-4        0.011842
        0.195000           0.001934           0.050707           0.485774E-4        0.011854
        0.200000           0.001977           0.051194           0.486783E-4        0.011866
        0.205000           0.002021           0.051691           0.487793E-4        0.011878
        0.210000           0.002067           0.052200           0.488806E-4        0.011890
        0.215000           0.002115           0.052721           0.489824E-4        0.011903
        0.220000           0.002164           0.053253           0.490844E-4        0.011915
        0.225000           0.002216           0.053798           0.491868E-4        0.011927
        0.230000           0.002268           0.054356           0.492895E-4        0.011939
        0.235000           0.002323           0.054928           0.493925E-4        0.011952
        0.240000           0.002380           0.055513           0.494959E-4        0.011964
        0.245000           0.002440           0.056112           0.495995E-4        0.011977
        0.250000           0.002501           0.056727           0.497035E-4        0.011989
        0.255000           0.002565           0.057357           0.498079E-4        0.012001
        0.260000           0.002631           0.058003           0.499124E-4        0.012014
        0.265000           0.002700           0.058665           0.500176E-4        0.012026
        0.270000           0.002772           0.059345           0.501228E-4        0.012039
        0.275000           0.002846           0.060043           0.502285E-4        0.012051
        0.280000           0.002924           0.060760           0.503346E-4        0.012064
        0.285000           0.003005           0.061497           0.504409E-4        0.012077
        0.290000           0.003089           0.062254           0.505477E-4        0.012089
        0.295000           0.003177           0.063032           0.506547E-4        0.012102
        0.300000           0.003269           0.063832           0.507621E-4        0.012115
        0.305000           0.003365           0.064656           0.508698E-4        0.012127
        0.310000           0.003465           0.065503           0.509778E-4        0.012140
        0.315000           0.003570           0.066376           0.510863E-4        0.012153
        0.320000           0.003679           0.067276           0.511951E-4        0.012166
        0.325000           0.003794           0.068203           0.513042E-4        0.012178
        0.330000           0.003915           0.069159           0.514137E-4        0.012191
        0.335000           0.004041           0.070145           0.515235E-4        0.012204
        0.340000           0.004173           0.071163           0.516338E-4        0.012217
        0.345000           0.004312           0.072214           0.517442E-4        0.012230
        0.350000           0.004459           0.073300           0.518552E-4        0.012243
        0.355000           0.004612           0.074424           0.519665E-4        0.012256
        0.360000           0.004774           0.075585           0.520781E-4        0.012269
        0.365000           0.004945           0.076788           0.521902E-4        0.012282
        0.370000           0.005125           0.078034           0.523025E-4        0.012295
        0.375000           0.005315           0.079324           0.524152E-4        0.012308
        0.380000           0.005516           0.080663           0.525284E-4        0.012321
        0.385000           0.005729           0.082052           0.526419E-4        0.012334
        0.390000           0.005954           0.083495           0.527557E-4        0.012347
        0.395000           0.006193           0.084994           0.528699E-4        0.012361
        0.400000           0.006447           0.086553           0.529846E-4        0.012374
        0.405000           0.006716           0.088176           0.530996E-4        0.012387
        0.410000           0.007003           0.089866           0.532150E-4        0.012400
        0.415000           0.007308           0.091628           0.533308E-4        0.012414
        0.420000           0.007635           0.093466           0.534470E-4        0.012427
        0.425000           0.007983           0.095387           0.535636E-4        0.012440
        0.430000           0.008356           0.097394           0.536804E-4        0.012454
        0.435000           0.008756           0.099494           0.537977E-4        0.012467
        0.440000           0.009185           0.101695           0.539155E-4        0.012481
        0.445000           0.009646           0.104002           0.540336E-4        0.012494
        0.450000           0.010144           0.106424           0.541522E-4        0.012508
        0.455000           0.010680           0.108970           0.542711E-4        0.012521
        0.460000           0.011261           0.111648           0.543903E-4        0.012535
        0.465000           0.011889           0.114471           0.545101E-4        0.012548
        0.470000           0.012572           0.117449           0.546302E-4        0.012562
        0.475000           0.013315           0.120597           0.547507E-4        0.012576
        0.480000           0.014126           0.123928           0.548716E-4        0.012590
        0.485000           0.015013           0.127458           0.549930E-4        0.012603
        0.490000           0.015986           0.131207           0.551148E-4        0.012617
        0.495000           0.017057           0.135193           0.552369E-4        0.012631
        0.500000           0.018239           0.139441           0.553596E-4        0.012645
        0.505000           0.019547           0.143976           0.554825E-4        0.012658
        0.510000           0.021000           0.148828           0.556061E-4        0.012672
        0.515000           0.022620           0.154030           0.557300E-4        0.012686
        0.520000           0.024434           0.159620           0.558542E-4        0.012700
        0.525000           0.026474           0.165641           0.559790E-4        0.012714
        0.530000           0.028777           0.172145           0.561042E-4        0.012728
        0.535000           0.031392           0.179189           0.562298E-4        0.012742
        0.540000           0.034375           0.186840           0.563557E-4        0.012756
        0.545000           0.037800           0.195175           0.564823E-4        0.012770
        0.550000           0.041754           0.204285           0.566093E-4        0.012785
        0.555000           0.046352           0.214275           0.567367E-4        0.012799
        0.560000           0.051739           0.225268           0.568645E-4        0.012813
        0.565000           0.058101           0.237408           0.569928E-4        0.012827
        0.570000           0.065682           0.250862           0.571217E-4        0.012841
        0.575000           0.074803           0.265823           0.572508E-4        0.012856
        0.580000           0.085895           0.282510           0.573806E-4        0.012870
        0.585000           0.099545           0.301164           0.575107E-4        0.012884
        0.590000           0.116559           0.322036           0.576414E-4        0.012899
        0.595000           0.138060           0.345344           0.577726E-4        0.012913
        0.600000           0.165637           0.371200           0.579043E-4        0.012928
        0.605000           0.201549           0.399422           0.580364E-4        0.012942
        0.610000           0.248998           0.429166           0.581690E-4        0.012957
        0.615000           0.312409           0.458147           0.583022E-4        0.012971
        0.620000           0.397446           0.481122           0.584358E-4        0.012986
        0.625000           0.509804           0.487217           0.585700E-4        0.013000
        0.630000           0.650465           0.456617           0.587048E-4        0.013015
        0.635000           0.804151           0.361396           0.588400E-4        0.013030
        0.640000           0.925835           0.183299           0.589758E-4        0.013045
        0.645000           0.955067          -0.049940           0.591121E-4        0.013059
        0.650000           0.873846          -0.263376           0.592492E-4        0.013074
        0.655000           0.728829          -0.400374           0.593866E-4        0.013089
        0.660000           0.577992          -0.460139           0.595249E-4        0.013104
        0.665000           0.450745          -0.469530           0.596635E-4        0.013119
        0.670000           0.352446          -0.453265           0.598030E-4        0.013134
        0.675000           0.278832          -0.426399           0.599430E-4        0.013149
        0.680000           0.223926          -0.396617           0.600837E-4        0.013164
        0.685000           0.182634          -0.367451           0.602252E-4        0.013179
        0.690000           0.151165          -0.340343           0.603673E-4        0.013194
        0.695000           0.126817          -0.315744           0.605104E-4        0.013209
        0.700000           0.107694          -0.293660           0.606542E-4        0.013224
        0.705000           0.092457          -0.273911           0.607989E-4        0.013239
        0.710000           0.080153          -0.256256           0.609444E-4        0.013254
        0.715000           0.070094          -0.240448           0.610912E-4        0.013270
        0.720000           0.061779          -0.226255           0.612391E-4        0.013285
        0.725000           0.054834          -0.213470           0.613881E-4        0.013300
        0.730000           0.048980          -0.201913           0.615385E-4        0.013316
        0.735000           0.044002          -0.191430           0.616905E-4        0.013331
        0.740000           0.039737          -0.181887           0.618442E-4        0.013346
        0.745000           0.036057          -0.173170           0.619999E-4        0.013362
        0.750000           0.032861          -0.165182           0.621581E-4        0.013377
        0.755000           0.030067          -0.157837           0.623190E-4        0.013393
        0.760000           0.027613          -0.151066           0.624832E-4        0.013409
        0.765000           0.025445          -0.144804           0.626516E-4        0.013424
        0.770000           0.023522          -0.138999           0.628250E-4        0.013440
        0.775000           0.021808          -0.133604           0.630051E-4        0.013456
        0.780000           0.020274          -0.128577           0.631933E-4        0.013471
        0.785000           0.018895          -0.123883           0.633925E-4        0.013487
        0.790000           0.017653          -0.119491           0.636063E-4        0.013503
        0.795000           0.016530          -0.115373           0.638399E-4        0.013519
        0.800000           0.015511          -0.111503           0.641006E-4        0.013535
        0.805000           0.014584          -0.107862           0.643989E-4        0.013551
        0.810000           0.013739          -0.104430           0.647477E-4        0.013567
        0.815000           0.012967          -0.101189           0.651610E-4        0.013583
        0.820000           0.012260          -0.098126           0.656435E-4        0.013599
        0.825000           0.011611          -0.095228           0.661638E-4        0.013615
        0.830000           0.011012          -0.092482           0.666225E-4        0.013630
        0.835000           0.010456          -0.089878           0.668735E-4        0.013646
        0.840000           0.009937          -0.087401           0.668582E-4        0.013661
        0.845000           0.009452          -0.085041           0.666762E-4        0.013677
        0.850000           0.009001          -0.082788           0.664700E-4        0.013693
        0.855000           0.008582          -0.080637           0.663167E-4        0.013710
        0.860000           0.008192          -0.078580           0.662331E-4        0.013726
        0.865000           0.007828          -0.076614           0.662105E-4        0.013742
        0.870000           0.007489          -0.074731           0.662345E-4        0.013759
        0.875000           0.007171          -0.072927           0.662924E-4        0.013775
        0.880000           0.006874          -0.071198           0.663752E-4        0.013792
        0.885000           0.006595          -0.069538           0.664760E-4        0.013809
        0.890000           0.006333          -0.067944           0.665903E-4        0.013825
        0.895000           0.006087          -0.066412           0.667150E-4        0.013842
        0.900000           0.005854          -0.064938           0.668471E-4        0.013859
        0.905000           0.005635          -0.063519           0.669854E-4        0.013875
        0.910000           0.005428          -0.062152           0.671287E-4        0.013892
        0.915000           0.005233          -0.060835           0.672758E-4        0.013909
        0.920000           0.005048          -0.059563           0.674262E-4        0.013926
        0.925000           0.004872          -0.058336           0.675795E-4        0.013943
        0.930000           0.004706          -0.057151           0.677350E-4        0.013959
        0.935000           0.004548          -0.056005           0.678927E-4        0.013976
        0.940000           0.004398          -0.054897           0.680520E-4        0.013993
        0.945000           0.004256          -0.053825           0.682130E-4        0.014010
        0.950000           0.004120          -0.052788           0.683754E-4        0.014027
        0.955000           0.003991          -0.051782           0.685392E-4        0.014045
        0.960000           0.003868          -0.050808           0.687042E-4        0.014062
        0.965000           0.003750          -0.049863           0.688703E-4        0.014079
        0.970000           0.003638          -0.048947           0.690376E-4        0.014096
        0.975000           0.003531          -0.048057           0.692058E-4        0.014113
        0.980000           0.003428          -0.047194           0.693752E-4        0.014131
        0.985000           0.003331          -0.046355           0.695452E-4        0.014148
        0.990000           0.003237          -0.045539           0.697163E-4        0.014166
        0.995000           0.003147          -0.044747           0.698883E-4        0.014183
        1.000000           0.003061          -0.043976           0.700611E-4        0.014200
        1.005000           0.002979          -0.043225           0.702348E-4        0.014218
        1.010000           0.002900          -0.042495           0.704092E-4        0.014236
        1.015000           0.002824          -0.041784           0.705846E-4        0.014253
        1.020000           0.002751          -0.041091           0.707607E-4        0.014271
        1.025000           0.002681          -0.040416           0.709375E-4        0.014289
        1.030000           0.002613          -0.039758           0.711151E-4        0.014306
        1.035000           0.002548          -0.039116           0.712937E-4        0.014324
        1.040000           0.002486          -0.038490           0.714728E-4        0.014342
        1.045000           0.002426          -0.037879           0.716529E-4        0.014360
        1.050000           0.002368          -0.037283           0.718336E-4        0.014378
        1.055000           0.002312          -0.036700           0.720152E-4        0.014396
        1.060000           0.002258          -0.036132           0.721974E-4        0.014414
        1.065000           0.002206          -0.035576           0.723804E-4        0.014432
        1.070000           0.002156          -0.035033           0.725642E-4        0.014450
        1.075000           0.002108          -0.034502           0.727489E-4        0.014468
        1.080000           0.002061          -0.033983           0.729343E-4        0.014486
        1.085000           0.002016          -0.033476           0.731203E-4        0.014505
        1.090000           0.001973          -0.032979           0.733073E-4        0.014523
        1.095000           0.001931          -0.032493           0.734949E-4        0.014541
        1.100000           0.001890          -0.032018           0.736833E-4        0.014560
        1.105000           0.001850          -0.031552           0.738724E-4        0.014578
        1.110000           0.001812          -0.031096           0.740624E-4        0.014597
        1.115000           0.001775          -0.030649           0.742530E-4        0.014615
        1.120000           0.001739          -0.030211           0.744445E-4        0.014634
        1.125000           0.001705          -0.029782           0.746367E-4        0.014652
        1.130000           0.001671          -0.029361           0.748298E-4        0.014671
        1.135000           0.001638          -0.028949           0.750236E-4        0.014690
        1.140000           0.001607          -0.028545           0.752182E-4        0.014709
        1.145000           0.001576          -0.028148           0.754136E-4        0.014727
        1.150000           0.001546          -0.027759           0.756098E-4        0.014746
        1.155000           0.001517          -0.027377           0.758068E-4        0.014765
        1.160000           0.001489          -0.027002           0.760046E-4        0.014784
        1.165000           0.001462          -0.026635           0.762031E-4        0.014803
        1.170000           0.001436          -0.026273           0.764026E-4        0.014822
        1.175000           0.001410          -0.025919           0.766028E-4        0.014841
        1.180000           0.001385          -0.025570           0.768037E-4        0.014861
        1.185000           0.001361          -0.025228           0.770056E-4        0.014880
        1.190000           0.001337          -0.024892           0.772082E-4        0.014899
        1.195000           0.001314          -0.024561           0.774116E-4        0.014918
        1.200000           0.001292          -0.024236           0.776161E-4        0.014938
        1.205000           0.001270          -0.023917           0.778213E-4        0.014957
        1.210000           0.001249          -0.023603           0.780271E-4        0.014977
        1.215000           0.001228          -0.023294           0.782341E-4        0.014996
        1.220000           0.001208          -0.022990           0.784415E-4        0.015016
        1.225000           0.001189          -0.022691           0.786502E-4        0.015035
        1.230000           0.001170          -0.022397           0.788596E-4        0.015055
        1.235000           0.001151          -0.022108           0.790698E-4        0.015075
        1.240000           0.001133          -0.021823           0.792810E-4        0.015095
        1.245000           0.001115          -0.021543           0.794929E-4        0.015114
        1.250000           0.001098          -0.021266           0.797057E-4        0.015134
        1.255000           0.001082          -0.020995           0.799193E-4        0.015154
        1.260000           0.001066          -0.020727           0.801341E-4        0.015174
        1.265000           0.001050          -0.020463           0.803495E-4        0.015194
        1.270000           0.001035          -0.020203           0.805658E-4        0.015215
        1.275000           0.001020          -0.019948           0.807832E-4        0.015235
        1.280000           0.001006          -0.019696           0.810015E-4        0.015255
        1.285000           0.992403E-3       -0.019447           0.812205E-4        0.015275
        1.290000           0.979279E-3       -0.019203           0.814405E-4        0.015296
        1.295000           0.966238E-3       -0.018964           0.816614E-4        0.015316
        1.300000           0.952854E-3       -0.018727           0.818833E-4        0.015336
        1.305000           0.939016E-3       -0.018494           0.821062E-4        0.015357
        1.310000           0.925055E-3       -0.018264           0.823297E-4        0.015377
        1.315000           0.911363E-3       -0.018036           0.825545E-4        0.015398
        1.320000           0.898123E-3       -0.017812           0.827801E-4        0.015419
        1.325000           0.885359E-3       -0.017590           0.830066E-4        0.015439
        1.330000           0.873033E-3       -0.017370           0.832342E-4        0.015460
        1.335000           0.861095E-3       -0.017154           0.834628E-4        0.015481
        1.340000           0.849503E-3       -0.016941           0.836921E-4        0.015502
        1.345000           0.838223E-3       -0.016730           0.839225E-4        0.015523
        1.350000           0.827230E-3       -0.016523           0.841539E-4        0.015544
        1.355000           0.816504E-3       -0.016317           0.843863E-4        0.015565
        1.360000           0.806030E-3       -0.016115           0.846195E-4        0.015586
        1.365000           0.795795E-3       -0.015915           0.848540E-4        0.015607
        1.370000           0.785788E-3       -0.015718           0.850893E-4        0.015628
        1.375000           0.776000E-3       -0.015523           0.853255E-4        0.015650
        1.380000           0.766423E-3       -0.015330           0.855630E-4        0.015671
        1.385000           0.757049E-3       -0.015140           0.858014E-4        0.015693
        1.390000           0.747873E-3       -0.014952           0.860406E-4        0.015714
        1.395000           0.738887E-3       -0.014767           0.862811E-4        0.015736
        1.400000           0.730086E-3       -0.014583           0.865226E-4        0.015757
        1.405000           0.721465E-3       -0.014402           0.867651E-4        0.015779
        1.410000           0.713018E-3       -0.014223           0.870088E-4        0.015801
        1.415000           0.704741E-3       -0.014046           0.872532E-4        0.015822
        1.420000           0.696628E-3       -0.013871           0.874990E-4        0.015844
        1.425000           0.688676E-3       -0.013698           0.877458E-4        0.015866
        1.430000           0.680881E-3       -0.013527           0.879937E-4        0.015888
        1.435000           0.673238E-3       -0.013358           0.882426E-4        0.015910
        1.440000           0.665743E-3       -0.013191           0.884925E-4        0.015932
        1.445000           0.658392E-3       -0.013026           0.887436E-4        0.015954
        1.450000           0.651183E-3       -0.012862           0.889959E-4        0.015977
        1.455000           0.644111E-3       -0.012700           0.892492E-4        0.015999
        1.460000           0.637173E-3       -0.012540           0.895035E-4        0.016021
        1.465000           0.630365E-3       -0.012382           0.897590E-4        0.016044
        1.470000           0.623686E-3       -0.012225           0.900157E-4        0.016066
        1.475000           0.617131E-3       -0.012071           0.902735E-4        0.016089
        1.480000           0.610696E-3       -0.011917           0.905325E-4        0.016111
        1.485000           0.604381E-3       -0.011765           0.907925E-4        0.016134
        1.490000           0.598181E-3       -0.011615           0.910538E-4        0.016157
        1.495000           0.592095E-3       -0.011467           0.913163E-4        0.016179
        1.500000           0.586119E-3       -0.011320           0.915799E-4        0.016202
        1.505000           0.580251E-3       -0.011174           0.918447E-4        0.016225
        1.510000           0.574488E-3       -0.011030           0.921106E-4        0.016248
        1.515000           0.568828E-3       -0.010887           0.923777E-4        0.016271
        1.520000           0.563269E-3       -0.010746           0.926462E-4        0.016294
        1.525000           0.557809E-3       -0.010606           0.929159E-4        0.016318
        1.530000           0.552444E-3       -0.010467           0.931868E-4        0.016341
        1.535000           0.547174E-3       -0.010330           0.934587E-4        0.016364
        1.540000           0.541996E-3       -0.010194           0.937320E-4        0.016388
        1.545000           0.536908E-3       -0.010059           0.940066E-4        0.016411
        1.550000           0.531907E-3       -0.009925           0.942823E-4        0.016435
        1.555000           0.526993E-3       -0.009793           0.945593E-4        0.016458
        1.560000           0.522164E-3       -0.009662           0.948377E-4        0.016482
        1.565000           0.517416E-3       -0.009532           0.951173E-4        0.016506
        1.570000           0.512750E-3       -0.009404           0.953982E-4        0.016529
        1.575000           0.508162E-3       -0.009276           0.956802E-4        0.016553
        1.580000           0.503652E-3       -0.009150           0.959637E-4        0.016577
        1.585000           0.499218E-3       -0.009024           0.962486E-4        0.016601
        1.590000           0.494858E-3       -0.008900           0.965347E-4        0.016625
        1.595000           0.490570E-3       -0.008777           0.968222E-4        0.016649
        1.600000           0.486353E-3       -0.008655           0.971110E-4        0.016674
        1.605000           0.482207E-3       -0.008534           0.974010E-4        0.016698
        1.610000           0.478128E-3       -0.008414           0.976925E-4        0.016722
        1.615000           0.474117E-3       -0.008295           0.979857E-4        0.016747
        1.620000           0.470171E-3       -0.008177           0.982799E-4        0.016771
        1.625000           0.466289E-3       -0.008060           0.985755E-4        0.016796
        1.630000           0.462470E-3       -0.007944           0.988725E-4        0.016821
        1.635000           0.458713E-3       -0.007829           0.991710E-4        0.016845
        1.640000           0.455017E-3       -0.007715           0.994709E-4        0.016870
        1.645000           0.451380E-3       -0.007602           0.997724E-4        0.016895
        1.650000           0.447801E-3       -0.007490           0.100075E-3        0.016920
        1.655000           0.444279E-3       -0.007378           0.100379E-3        0.016945
        1.660000           0.440814E-3       -0.007268           0.100685E-3        0.016970
        1.665000           0.437403E-3       -0.007158           0.100992E-3        0.016996
        1.670000           0.434046E-3       -0.007049           0.101301E-3        0.017021
        1.675000           0.430742E-3       -0.006941           0.101611E-3        0.017046
        1.680000           0.427490E-3       -0.006834           0.101923E-3        0.017072
        1.685000           0.424288E-3       -0.006727           0.102236E-3        0.017097
        1.690000           0.421137E-3       -0.006622           0.102551E-3        0.017123
        1.695000           0.418035E-3       -0.006517           0.102867E-3        0.017148
        1.700000           0.414981E-3       -0.006413           0.103185E-3        0.017174
        1.705000           0.411974E-3       -0.006310           0.103504E-3        0.017200
        1.710000           0.409014E-3       -0.006207           0.103826E-3        0.017226
        1.715000           0.406100E-3       -0.006105           0.104148E-3        0.017252
        1.720000           0.403230E-3       -0.006004           0.104472E-3        0.017278
        1.725000           0.400404E-3       -0.005904           0.104798E-3        0.017304
        1.730000           0.397622E-3       -0.005804           0.105126E-3        0.017330
        1.735000           0.394882E-3       -0.005705           0.105455E-3        0.017357
        1.740000           0.392183E-3       -0.005607           0.105786E-3        0.017383
        1.745000           0.389526E-3       -0.005509           0.106119E-3        0.017410
        1.750000           0.386909E-3       -0.005412           0.106453E-3        0.017436
        1.755000           0.384332E-3       -0.005316           0.106789E-3        0.017463
        1.760000           0.381794E-3       -0.005220           0.107127E-3        0.017490
        1.765000           0.379294E-3       -0.005125           0.107466E-3        0.017516
        1.770000           0.376831E-3       -0.005030           0.107808E-3        0.017543
        1.775000           0.374406E-3       -0.004937           0.108151E-3        0.017570
        1.780000           0.372017E-3       -0.004843           0.108496E-3        0.017597
        1.785000           0.369664E-3       -0.004751           0.108842E-3        0.017624
        1.790000           0.367347E-3       -0.004659           0.109191E-3        0.017652
        1.795000           0.365064E-3       -0.004567           0.109541E-3        0.017679
        1.800000           0.362815E-3       -0.004476           0.109894E-3        0.017707
        1.805000           0.360600E-3       -0.004386           0.110248E-3        0.017734
        1.810000           0.358418E-3       -0.004296           0.110604E-3        0.017762
        1.815000           0.356269E-3       -0.004207           0.110963E-3        0.017789
        1.820000           0.354152E-3       -0.004118           0.111323E-3        0.017817
        1.825000           0.352066E-3       -0.004030           0.111685E-3        0.017845
        1.830000           0.350012E-3       -0.003942           0.112049E-3        0.017873
        1.835000           0.347988E-3       -0.003855           0.112415E-3        0.017901
        1.840000           0.345995E-3       -0.003768           0.112783E-3        0.017929
        1.845000           0.344031E-3       -0.003682           0.113154E-3        0.017957
        1.850000           0.342098E-3       -0.003596           0.113526E-3        0.017986
        1.855000           0.340193E-3       -0.003511           0.113901E-3        0.018014
        1.860000           0.338317E-3       -0.003426           0.114278E-3        0.018043
        1.865000           0.336469E-3       -0.003342           0.114657E-3        0.018071
        1.870000           0.334650E-3       -0.003258           0.115039E-3        0.018100
        1.875000           0.332858E-3       -0.003174           0.115422E-3        0.018129
        1.880000           0.331093E-3       -0.003091           0.115808E-3        0.018158
        1.885000           0.329356E-3       -0.003009           0.116197E-3        0.018187
        1.890000           0.327646E-3       -0.002927           0.116588E-3        0.018216
        1.895000           0.325962E-3       -0.002845           0.116981E-3        0.018245
        1.900000           0.324306E-3       -0.002764           0.117377E-3        0.018274
        1.905000           0.322675E-3       -0.002683           0.117775E-3        0.018304
        1.910000           0.321071E-3       -0.002603           0.118176E-3        0.018333
        1.915000           0.319493E-3       -0.002523           0.118580E-3        0.018363
        1.920000           0.317941E-3       -0.002443           0.118986E-3        0.018392
        1.925000           0.316416E-3       -0.002364           0.119395E-3        0.018422
        1.930000           0.314918E-3       -0.002285           0.119807E-3        0.018452
        1.935000           0.313446E-3       -0.002206           0.120222E-3        0.018482
        1.940000           0.312002E-3       -0.002128           0.120639E-3        0.018512
        1.945000           0.310586E-3       -0.002050           0.121060E-3        0.018542
        1.950000           0.309198E-3       -0.001973           0.121484E-3        0.018573
        1.955000           0.307841E-3       -0.001896           0.121911E-3        0.018603
        1.960000           0.306515E-3       -0.001819           0.122341E-3        0.018634
        1.965000           0.305222E-3       -0.001743           0.122775E-3        0.018664
        1.970000           0.303965E-3       -0.001667           0.123212E-3        0.018695
        1.975000           0.302747E-3       -0.001591           0.123653E-3        0.018726
        1.980000           0.301572E-3       -0.001515           0.124097E-3        0.018757
        1.985000           0.300447E-3       -0.001440           0.124546E-3        0.018788
        1.990000           0.299380E-3       -0.001365           0.124998E-3        0.018819
        1.995000           0.298380E-3       -0.001291           0.125454E-3        0.018850
        2.000000           0.297465E-3       -0.001216           0.125915E-3        0.018882
        2.005000           0.296654E-3       -0.001142           0.126380E-3        0.018913
        2.010000           0.295978E-3       -0.001068           0.126850E-3        0.018945
        2.015000           0.295480E-3       -0.994918E-3        0.127324E-3        0.018977
        2.020000           0.295220E-3       -0.921613E-3        0.127804E-3        0.019009
        2.025000           0.295284E-3       -0.848605E-3        0.128289E-3        0.019041
        2.030000           0.295779E-3       -0.775986E-3        0.128779E-3        0.019073
        2.035000           0.296820E-3       -0.703961E-3        0.129276E-3        0.019105
        2.040000           0.298436E-3       -0.632897E-3        0.129778E-3        0.019137
        2.045000           0.300360E-3       -0.563327E-3        0.130287E-3        0.019170
        2.050000           0.301754E-3       -0.495637E-3        0.130803E-3        0.019203
        2.055000           0.301430E-3       -0.429361E-3        0.131327E-3        0.019235
        2.060000           0.298945E-3       -0.363061E-3        0.131859E-3        0.019268
        2.065000           0.295150E-3       -0.295562E-3        0.132399E-3        0.019301
        2.070000           0.291196E-3       -0.226781E-3        0.132948E-3        0.019334
        2.075000           0.287699E-3       -0.157230E-3        0.133507E-3        0.019368
        2.080000           0.284786E-3       -0.873923E-4        0.134076E-3        0.019401
        2.085000           0.282379E-3       -0.175608E-4        0.134657E-3        0.019435
        2.090000           0.280362E-3        0.520924E-4        0.135251E-3        0.019468
        2.095000           0.278633E-3        0.121510E-3        0.135858E-3        0.019502
        2.100000           0.277117E-3        0.190659E-3        0.136480E-3        0.019536
        2.105000           0.275761E-3        0.259545E-3        0.137119E-3        0.019570
        2.110000           0.274526E-3        0.328163E-3        0.137776E-3        0.019605
        2.115000           0.273386E-3        0.396523E-3        0.138453E-3        0.019639
        2.120000           0.272322E-3        0.464631E-3        0.139153E-3        0.019674
        2.125000           0.271321E-3        0.532503E-3        0.139878E-3        0.019709
        2.130000           0.270374E-3        0.600144E-3        0.140631E-3        0.019744
        2.135000           0.269473E-3        0.667564E-3        0.141417E-3        0.019779
        2.140000           0.268613E-3        0.734765E-3        0.142240E-3        0.019814
        2.145000           0.267792E-3        0.801765E-3        0.143105E-3        0.019850
        2.150000           0.267007E-3        0.868566E-3        0.144018E-3        0.019886
        2.155000           0.266257E-3        0.935176E-3        0.144988E-3        0.019922
        2.160000           0.265541E-3        0.001002           0.146023E-3        0.019958
        2.165000           0.264860E-3        0.001068           0.147136E-3        0.019995
        2.170000           0.264216E-3        0.001134           0.148340E-3        0.020032
        2.175000           0.263610E-3        0.001200           0.149653E-3        0.020069
        2.180000           0.263046E-3        0.001266           0.151098E-3        0.020106
        2.185000           0.262529E-3        0.001331           0.152704E-3        0.020144
        2.190000           0.262065E-3        0.001397           0.154505E-3        0.020182
        2.195000           0.261662E-3        0.001462           0.156551E-3        0.020220
        2.200000           0.261333E-3        0.001527           0.158903E-3        0.020259
        2.205000           0.261092E-3        0.001593           0.161645E-3        0.020299
        2.210000           0.260961E-3        0.001658           0.164889E-3        0.020339
        2.215000           0.260969E-3        0.001723           0.168788E-3        0.020379
        2.220000           0.261158E-3        0.001788           0.173557E-3        0.020420
        2.225000           0.261586E-3        0.001852           0.179495E-3        0.020462
        2.230000           0.262335E-3        0.001917           0.187029E-3        0.020505
        2.235000           0.263522E-3        0.001982           0.196765E-3        0.020548
        2.240000           0.265313E-3        0.002047           0.209551E-3        0.020591
        2.245000           0.267923E-3        0.002111           0.226518E-3        0.020634
        2.250000           0.271594E-3        0.002175           0.248953E-3        0.020674
        2.255000           0.276455E-3        0.002237           0.277650E-3        0.020708
        2.260000           0.282137E-3        0.002297           0.311023E-3        0.020731
        2.265000           0.287180E-3        0.002353           0.341943E-3        0.020737
        2.270000           0.289125E-3        0.002407           0.357536E-3        0.020727
        2.275000           0.286509E-3        0.002460           0.348967E-3        0.020716
        2.280000           0.280610E-3        0.002516           0.321807E-3        0.020717
        2.285000           0.273907E-3        0.002575           0.289229E-3        0.020737
        2.290000           0.267958E-3        0.002636           0.260141E-3        0.020770
        2.295000           0.263193E-3        0.002699           0.237249E-3        0.020810
        2.300000           0.259505E-3        0.002761           0.220125E-3        0.020854
        2.305000           0.256654E-3        0.002824           0.207511E-3        0.020899
        2.310000           0.254418E-3        0.002887           0.198214E-3        0.020944
        2.315000           0.252630E-3        0.002950           0.191311E-3        0.020989
        2.320000           0.251168E-3        0.003013           0.186142E-3        0.021034
        2.325000           0.249947E-3        0.003075           0.182239E-3        0.021078
        2.330000           0.248908E-3        0.003137           0.179274E-3        0.021122
        2.335000           0.248007E-3        0.003199           0.177014E-3        0.021166
        2.340000           0.247214E-3        0.003261           0.175291E-3        0.021209
        2.345000           0.246506E-3        0.003322           0.173984E-3        0.021252
        2.350000           0.245868E-3        0.003384           0.173003E-3        0.021295
        2.355000           0.245286E-3        0.003445           0.172282E-3        0.021338
        2.360000           0.244751E-3        0.003506           0.171770E-3        0.021381
        2.365000           0.244257E-3        0.003567           0.171427E-3        0.021423
        2.370000           0.243797E-3        0.003628           0.171223E-3        0.021466
        2.375000           0.243367E-3        0.003689           0.171135E-3        0.021509
        2.380000           0.242963E-3        0.003750           0.171144E-3        0.021551
        2.385000           0.242584E-3        0.003811           0.171234E-3        0.021594
        2.390000           0.242225E-3        0.003871           0.171394E-3        0.021637
        2.395000           0.241886E-3        0.003932           0.171614E-3        0.021679
        2.400000           0.241564E-3        0.003992           0.171886E-3        0.021722
        2.405000           0.241260E-3        0.004052           0.172202E-3        0.021765
        2.410000           0.240970E-3        0.004113           0.172558E-3        0.021808
        2.415000           0.240696E-3        0.004173           0.172949E-3        0.021851
        2.420000           0.240435E-3        0.004233           0.173371E-3        0.021895
        2.425000           0.240187E-3        0.004293           0.173820E-3        0.021938
        2.430000           0.239952E-3        0.004353           0.174294E-3        0.021982
        2.435000           0.239729E-3        0.004413           0.174791E-3        0.022025
        2.440000           0.239518E-3        0.004473           0.175308E-3        0.022069
        2.445000           0.239318E-3        0.004533           0.175844E-3        0.022113
        2.450000           0.239129E-3        0.004592           0.176397E-3        0.022157
        2.455000           0.238951E-3        0.004652           0.176965E-3        0.022201
        2.460000           0.238783E-3        0.004712           0.177549E-3        0.022245
        2.465000           0.238626E-3        0.004772           0.178146E-3        0.022290
        2.470000           0.238478E-3        0.004831           0.178756E-3        0.022334
        2.475000           0.238340E-3        0.004891           0.179378E-3        0.022379
        2.480000           0.238212E-3        0.004950           0.180012E-3        0.022424
        2.484999           0.238094E-3        0.005010           0.180656E-3        0.022469
        2.490000           0.237984E-3        0.005069           0.181311E-3        0.022514
        2.494999           0.237885E-3        0.005129           0.181976E-3        0.022560
        2.500000           0.237794E-3        0.005188           0.182650E-3        0.022605
        2.504999           0.237712E-3        0.005248           0.183333E-3        0.022651
        2.510000           0.237640E-3        0.005307           0.184025E-3        0.022697
        2.515000           0.237576E-3        0.005366           0.184726E-3        0.022743
        2.520000           0.237521E-3        0.005426           0.185435E-3        0.022789
        2.525000           0.237475E-3        0.005485           0.186151E-3        0.022836
        2.530000           0.237438E-3        0.005545           0.186876E-3        0.022882
        2.535000           0.237409E-3        0.005604           0.187608E-3        0.022929
        2.540000           0.237389E-3        0.005663           0.188348E-3        0.022976
        2.545000           0.237377E-3        0.005723           0.189095E-3        0.023023
        2.550000           0.237374E-3        0.005782           0.189849E-3        0.023071
        2.555000           0.237379E-3        0.005841           0.190611E-3        0.023118
        2.560000           0.237393E-3        0.005901           0.191380E-3        0.023166
        2.565000           0.237415E-3        0.005960           0.192156E-3        0.023214
        2.570000           0.237445E-3        0.006019           0.192939E-3        0.023262
        2.575000           0.237484E-3        0.006079           0.193728E-3        0.023310
        2.580000           0.237531E-3        0.006138           0.194525E-3        0.023359
        2.585000           0.237587E-3        0.006197           0.195328E-3        0.023407
        2.590000           0.237650E-3        0.006257           0.196138E-3        0.023456
        2.595000           0.237722E-3        0.006316           0.196954E-3        0.023506
        2.600000           0.237802E-3        0.006376           0.197778E-3        0.023555
        2.605000           0.237891E-3        0.006435           0.198608E-3        0.023604
        2.610000           0.237987E-3        0.006495           0.199445E-3        0.023654
        2.615000           0.238092E-3        0.006554           0.200288E-3        0.023704
        2.620000           0.238205E-3        0.006614           0.201138E-3        0.023754
        2.625000           0.238326E-3        0.006673           0.201995E-3        0.023805
        2.630000           0.238455E-3        0.006733           0.202858E-3        0.023855
        2.635000           0.238593E-3        0.006792           0.203729E-3        0.023906
        2.640000           0.238738E-3        0.006852           0.204606E-3        0.023957
        2.645000           0.238892E-3        0.006912           0.205489E-3        0.024008
        2.650000           0.239054E-3        0.006971           0.206380E-3        0.024060
        2.654999           0.239224E-3        0.007031           0.207277E-3        0.024112
        2.660000           0.239402E-3        0.007091           0.208181E-3        0.024163
        2.664999           0.239589E-3        0.007151           0.209092E-3        0.024216
        2.670000           0.239784E-3        0.007211           0.210010E-3        0.024268
        2.674999           0.239986E-3        0.007271           0.210935E-3        0.024321
        2.680000           0.240198E-3        0.007331           0.211866E-3        0.024373
        2.684999           0.240417E-3        0.007391           0.212805E-3        0.024427
        2.690000           0.240644E-3        0.007451           0.213751E-3        0.024480
        2.694999           0.240880E-3        0.007511           0.214704E-3        0.024533
        2.700000           0.241124E-3        0.007571           0.215664E-3        0.024587
        2.705000           0.241377E-3        0.007632           0.216631E-3        0.024641
        2.710000           0.241638E-3        0.007692           0.217605E-3        0.024695
        2.715000           0.241907E-3        0.007752           0.218587E-3        0.024750
        2.720000           0.242184E-3        0.007813           0.219576E-3        0.024805
        2.725000           0.242470E-3        0.007874           0.220572E-3        0.024860
        2.730000           0.242765E-3        0.007934           0.221577E-3        0.024915
        2.735000           0.243067E-3        0.007995           0.222588E-3        0.024970
        2.740000           0.243379E-3        0.008056           0.223607E-3        0.025026
        2.745000           0.243699E-3        0.008117           0.224633E-3        0.025082
        2.750000           0.244027E-3        0.008177           0.225668E-3        0.025139
        2.755000           0.244364E-3        0.008239           0.226710E-3        0.025195
        2.760000           0.244710E-3        0.008300           0.227760E-3        0.025252
        2.765000           0.245065E-3        0.008361           0.228818E-3        0.025309
        2.770000           0.245428E-3        0.008422           0.229883E-3        0.025366
        2.775000           0.245801E-3        0.008484           0.230957E-3        0.025424
        2.780000           0.246182E-3        0.008545           0.232039E-3        0.025482
        2.785000           0.246572E-3        0.008607           0.233129E-3        0.025540
        2.790000           0.246971E-3        0.008668           0.234227E-3        0.025598
        2.795000           0.247380E-3        0.008730           0.235334E-3        0.025657
        2.800000           0.247798E-3        0.008792           0.236449E-3        0.025716
        2.805000           0.248225E-3        0.008854           0.237572E-3        0.025775
        2.810000           0.248661E-3        0.008916           0.238704E-3        0.025835
        2.815000           0.249107E-3        0.008978           0.239845E-3        0.025894
        2.820000           0.249563E-3        0.009041           0.240994E-3        0.025955
        2.825000           0.250028E-3        0.009103           0.242152E-3        0.026015
        2.830000           0.250504E-3        0.009166           0.243319E-3        0.026076
        2.835000           0.250990E-3        0.009228           0.244495E-3        0.026137
        2.839999           0.251486E-3        0.009291           0.245680E-3        0.026198
        2.845000           0.251992E-3        0.009354           0.246874E-3        0.026259
        2.849999           0.252510E-3        0.009417           0.248078E-3        0.026321
        2.855000           0.253039E-3        0.009480           0.249291E-3        0.026383
        2.859999           0.253579E-3        0.009543           0.250513E-3        0.026446
        2.865000           0.254130E-3        0.009607           0.251745E-3        0.026509
        2.869999           0.254694E-3        0.009671           0.252987E-3        0.026572
        2.875000           0.255271E-3        0.009734           0.254238E-3        0.026635
        2.879999           0.255861E-3        0.009798           0.255499E-3        0.026699
        2.885000           0.256464E-3        0.009862           0.256770E-3        0.026763
        2.890000           0.257083E-3        0.009926           0.258051E-3        0.026827
        2.895000           0.257716E-3        0.009991           0.259342E-3        0.026892
        2.900000           0.258367E-3        0.010055           0.260644E-3        0.026957
        2.905000           0.259035E-3        0.010120           0.261955E-3        0.027022
        2.910000           0.259723E-3        0.010185           0.263278E-3        0.027088
        2.915000           0.260433E-3        0.010250           0.264611E-3        0.027154
        2.920000           0.261167E-3        0.010315           0.265954E-3        0.027220
        2.925000           0.261928E-3        0.010380           0.267308E-3        0.027287
        2.930000           0.262720E-3        0.010446           0.268673E-3        0.027354
        2.935000           0.263549E-3        0.010511           0.270050E-3        0.027421
        2.940000           0.264420E-3        0.010577           0.271438E-3        0.027489
        2.945000           0.265343E-3        0.010643           0.272837E-3        0.027557
        2.950000           0.266329E-3        0.010710           0.274246E-3        0.027625
        2.955000           0.267395E-3        0.010776           0.275668E-3        0.027694
        2.960000           0.268562E-3        0.010843           0.277102E-3        0.027763
        2.965000           0.269860E-3        0.010910           0.278547E-3        0.027832
        2.970000           0.271332E-3        0.010978           0.280005E-3        0.027902
        2.975000           0.273038E-3        0.011045           0.281474E-3        0.027972
        2.980000           0.275066E-3        0.011113           0.282955E-3        0.028043
        2.985000           0.277534E-3        0.011181           0.284449E-3        0.028114
        2.990000           0.280596E-3        0.011249           0.285956E-3        0.028185
        2.995000           0.284409E-3        0.011317           0.287475E-3        0.028257
        3.000000           0.289011E-3        0.011384           0.289007E-3        0.028329
        3.005000           0.294013E-3        0.011449           0.290552E-3        0.028401
        3.010000           0.298226E-3        0.011512           0.292110E-3        0.028474
        3.015000           0.299988E-3        0.011574           0.293681E-3        0.028547
        3.020000           0.298724E-3        0.011637           0.295265E-3        0.028621
        3.025000           0.295653E-3        0.011702           0.296864E-3        0.028695
        3.029999           0.292378E-3        0.011769           0.298476E-3        0.028769
        3.035000           0.289740E-3        0.011838           0.300102E-3        0.028844
        3.039999           0.287905E-3        0.011908           0.301742E-3        0.028919
        3.045000           0.286763E-3        0.011978           0.303397E-3        0.028995
        3.049999           0.286151E-3        0.012049           0.305066E-3        0.029071
        3.055000           0.285928E-3        0.012120           0.306749E-3        0.029147
        3.059999           0.285990E-3        0.012191           0.308447E-3        0.029224
        3.064999           0.286260E-3        0.012262           0.310160E-3        0.029301
        3.069999           0.286688E-3        0.012334           0.311889E-3        0.029379
        3.074999           0.287236E-3        0.012405           0.313632E-3        0.029457
        3.080000           0.287878E-3        0.012477           0.315391E-3        0.029536
        3.085000           0.288594E-3        0.012549           0.317167E-3        0.029615
        3.090000           0.289371E-3        0.012621           0.318957E-3        0.029695
        3.095000           0.290199E-3        0.012693           0.320764E-3        0.029774
        3.100000           0.291070E-3        0.012766           0.322588E-3        0.029855
        3.105000           0.291979E-3        0.012839           0.324429E-3        0.029936
        3.110000           0.292920E-3        0.012912           0.326286E-3        0.030017
        3.115000           0.293892E-3        0.012985           0.328160E-3        0.030099
        3.120000           0.294890E-3        0.013059           0.330052E-3        0.030181
        3.125000           0.295913E-3        0.013133           0.331960E-3        0.030264
        3.130000           0.296959E-3        0.013207           0.333887E-3        0.030347
        3.135000           0.298028E-3        0.013281           0.335831E-3        0.030431
        3.140000           0.299117E-3        0.013356           0.337794E-3        0.030515
        3.145000           0.300227E-3        0.013431           0.339776E-3        0.030600
        3.150000           0.301356E-3        0.013506           0.341775E-3        0.030685
        3.155000           0.302504E-3        0.013581           0.343794E-3        0.030770
        3.160000           0.303670E-3        0.013657           0.345833E-3        0.030857
        3.165000           0.304855E-3        0.013733           0.347891E-3        0.030943
        3.170000           0.306058E-3        0.013809           0.349968E-3        0.031030
        3.175000           0.307279E-3        0.013886           0.352067E-3        0.031118
        3.180000           0.308518E-3        0.013963           0.354185E-3        0.031206
        3.185000           0.309775E-3        0.014040           0.356324E-3        0.031295
        3.190000           0.311049E-3        0.014118           0.358484E-3        0.031385
        3.194999           0.312341E-3        0.014196           0.360666E-3        0.031474
        3.200000           0.313651E-3        0.014274           0.362869E-3        0.031565
        3.204999           0.314978E-3        0.014352           0.365094E-3        0.031656
        3.210000           0.316324E-3        0.014431           0.367342E-3        0.031747
        3.214999           0.317687E-3        0.014511           0.369612E-3        0.031839
        3.220000           0.319069E-3        0.014590           0.371906E-3        0.031932
        3.224999           0.320469E-3        0.014670           0.374222E-3        0.032025
        3.230000           0.321887E-3        0.014750           0.376564E-3        0.032119
        3.234999           0.323324E-3        0.014831           0.378929E-3        0.032214
        3.240000           0.324779E-3        0.014912           0.381319E-3        0.032308
        3.244999           0.326253E-3        0.014993           0.383733E-3        0.032404
        3.250000           0.327747E-3        0.015075           0.386174E-3        0.032500
        3.254999           0.329259E-3        0.015157           0.388640E-3        0.032597
        3.260000           0.330792E-3        0.015240           0.391132E-3        0.032695
        3.264999           0.332344E-3        0.015322           0.393653E-3        0.032793
        3.270000           0.333916E-3        0.015406           0.396200E-3        0.032891
        3.275000           0.335508E-3        0.015489           0.398774E-3        0.032991
        3.280000           0.337121E-3        0.015573           0.401378E-3        0.033091
        3.285000           0.338755E-3        0.015658           0.404010E-3        0.033191
        3.290000           0.340409E-3        0.015743           0.406672E-3        0.033293
        3.295000           0.342085E-3        0.015828           0.409364E-3        0.033395
        3.300000           0.343783E-3        0.015914           0.412087E-3        0.033497
        3.305000           0.345502E-3        0.016000           0.414842E-3        0.033601
        3.310000           0.347244E-3        0.016086           0.417627E-3        0.033705
        3.315000           0.349009E-3        0.016173           0.420447E-3        0.033809
        3.320000           0.350796E-3        0.016261           0.423299E-3        0.033915
        3.325000           0.352607E-3        0.016349           0.426187E-3        0.034021
        3.330000           0.354442E-3        0.016437           0.429109E-3        0.034128
        3.335000           0.356300E-3        0.016526           0.432067E-3        0.034235
        3.340000           0.358183E-3        0.016615           0.435062E-3        0.034344
        3.345000           0.360092E-3        0.016705           0.438095E-3        0.034453
        3.350000           0.362025E-3        0.016795           0.441167E-3        0.034563
        3.355000           0.363984E-3        0.016886           0.444279E-3        0.034673
        3.360000           0.365970E-3        0.016977           0.447432E-3        0.034785
        3.365000           0.367982E-3        0.017069           0.450628E-3        0.034897
        3.370000           0.370022E-3        0.017161           0.453866E-3        0.035010
        3.375000           0.372089E-3        0.017254           0.457151E-3        0.035124
        3.380000           0.374185E-3        0.017347           0.460481E-3        0.035238
        3.385000           0.376311E-3        0.017441           0.463861E-3        0.035354
        3.390000           0.378466E-3        0.017535           0.467289E-3        0.035470
        3.395000           0.380651E-3        0.017630           0.470771E-3        0.035587
        3.400000           0.382868E-3        0.017725           0.474305E-3        0.035705
        3.404999           0.385117E-3        0.017821           0.477896E-3        0.035824
        3.410000           0.387398E-3        0.017918           0.481547E-3        0.035944
        3.414999           0.389713E-3        0.018015           0.485258E-3        0.036065
        3.420000           0.392063E-3        0.018113           0.489034E-3        0.036186
        3.424999           0.394449E-3        0.018211           0.492878E-3        0.036309
        3.430000           0.396871E-3        0.018310           0.496794E-3        0.036433
        3.434999           0.399332E-3        0.018409           0.500784E-3        0.036557
        3.440000           0.401832E-3        0.018509           0.504857E-3        0.036683
        3.444999           0.404373E-3        0.018610           0.509013E-3        0.036810
        3.450000           0.406957E-3        0.018711           0.513262E-3        0.036937
        3.454999           0.409585E-3        0.018813           0.517608E-3        0.037066
        3.460000           0.412261E-3        0.018916           0.522062E-3        0.037196
        3.465000           0.414985E-3        0.019019           0.526630E-3        0.037327
        3.470000           0.417760E-3        0.019123           0.531322E-3        0.037459
        3.475000           0.420591E-3        0.019228           0.536152E-3        0.037592
        3.480000           0.423480E-3        0.019334           0.541132E-3        0.037726
        3.485000           0.426431E-3        0.019440           0.546279E-3        0.037862
        3.490000           0.429449E-3        0.019547           0.551612E-3        0.037999
        3.495000           0.432540E-3        0.019654           0.557154E-3        0.038137
        3.500000           0.435709E-3        0.019763           0.562932E-3        0.038277
        3.505000           0.438967E-3        0.019872           0.568980E-3        0.038418
        3.510000           0.442320E-3        0.019982           0.575336E-3        0.038561
        3.515000           0.445783E-3        0.020093           0.582054E-3        0.038705
        3.520000           0.449368E-3        0.020204           0.589188E-3        0.038851
        3.525000           0.453094E-3        0.020317           0.596820E-3        0.038998
        3.529999           0.456982E-3        0.020430           0.605045E-3        0.039147
        3.535000           0.461062E-3        0.020545           0.613985E-3        0.039299
        3.539999           0.465370E-3        0.020660           0.623800E-3        0.039452
        3.545000           0.469955E-3        0.020777           0.634697E-3        0.039607
        3.549999           0.474877E-3        0.020894           0.646947E-3        0.039765
        3.555000           0.480224E-3        0.021013           0.660924E-3        0.039926
        3.559999           0.486109E-3        0.021133           0.677125E-3        0.040089
        3.565000           0.492692E-3        0.021254           0.696244E-3        0.040256
        3.569999           0.500192E-3        0.021376           0.719237E-3        0.040425
        3.575000           0.508926E-3        0.021500           0.747482E-3        0.040598
        3.579999           0.519335E-3        0.021625           0.782909E-3        0.040774
        3.585000           0.532053E-3        0.021751           0.828276E-3        0.040952
        3.589999           0.547933E-3        0.021878           0.887330E-3        0.041130
        3.595000           0.568040E-3        0.022004           0.964780E-3        0.041304
        3.599999           0.593306E-3        0.022127           0.001065           0.041463
        3.605000           0.623440E-3        0.022243           0.001187           0.041590
        3.609999           0.654519E-3        0.022348           0.001315           0.041662
        3.615000           0.677146E-3        0.022438           0.001408           0.041669
        3.619999           0.681211E-3        0.022523           0.001421           0.041643
        3.625000           0.666619E-3        0.022615           0.001348           0.041645
        3.629999           0.643404E-3        0.022724           0.001233           0.041713
        3.635000           0.621040E-3        0.022846           0.001120           0.041842
        3.639999           0.603527E-3        0.022977           0.001027           0.042009
        3.645000           0.591194E-3        0.023112           0.957994E-3        0.042195
        3.650000           0.583114E-3        0.023251           0.907864E-3        0.042389
        3.654999           0.578231E-3        0.023390           0.872078E-3        0.042587
        3.660000           0.575682E-3        0.023531           0.846715E-3        0.042785
        3.664999           0.574839E-3        0.023672           0.828904E-3        0.042984
        3.670000           0.575256E-3        0.023814           0.816603E-3        0.043182
        3.674999           0.576621E-3        0.023957           0.808381E-3        0.043379
        3.680000           0.578714E-3        0.024100           0.803229E-3        0.043576
        3.684999           0.581378E-3        0.024245           0.800426E-3        0.043774
        3.690000           0.584501E-3        0.024390           0.799450E-3        0.043971
        3.694999           0.588000E-3        0.024536           0.799922E-3        0.044169
        3.700000           0.591815E-3        0.024683           0.801558E-3        0.044368
        3.704999           0.595900E-3        0.024831           0.804147E-3        0.044568
        3.710000           0.600223E-3        0.024980           0.807529E-3        0.044768
        3.714999           0.604757E-3        0.025131           0.811578E-3        0.044969
        3.720000           0.609484E-3        0.025282           0.816198E-3        0.045172
        3.724999           0.614390E-3        0.025435           0.821313E-3        0.045376
        3.730000           0.619464E-3        0.025589           0.826867E-3        0.045582
        3.734999           0.624699E-3        0.025744           0.832809E-3        0.045789
        3.740000           0.630091E-3        0.025901           0.839103E-3        0.045997
        3.744999           0.635635E-3        0.026059           0.845720E-3        0.046207
        3.750000           0.641332E-3        0.026218           0.852637E-3        0.046419
        3.754999           0.647182E-3        0.026379           0.859829E-3        0.046633
        3.760000           0.653190E-3        0.026541           0.867285E-3        0.046848
        3.764999           0.659358E-3        0.026705           0.874992E-3        0.047066
        3.770000           0.665697E-3        0.026871           0.882941E-3        0.047285
        3.774999           0.672215E-3        0.027038           0.891121E-3        0.047507
        3.780000           0.678929E-3        0.027206           0.899530E-3        0.047730
        3.784999           0.685856E-3        0.027376           0.908160E-3        0.047956
        3.790000           0.693026E-3        0.027548           0.917013E-3        0.048184
        3.794999           0.700475E-3        0.027722           0.926081E-3        0.048414
        3.800000           0.708256E-3        0.027898           0.935367E-3        0.048646
        3.804999           0.716442E-3        0.028075           0.944869E-3        0.048881
        3.810000           0.725138E-3        0.028254           0.954591E-3        0.049118
        3.814999           0.734489E-3        0.028435           0.964529E-3        0.049358
        3.820000           0.744691E-3        0.028618           0.974689E-3        0.049600
        3.824999           0.755969E-3        0.028802           0.985072E-3        0.049844
        3.830000           0.768484E-3        0.028987           0.995680E-3        0.050092
        3.834999           0.782025E-3        0.029172           0.001007           0.050342
        3.839999           0.795470E-3        0.029357           0.001018           0.050594
        3.845000           0.806639E-3        0.029540           0.001029           0.050850
        3.849999           0.813821E-3        0.029725           0.001040           0.051108
        3.855000           0.817753E-3        0.029914           0.001052           0.051369
        3.859999           0.820709E-3        0.030108           0.001064           0.051634
        3.865000           0.824355E-3        0.030307           0.001077           0.051901
        3.869999           0.829249E-3        0.030510           0.001089           0.052171
        3.875000           0.835353E-3        0.030715           0.001102           0.052445
        3.879999           0.842455E-3        0.030923           0.001115           0.052722
        3.885000           0.850354E-3        0.031133           0.001129           0.053002
        3.889999           0.858887E-3        0.031346           0.001142           0.053285
        3.895000           0.867944E-3        0.031561           0.001156           0.053572
        3.899999           0.877444E-3        0.031779           0.001171           0.053862
        3.905000           0.887339E-3        0.031999           0.001185           0.054157
        3.909999           0.897591E-3        0.032221           0.001200           0.054454
        3.915000           0.908180E-3        0.032447           0.001216           0.054756
        3.919999           0.919088E-3        0.032675           0.001231           0.055061
        3.925000           0.930311E-3        0.032905           0.001247           0.055370
        3.929999           0.941842E-3        0.033139           0.001264           0.055684
        3.935000           0.953684E-3        0.033375           0.001281           0.056001
        3.939999           0.965836E-3        0.033615           0.001298           0.056323
        3.945000           0.978307E-3        0.033858           0.001315           0.056649
        3.949999           0.991097E-3        0.034103           0.001333           0.056980
        3.955000           0.001004           0.034352           0.001352           0.057315
        3.959999           0.001018           0.034604           0.001371           0.057654
        3.965000           0.001031           0.034860           0.001390           0.057999
        3.969999           0.001046           0.035119           0.001410           0.058348
        3.975000           0.001060           0.035382           0.001431           0.058703
        3.979999           0.001075           0.035648           0.001452           0.059062
        3.985000           0.001090           0.035919           0.001474           0.059427
        3.989999           0.001106           0.036192           0.001496           0.059798
        3.995000           0.001122           0.036470           0.001519           0.060173
        3.999999           0.001139           0.036752           0.001542           0.060555
        4.005000           0.001156           0.037039           0.001566           0.060943
        4.009999           0.001173           0.037329           0.001591           0.061336
        4.014999           0.001191           0.037624           0.001617           0.061736
        4.019999           0.001210           0.037924           0.001643           0.062143
        4.025000           0.001229           0.038228           0.001670           0.062556
        4.030000           0.001249           0.038537           0.001698           0.062975
        4.034999           0.001269           0.038851           0.001727           0.063402
        4.040000           0.001290           0.039170           0.001757           0.063836
        4.045000           0.001311           0.039494           0.001788           0.064278
        4.050000           0.001334           0.039824           0.001819           0.064728
        4.054999           0.001357           0.040159           0.001852           0.065185
        4.060000           0.001380           0.040500           0.001886           0.065651
        4.065000           0.001405           0.040847           0.001922           0.066125
        4.070000           0.001430           0.041200           0.001958           0.066608
        4.074999           0.001456           0.041560           0.001996           0.067101
        4.080000           0.001483           0.041926           0.002036           0.067603
        4.085000           0.001512           0.042299           0.002077           0.068115
        4.090000           0.001541           0.042679           0.002120           0.068637
        4.094999           0.001571           0.043066           0.002164           0.069170
        4.100000           0.001603           0.043461           0.002211           0.069714
        4.105000           0.001635           0.043864           0.002260           0.070270
        4.110000           0.001670           0.044275           0.002311           0.070838
        4.114999           0.001705           0.044695           0.002364           0.071419
        4.120000           0.001743           0.045124           0.002420           0.072013
        4.125000           0.001782           0.045562           0.002479           0.072621
        4.130000           0.001822           0.046010           0.002540           0.073244
        4.134999           0.001865           0.046468           0.002606           0.073882
        4.140000           0.001910           0.046937           0.002675           0.074537
        4.145000           0.001958           0.047417           0.002748           0.075209
        4.150000           0.002008           0.047909           0.002826           0.075899
        4.154999           0.002061           0.048413           0.002909           0.076608
        4.160000           0.002118           0.048931           0.002998           0.077338
        4.164999           0.002178           0.049462           0.003093           0.078090
        4.170000           0.002242           0.050009           0.003195           0.078865
        4.174999           0.002312           0.050571           0.003306           0.079666
        4.180000           0.002386           0.051150           0.003426           0.080493
        4.184999           0.002467           0.051747           0.003557           0.081350
        4.190000           0.002555           0.052363           0.003700           0.082238
        4.194999           0.002652           0.053001           0.003858           0.083160
        4.199999           0.002758           0.053661           0.004034           0.084120
        4.204999           0.002878           0.054346           0.004230           0.085120
        4.210000           0.003012           0.055058           0.004451           0.086166
        4.215000           0.003165           0.055799           0.004703           0.087262
        4.219999           0.003341           0.056573           0.004991           0.088414
        4.225000           0.003546           0.057382           0.005325           0.089627
        4.230000           0.003790           0.058229           0.005718           0.090909
        4.235000           0.004085           0.059118           0.006185           0.092268
        4.239999           0.004448           0.060050           0.006747           0.093712
        4.245000           0.004903           0.061022           0.007437           0.095249
        4.250000           0.005484           0.062026           0.008297           0.096886
        4.255000           0.006240           0.063034           0.009388           0.098621
        4.259999           0.007228           0.063985           0.010795           0.100438
        4.265000           0.008502           0.064758           0.012642           0.102289
        4.270000           0.010048           0.065133           0.015086           0.104051
        4.275000           0.011661           0.064831           0.018309           0.105467
        4.279999           0.012830           0.063740           0.022413           0.106038
        4.285000           0.012990           0.062264           0.027152           0.104979
        4.289999           0.012114           0.061174           0.031482           0.101542
        4.295000           0.010747           0.060921           0.033589           0.096002
        4.299999           0.009419           0.061420           0.032316           0.090305
        4.305000           0.008361           0.062396           0.028535           0.086574
        4.309999           0.007595           0.063623           0.024090           0.085358
        4.315000           0.007073           0.064973           0.020180           0.085992
        4.319999           0.006736           0.066383           0.017154           0.087660
        4.325000           0.006538           0.067826           0.014942           0.089819
        4.329999           0.006444           0.069295           0.013370           0.092181
        4.335000           0.006433           0.070789           0.012273           0.094611
        4.339999           0.006487           0.072312           0.011527           0.097053
        4.345000           0.006595           0.073871           0.011046           0.099494
        4.349999           0.006753           0.075472           0.010766           0.101935
        4.355000           0.006955           0.077124           0.010649           0.104387
        4.359999           0.007200           0.078832           0.010667           0.106863
        4.365000           0.007488           0.080607           0.010803           0.109382
        4.369999           0.007820           0.082456           0.011047           0.111958
        4.375000           0.008200           0.084390           0.011398           0.114610
        4.379999           0.008631           0.086417           0.011858           0.117355
        4.385000           0.009120           0.088550           0.012434           0.120214
        4.389999           0.009674           0.090800           0.013141           0.123204
        4.395000           0.010303           0.093181           0.014002           0.126350
        4.399999           0.011021           0.095708           0.015045           0.129674
        4.405000           0.011843           0.098398           0.016316           0.133198
        4.410000           0.012793           0.101269           0.017876           0.136947
        4.414999           0.013898           0.104339           0.019811           0.140934
        4.420000           0.015197           0.107629           0.022244           0.145162
        4.424999           0.016743           0.111153           0.025345           0.149591
        4.430000           0.018603           0.114914           0.029345           0.154102
        4.434999           0.020862           0.118890           0.034516           0.158410
        4.440000           0.023614           0.123006           0.041079           0.161930
        4.444999           0.026903           0.127107           0.048884           0.163673
        4.450000           0.030619           0.130978           0.056815           0.162516
        4.454999           0.034386           0.134542           0.062523           0.158410
        4.460000           0.037762           0.138205           0.063995           0.153663
        4.464999           0.040817           0.142768           0.061903           0.151559
        4.470000           0.044244           0.148785           0.058916           0.153500
        4.474999           0.048847           0.156293           0.057219           0.158857
        4.480000           0.055258           0.165107           0.057793           0.166505
        4.484999           0.064060           0.175039           0.060997           0.175615
        4.490000           0.075998           0.185893           0.067126           0.185688
        4.494999           0.092124           0.197291           0.076691           0.196332
        4.500000           0.113924           0.208386           0.090555           0.206979
        4.504999           0.143282           0.217294           0.109954           0.216479
        4.510000           0.182028           0.220188           0.136305           0.222468
        4.514999           0.230184           0.210272           0.170240           0.220492
        4.520000           0.282162           0.178401           0.209124           0.203763
        4.524999           0.322891           0.119238           0.243293           0.166380
        4.530000           0.333112           0.042136           0.257239           0.112081
        4.534999           0.306841          -0.028909           0.242662           0.058289
        4.539999           0.258536          -0.074974           0.208451           0.022000
        4.544999           0.207450          -0.094783           0.170056           0.006398
        4.550000           0.164033          -0.096936           0.136757           0.005396
        4.554999           0.130533          -0.089860           0.110961           0.012284
        4.559999           0.105659          -0.078824           0.091900           0.022729
        4.564999           0.087433          -0.066552           0.078084           0.034457
        4.570000           0.074138          -0.054292           0.068168           0.046430
        4.574999           0.064522          -0.042557           0.061148           0.058223
        4.579999           0.057728          -0.031507           0.056317           0.069728
        4.584999           0.053216          -0.021166           0.053204           0.080970
        4.590000           0.050686          -0.011533           0.051503           0.092044
        4.595000           0.050023          -0.002679           0.051038           0.103073
        4.599999           0.051224           0.005142           0.051731           0.114187
        4.605000           0.054226           0.011374           0.053594           0.125532
        4.610000           0.058518           0.015133           0.056727           0.137242
        4.615000           0.062623           0.015735           0.061332           0.149454
        4.619999           0.064396           0.013952           0.067735           0.162272
        4.625000           0.062970           0.012364           0.076439           0.175750
        4.630000           0.059934           0.013192           0.088165           0.189797
        4.635000           0.057660           0.016588           0.103937           0.204037
        4.639999           0.057663           0.021334           0.125062           0.217471
        4.645000           0.060523           0.025835           0.152912           0.227964
        4.649999           0.066072           0.028277           0.187911           0.231597
        4.655000           0.072967           0.026712           0.227335           0.223034
        4.659999           0.078086           0.020207           0.263140           0.199266
        4.665000           0.077834           0.010895           0.285989           0.165867
        4.669999           0.071671           0.003370           0.295946           0.134657
        4.675000           0.062669           0.554151E-3        0.303332           0.110127
        4.679999           0.054091           0.002138           0.315545           0.084425
        4.684999           0.047441           0.006498           0.327400           0.046669
        4.689999           0.042969           0.012266           0.324024          -0.003309
        4.695000           0.040491           0.018625           0.296700          -0.050440
        4.699999           0.039807           0.025109           0.253648          -0.079263
        4.704999           0.040831           0.031377           0.209362          -0.087537
        4.709999           0.043551           0.037000           0.172318          -0.081629
        4.715000           0.047845           0.041305           0.144395          -0.068214
        4.719999           0.053058           0.043405           0.124603          -0.051514
        4.724999           0.057604           0.042880           0.111396          -0.033669
        4.729999           0.059628           0.040932           0.103543          -0.015634
        4.735000           0.058972           0.040111           0.100300           0.002230
        4.739999           0.057544           0.042047           0.101419           0.019765
        4.744999           0.057482           0.046504           0.107133           0.036784
        4.749999           0.060083           0.052343           0.118150           0.052769
        4.755000           0.066061           0.058241           0.135615           0.066476
        4.759999           0.075860           0.062572           0.160744           0.075216
        4.764999           0.089363           0.062974           0.193606           0.074025
        4.769999           0.104694           0.056361           0.230130           0.055900
        4.775000           0.116829           0.040849           0.258742           0.016365
        4.779999           0.119261           0.019613           0.264097          -0.037308
        4.784999           0.110258           0.756125E-3        0.241803          -0.086052
        4.790000           0.094951          -0.009797           0.203765          -0.115639
        4.795000           0.079509          -0.012087           0.164580          -0.125978
        4.800000           0.067023          -0.008991           0.131555          -0.123868
        4.804999           0.058101          -0.003105           0.105986          -0.115510
        4.810000           0.052404           0.003991           0.086755          -0.104659
        4.815000           0.049491           0.011445           0.072342          -0.093224
        4.820000           0.049097           0.018753           0.061446          -0.082067
        4.824999           0.051179           0.025429           0.053105          -0.071533
        4.830000           0.055808           0.030733           0.046628          -0.061716
        4.835000           0.062824           0.033388           0.041534          -0.052605
        4.840000           0.071067           0.031638           0.037479          -0.044135
        4.844999           0.077506           0.024403           0.034220          -0.036237
        4.850000           0.078233           0.013590           0.031580          -0.028833
        4.855000           0.072174           0.004052           0.029431          -0.021854
        4.860000           0.062341          -0.667934E-3        0.027677          -0.015235
        4.864999           0.052374          -0.574358E-3        0.026248          -0.008921
        4.870000           0.044068           0.002629           0.025089          -0.002859
        4.874999           0.037723           0.007406           0.024161           0.002994
        4.880000           0.033046           0.012834           0.023431           0.008680
        4.884999           0.029651           0.018454           0.022877           0.014234
        4.890000           0.027211           0.024067           0.022481           0.019692
        4.894999           0.025484           0.029603           0.022232           0.025084
        4.900000           0.024301           0.035054           0.022120           0.030440
        4.904999           0.023544           0.040441           0.022141           0.035789
        4.909999           0.023135           0.045798           0.022293           0.041161
        4.914999           0.023019           0.051161           0.022579           0.046582
        4.920000           0.023164           0.056573           0.023002           0.052083
        4.924999           0.023551           0.062074           0.023571           0.057694
        4.929999           0.024172           0.067706           0.024298           0.063448
        4.934999           0.025029           0.073514           0.025198           0.069378
        4.940000           0.026136           0.079545           0.026293           0.075524
        4.944999           0.027512           0.085847           0.027609           0.081926
        4.949999           0.029191           0.092478           0.029181           0.088632
        4.954999           0.031215           0.099496           0.031053           0.095694
        4.960000           0.033644           0.106971           0.033284           0.103175
        4.964999           0.036555           0.114979           0.035945           0.111140
        4.969999           0.040051           0.123610           0.039133           0.119673
        4.975000           0.044268           0.132963           0.042973           0.128863
        4.980000           0.049386           0.143151           0.047631           0.138812
        4.985000           0.055653           0.154306           0.053331           0.149642
        4.989999           0.063399           0.166560           0.060375           0.161477
        4.995000           0.073090           0.180057           0.069186           0.174453
        5.000000           0.085368           0.194907           0.080345           0.188680
# 
# 02/28/2024 at 23:22 yambo @ unimi-XPS-8930 [start]
# 02/28/2024 at 23:22                        [end]
#  
# Timing   [Min/Max/Average]: 03s/03s/03s
#
# .-Input file  yambo.in
# | optics                           # [R] Linear Response optical properties
# | bss                              # [R] BSE solver
# | bse                              # [R][BSE] Bethe Salpeter Equation.
# | tddft                            # [R][K] Use TDDFT kernel
# | ElecTemp= 0.025861         eV    # Electronic Temperature
# | BoseTemp= 0.025861         eV    # Bosonic Temperature
# | FFTGvecs=  4935            RL    # [FFT] Plane-waves
# | BS_nCPU_LinAlg_INV= 1            # [PARALLEL] CPUs for Linear Algebra (if -1 it is automatically set)
# | BS_nCPU_LinAlg_DIAGO= 1          # [PARALLEL] CPUs for Linear Algebra (if -1 it is automatically set)
# | X_Threads= 1                     # [OPENMP/X] Number of threads for response functions
# | DIP_Threads= 1                   # [OPENMP/X] Number of threads for dipoles
# | K_Threads= 1                     # [OPENMP/BSK] Number of threads for response functions
# | BSKmod= "ALDA"                   # [BSE] IP/Hartree/HF/ALDA/SEX/BSfxc
# | BSEmod= "resonant"               # [BSE] resonant/retarded/coupling
# | BSSmod= "d"                      # [BSS] (h)aydock/(d)iagonalization/(s)lepc/(i)nversion/(t)ddft`
# | DipComputed= "R V P Spin"        # [DIP] [default R P V; extra P2 Spin Orb]
# | BSENGexx= 1                RL    # [BSK] Exchange components
# | BSENGfxc=  40              Ry    # [BSK] Fxc components
# | % BSEQptR
# |  1 | 2 |                             # [BSK] Transferred momenta range
# | %
# | % BSEBands
# |   1 |  4 |                           # [BSK] Bands range
# | %
# | % BEnRange
# | -1.000000 | 5.000000 |         eV    # [BSS] Energy range
# | %
# | % BDmRange
# |  0.020000 | 0.020000 |         eV    # [BSS] Damping range
# | %
# | BEnSteps= 1201                   # [BSS] Energy steps
# | % BLongDir
# |  1.000000 | 0.000000 | 0.000000 |        # [BSS] [cc] Electric Field versor
# | %
# | BSEprop= " jdos magn"            # [BSS] Can be any among abs/jdos/kerr/asymm/anHAll/magn/dich/photolum/esrt
# | BSEdips= "none"                  # [BSS] Can be "trace/none" or "xy/xz/yz" to define off-diagonal rotation plane
# | #WRbsWF                        # [BSS] Write to disk excitonic the WFs
