#                                                                     
#   __   __     _        __  __       ____      U  ___  u             
#   \ \ / / U  /"\  U u |" \/ "| u U | __") u    \/"_ \/              
#    \ V /   \/ _ \/   \| |\/| |/   \|  _ \/     | | | |              
#   U_|"|_u  / ___ \    | |  | |     | |_) | .-,_| |_| |              
#     |_|   /_/   \_\   |_|  |_|     |____/   \_)-\___/               
# .-,//|(_   \\    >>  <<,-,,-.     _|| \\_        \\                 
#  \_) (__) (__)  (__)  (./  \.)   (__) (__)      (__)                
#                                                                     
#                                                                     
# Version 5.2.0 Revision 23455 Hash (prev commit) 4b9e8e27e8          
#                 Branch is phys-magnons                              
#         MPI+OpenMP+SLK+SLEPC+HDF5_MPI_IO Build                      
#                http://www.yambo-code.org                            
#
# Magnons (S+-) @ Q(2):   0.00000000     0.166666657      0.00000000    [iku]
#
# [GEN] GF Energies                               : Slater exchange(X)+Perdew & Wang(C)
# [GEN] Green`s Function                          : Retarded
#
# DIP band range                                  :   1   4
# DIP band range limits                           :   4   1
# DIP e/h energy range                            :  -1.00000000     -1.00000000    [eV]
# RL vectors in the sum                           :   4935
# [r,Vnl] included                                : yes
# Bands ordered                                   : no
# Direct v evaluation                             : no
# Approach used                                   : G-space v
# Dipoles computed                                : R V P Spin
# Wavefunctions                                   : Slater exchange(X)+Perdew & Wang(C)
#
#
# [K] Identifier                                  :   6054
# [K] Q-point                                     :   0.00000000     0.166666657      0.00000000   
# [K] Dimension                                   :  288
# [K] Bands                                       :   1   4
# [K] Exchange res                                : no
# [K] Correlation res                             : no
# [K] Kernel`s coupling                           : yes
# [K] Exchange cpl                                : yes
# [K] Correlation cpl                             : no
# [K] W interaction is bare                       : no
# [K] ALDA kernel in R-space                      : yes
# [K] RL vectors exchange                         : 0
# [K] E/h energy range                            :  -1.00000000     -1.00000000    [eV]
# [K] Coupling range                              :   100.000000      100.000000    [o/o]
# [X] Response Kind                               : BAR
#
#
#    E[1] [eV]          Im(Spm)            Re(Spm)            Im(Spm_o)          Re(Spm_o)
#
       -1.000000           0.435266E-3        0.034753           0.311832E-4        0.009280
       -0.995000           0.438019E-3        0.034862           0.312369E-4        0.009288
       -0.990000           0.440799E-3        0.034972           0.312908E-4        0.009296
       -0.985000           0.443605E-3        0.035082           0.313449E-4        0.009304
       -0.980000           0.446438E-3        0.035194           0.313990E-4        0.009312
       -0.975000           0.449299E-3        0.035306           0.314534E-4        0.009320
       -0.970000           0.452187E-3        0.035418           0.315078E-4        0.009327
       -0.965000           0.455103E-3        0.035532           0.315624E-4        0.009335
       -0.960000           0.458048E-3        0.035646           0.316172E-4        0.009343
       -0.955000           0.461021E-3        0.035760           0.316721E-4        0.009351
       -0.950000           0.464023E-3        0.035876           0.317272E-4        0.009359
       -0.945000           0.467055E-3        0.035992           0.317824E-4        0.009367
       -0.940000           0.470116E-3        0.036109           0.318377E-4        0.009375
       -0.935000           0.473208E-3        0.036227           0.318932E-4        0.009383
       -0.930000           0.476331E-3        0.036346           0.319489E-4        0.009391
       -0.925000           0.479484E-3        0.036465           0.320047E-4        0.009399
       -0.920000           0.482670E-3        0.036586           0.320606E-4        0.009407
       -0.915000           0.485887E-3        0.036707           0.321167E-4        0.009415
       -0.910000           0.489136E-3        0.036829           0.321730E-4        0.009423
       -0.905000           0.492418E-3        0.036951           0.322294E-4        0.009431
       -0.900000           0.495734E-3        0.037075           0.322859E-4        0.009439
       -0.895000           0.499083E-3        0.037199           0.323426E-4        0.009447
       -0.890000           0.502466E-3        0.037324           0.323995E-4        0.009455
       -0.885000           0.505884E-3        0.037450           0.324565E-4        0.009463
       -0.880000           0.509337E-3        0.037577           0.325137E-4        0.009471
       -0.875000           0.512826E-3        0.037705           0.325710E-4        0.009480
       -0.870000           0.516350E-3        0.037833           0.326285E-4        0.009488
       -0.865000           0.519911E-3        0.037963           0.326861E-4        0.009496
       -0.860000           0.523509E-3        0.038093           0.327439E-4        0.009504
       -0.855000           0.527145E-3        0.038224           0.328018E-4        0.009512
       -0.850000           0.530819E-3        0.038357           0.328600E-4        0.009520
       -0.845000           0.534531E-3        0.038490           0.329182E-4        0.009529
       -0.840000           0.538283E-3        0.038624           0.329766E-4        0.009537
       -0.835000           0.542075E-3        0.038759           0.330352E-4        0.009545
       -0.830000           0.545906E-3        0.038895           0.330940E-4        0.009553
       -0.825000           0.549779E-3        0.039032           0.331529E-4        0.009562
       -0.820000           0.553693E-3        0.039170           0.332120E-4        0.009570
       -0.815000           0.557649E-3        0.039308           0.332712E-4        0.009578
       -0.810000           0.561648E-3        0.039448           0.333306E-4        0.009587
       -0.805000           0.565691E-3        0.039589           0.333901E-4        0.009595
       -0.800000           0.569777E-3        0.039731           0.334499E-4        0.009603
       -0.795000           0.573908E-3        0.039874           0.335097E-4        0.009612
       -0.790000           0.578084E-3        0.040018           0.335698E-4        0.009620
       -0.785000           0.582306E-3        0.040163           0.336300E-4        0.009629
       -0.780000           0.586574E-3        0.040309           0.336904E-4        0.009637
       -0.775000           0.590890E-3        0.040456           0.337510E-4        0.009645
       -0.770000           0.595254E-3        0.040604           0.338117E-4        0.009654
       -0.765000           0.599666E-3        0.040753           0.338726E-4        0.009662
       -0.760000           0.604129E-3        0.040904           0.339336E-4        0.009671
       -0.755000           0.608641E-3        0.041055           0.339949E-4        0.009679
       -0.750000           0.613204E-3        0.041208           0.340562E-4        0.009688
       -0.745000           0.617819E-3        0.041362           0.341178E-4        0.009696
       -0.740000           0.622487E-3        0.041517           0.341796E-4        0.009705
       -0.735000           0.627208E-3        0.041673           0.342415E-4        0.009713
       -0.730000           0.631983E-3        0.041830           0.343036E-4        0.009722
       -0.725000           0.636814E-3        0.041989           0.343658E-4        0.009730
       -0.720000           0.641700E-3        0.042149           0.344283E-4        0.009739
       -0.715000           0.646643E-3        0.042309           0.344909E-4        0.009748
       -0.710000           0.651643E-3        0.042472           0.345537E-4        0.009756
       -0.705000           0.656703E-3        0.042635           0.346166E-4        0.009765
       -0.700000           0.661822E-3        0.042800           0.346798E-4        0.009774
       -0.695000           0.667002E-3        0.042966           0.347431E-4        0.009782
       -0.690000           0.672243E-3        0.043133           0.348066E-4        0.009791
       -0.685000           0.677547E-3        0.043302           0.348702E-4        0.009800
       -0.680000           0.682915E-3        0.043472           0.349341E-4        0.009808
       -0.675000           0.688347E-3        0.043643           0.349982E-4        0.009817
       -0.670000           0.693844E-3        0.043816           0.350624E-4        0.009826
       -0.665000           0.699409E-3        0.043990           0.351268E-4        0.009835
       -0.660000           0.705042E-3        0.044165           0.351914E-4        0.009844
       -0.655000           0.710744E-3        0.044342           0.352561E-4        0.009852
       -0.650000           0.716517E-3        0.044521           0.353211E-4        0.009861
       -0.645000           0.722361E-3        0.044700           0.353862E-4        0.009870
       -0.640000           0.728278E-3        0.044882           0.354516E-4        0.009879
       -0.635000           0.734269E-3        0.045064           0.355171E-4        0.009888
       -0.630000           0.740337E-3        0.045248           0.355828E-4        0.009897
       -0.625000           0.746481E-3        0.045434           0.356487E-4        0.009905
       -0.620000           0.752704E-3        0.045622           0.357147E-4        0.009914
       -0.615000           0.759007E-3        0.045810           0.357810E-4        0.009923
       -0.610000           0.765392E-3        0.046001           0.358474E-4        0.009932
       -0.605000           0.771860E-3        0.046193           0.359141E-4        0.009941
       -0.600000           0.778413E-3        0.046387           0.359809E-4        0.009950
       -0.595000           0.785053E-3        0.046582           0.360479E-4        0.009959
       -0.590000           0.791783E-3        0.046779           0.361152E-4        0.009968
       -0.585000           0.798602E-3        0.046977           0.361826E-4        0.009977
       -0.580000           0.805516E-3        0.047178           0.362502E-4        0.009986
       -0.575000           0.812524E-3        0.047380           0.363180E-4        0.009995
       -0.570000           0.819630E-3        0.047584           0.363860E-4        0.010005
       -0.565000           0.826837E-3        0.047790           0.364542E-4        0.010014
       -0.560000           0.834148E-3        0.047997           0.365227E-4        0.010023
       -0.555000           0.841565E-3        0.048206           0.365912E-4        0.010032
       -0.550000           0.849093E-3        0.048418           0.366600E-4        0.010041
       -0.545000           0.856735E-3        0.048631           0.367290E-4        0.010050
       -0.540000           0.864495E-3        0.048846           0.367982E-4        0.010059
       -0.535000           0.872381E-3        0.049063           0.368676E-4        0.010069
       -0.530000           0.880396E-3        0.049281           0.369372E-4        0.010078
       -0.525000           0.888550E-3        0.049502           0.370070E-4        0.010087
       -0.520000           0.896850E-3        0.049725           0.370771E-4        0.010096
       -0.515000           0.905308E-3        0.049950           0.371472E-4        0.010106
       -0.510000           0.913936E-3        0.050178           0.372177E-4        0.010115
       -0.505000           0.922751E-3        0.050407           0.372883E-4        0.010124
       -0.500000           0.931775E-3        0.050638           0.373591E-4        0.010134
       -0.495000           0.941036E-3        0.050872           0.374302E-4        0.010143
       -0.490000           0.950572E-3        0.051108           0.375014E-4        0.010152
       -0.485000           0.960434E-3        0.051346           0.375729E-4        0.010162
       -0.480000           0.970691E-3        0.051587           0.376446E-4        0.010171
       -0.475000           0.981442E-3        0.051830           0.377165E-4        0.010180
       -0.470000           0.992826E-3        0.052076           0.377886E-4        0.010190
       -0.465000           0.001005           0.052324           0.378609E-4        0.010199
       -0.460000           0.001018           0.052574           0.379334E-4        0.010209
       -0.455000           0.001033           0.052826           0.380062E-4        0.010218
       -0.450000           0.001050           0.053080           0.380791E-4        0.010228
       -0.445000           0.001068           0.053334           0.381523E-4        0.010237
       -0.440000           0.001087           0.053586           0.382257E-4        0.010247
       -0.435000           0.001105           0.053836           0.382994E-4        0.010256
       -0.430000           0.001117           0.054086           0.383732E-4        0.010266
       -0.425000           0.001123           0.054339           0.384473E-4        0.010276
       -0.420000           0.001125           0.054599           0.385215E-4        0.010285
       -0.415000           0.001127           0.054866           0.385960E-4        0.010295
       -0.410000           0.001130           0.055139           0.386708E-4        0.010305
       -0.405000           0.001135           0.055417           0.387457E-4        0.010314
       -0.400000           0.001142           0.055698           0.388209E-4        0.010324
       -0.395000           0.001150           0.055983           0.388963E-4        0.010334
       -0.390000           0.001159           0.056270           0.389720E-4        0.010343
       -0.385000           0.001169           0.056559           0.390478E-4        0.010353
       -0.380000           0.001179           0.056852           0.391239E-4        0.010363
       -0.375000           0.001190           0.057148           0.392002E-4        0.010373
       -0.370000           0.001202           0.057446           0.392768E-4        0.010383
       -0.365000           0.001214           0.057748           0.393536E-4        0.010392
       -0.360000           0.001226           0.058052           0.394306E-4        0.010402
       -0.355000           0.001239           0.058360           0.395078E-4        0.010412
       -0.350000           0.001251           0.058671           0.395853E-4        0.010422
       -0.345000           0.001264           0.058985           0.396631E-4        0.010432
       -0.340000           0.001278           0.059302           0.397410E-4        0.010442
       -0.335000           0.001291           0.059623           0.398192E-4        0.010452
       -0.330000           0.001305           0.059947           0.398977E-4        0.010462
       -0.325000           0.001319           0.060275           0.399764E-4        0.010472
       -0.320000           0.001334           0.060606           0.400553E-4        0.010482
       -0.315000           0.001348           0.060941           0.401345E-4        0.010492
       -0.310000           0.001363           0.061279           0.402139E-4        0.010502
       -0.305000           0.001379           0.061622           0.402935E-4        0.010512
       -0.300000           0.001394           0.061968           0.403734E-4        0.010522
       -0.295000           0.001410           0.062318           0.404536E-4        0.010532
       -0.290000           0.001426           0.062672           0.405340E-4        0.010542
       -0.285000           0.001442           0.063030           0.406147E-4        0.010552
       -0.280000           0.001459           0.063393           0.406955E-4        0.010562
       -0.275000           0.001476           0.063759           0.407767E-4        0.010573
       -0.270000           0.001493           0.064130           0.408581E-4        0.010583
       -0.265000           0.001510           0.064505           0.409397E-4        0.010593
       -0.260000           0.001528           0.064884           0.410217E-4        0.010603
       -0.255000           0.001546           0.065268           0.411038E-4        0.010614
       -0.250000           0.001565           0.065656           0.411863E-4        0.010624
       -0.245000           0.001584           0.066049           0.412689E-4        0.010634
       -0.240000           0.001603           0.066447           0.413519E-4        0.010644
       -0.235000           0.001622           0.066850           0.414351E-4        0.010655
       -0.230000           0.001642           0.067258           0.415186E-4        0.010665
       -0.225000           0.001663           0.067670           0.416022E-4        0.010676
       -0.220000           0.001683           0.068088           0.416863E-4        0.010686
       -0.215000           0.001704           0.068511           0.417705E-4        0.010696
       -0.210000           0.001726           0.068939           0.418550E-4        0.010707
       -0.205000           0.001748           0.069372           0.419398E-4        0.010717
       -0.200000           0.001770           0.069812           0.420249E-4        0.010728
       -0.195000           0.001793           0.070256           0.421102E-4        0.010738
       -0.190000           0.001816           0.070707           0.421958E-4        0.010749
       -0.185000           0.001839           0.071163           0.422817E-4        0.010759
       -0.180000           0.001863           0.071625           0.423678E-4        0.010770
       -0.175000           0.001888           0.072093           0.424542E-4        0.010781
       -0.170000           0.001913           0.072568           0.425409E-4        0.010791
       -0.165000           0.001938           0.073049           0.426279E-4        0.010802
       -0.160000           0.001965           0.073536           0.427152E-4        0.010813
       -0.155000           0.001991           0.074029           0.428027E-4        0.010823
       -0.150000           0.002018           0.074530           0.428905E-4        0.010834
       -0.145000           0.002046           0.075037           0.429786E-4        0.010845
       -0.140000           0.002074           0.075551           0.430669E-4        0.010855
       -0.135000           0.002103           0.076073           0.431556E-4        0.010866
       -0.130000           0.002132           0.076601           0.432446E-4        0.010877
       -0.125000           0.002163           0.077137           0.433338E-4        0.010888
       -0.120000           0.002193           0.077681           0.434233E-4        0.010899
       -0.115000           0.002225           0.078232           0.435132E-4        0.010910
       -0.110000           0.002257           0.078791           0.436033E-4        0.010920
       -0.105000           0.002289           0.079359           0.436937E-4        0.010931
       -0.100000           0.002323           0.079934           0.437844E-4        0.010942
       -0.095000           0.002357           0.080518           0.438753E-4        0.010953
       -0.090000           0.002392           0.081111           0.439666E-4        0.010964
       -0.085000           0.002428           0.081712           0.440582E-4        0.010975
       -0.080000           0.002464           0.082323           0.441501E-4        0.010986
       -0.075000           0.002502           0.082942           0.442423E-4        0.010997
       -0.070000           0.002540           0.083571           0.443348E-4        0.011008
       -0.065000           0.002579           0.084210           0.444276E-4        0.011020
       -0.060000           0.002619           0.084859           0.445207E-4        0.011031
       -0.055000           0.002660           0.085517           0.446141E-4        0.011042
       -0.050000           0.002702           0.086186           0.447078E-4        0.011053
       -0.045000           0.002745           0.086866           0.448019E-4        0.011064
       -0.040000           0.002789           0.087556           0.448962E-4        0.011075
       -0.035000           0.002834           0.088258           0.449909E-4        0.011087
       -0.030000           0.002881           0.088971           0.450859E-4        0.011098
       -0.025000           0.002928           0.089695           0.451811E-4        0.011109
       -0.020000           0.002976           0.090432           0.452767E-4        0.011120
       -0.015000           0.003026           0.091180           0.453727E-4        0.011132
       -0.010000           0.003077           0.091941           0.454689E-4        0.011143
       -0.005000           0.003129           0.092715           0.455655E-4        0.011154
       -0.101370E-6        0.003183           0.093503           0.456624E-4        0.011166
        0.005000           0.003238           0.094303           0.457596E-4        0.011177
        0.010000           0.003294           0.095118           0.458572E-4        0.011189
        0.015000           0.003352           0.095947           0.459551E-4        0.011200
        0.020000           0.003412           0.096790           0.460533E-4        0.011212
        0.025000           0.003473           0.097649           0.461518E-4        0.011223
        0.030000           0.003536           0.098522           0.462507E-4        0.011235
        0.035000           0.003600           0.099412           0.463499E-4        0.011246
        0.040000           0.003666           0.100318           0.464495E-4        0.011258
        0.045000           0.003734           0.101240           0.465493E-4        0.011270
        0.050000           0.003804           0.102180           0.466496E-4        0.011281
        0.055000           0.003876           0.103137           0.467502E-4        0.011293
        0.060000           0.003950           0.104113           0.468511E-4        0.011305
        0.065000           0.004027           0.105107           0.469524E-4        0.011316
        0.070000           0.004105           0.106120           0.470540E-4        0.011328
        0.075000           0.004186           0.107154           0.471560E-4        0.011340
        0.080000           0.004269           0.108207           0.472583E-4        0.011352
        0.085000           0.004354           0.109281           0.473610E-4        0.011364
        0.090000           0.004443           0.110378           0.474640E-4        0.011375
        0.095000           0.004534           0.111496           0.475674E-4        0.011387
        0.100000           0.004627           0.112637           0.476712E-4        0.011399
        0.105000           0.004724           0.113802           0.477753E-4        0.011411
        0.110000           0.004824           0.114991           0.478798E-4        0.011423
        0.115000           0.004927           0.116206           0.479847E-4        0.011435
        0.120000           0.005033           0.117446           0.480899E-4        0.011447
        0.125000           0.005143           0.118713           0.481955E-4        0.011459
        0.130000           0.005256           0.120008           0.483015E-4        0.011471
        0.135000           0.005373           0.121331           0.484078E-4        0.011483
        0.140000           0.005494           0.122684           0.485146E-4        0.011495
        0.145000           0.005620           0.124068           0.486217E-4        0.011507
        0.150000           0.005749           0.125483           0.487292E-4        0.011520
        0.155000           0.005883           0.126931           0.488371E-4        0.011532
        0.160000           0.006022           0.128412           0.489454E-4        0.011544
        0.165000           0.006166           0.129929           0.490540E-4        0.011556
        0.170000           0.006315           0.131482           0.491630E-4        0.011569
        0.175000           0.006470           0.133072           0.492725E-4        0.011581
        0.180000           0.006630           0.134702           0.493824E-4        0.011593
        0.185000           0.006796           0.136372           0.494927E-4        0.011606
        0.190000           0.006969           0.138084           0.496033E-4        0.011618
        0.195000           0.007148           0.139839           0.497144E-4        0.011630
        0.200000           0.007335           0.141640           0.498259E-4        0.011643
        0.205000           0.007528           0.143487           0.499378E-4        0.011655
        0.210000           0.007730           0.145384           0.500502E-4        0.011668
        0.215000           0.007939           0.147331           0.501629E-4        0.011680
        0.220000           0.008158           0.149331           0.502760E-4        0.011693
        0.225000           0.008385           0.151386           0.503897E-4        0.011705
        0.230000           0.008622           0.153498           0.505037E-4        0.011718
        0.235000           0.008869           0.155671           0.506182E-4        0.011731
        0.240000           0.009127           0.157905           0.507331E-4        0.011743
        0.245000           0.009397           0.160205           0.508485E-4        0.011756
        0.250000           0.009678           0.162572           0.509644E-4        0.011769
        0.255000           0.009973           0.165011           0.510807E-4        0.011782
        0.260000           0.010281           0.167523           0.511975E-4        0.011794
        0.265000           0.010603           0.170113           0.513147E-4        0.011807
        0.270000           0.010941           0.172785           0.514324E-4        0.011820
        0.275000           0.011295           0.175541           0.515507E-4        0.011833
        0.280000           0.011667           0.178387           0.516694E-4        0.011846
        0.285000           0.012057           0.181326           0.517886E-4        0.011859
        0.290000           0.012468           0.184364           0.519084E-4        0.011872
        0.295000           0.012899           0.187505           0.520286E-4        0.011885
        0.300000           0.013353           0.190754           0.521495E-4        0.011898
        0.305000           0.013832           0.194118           0.522708E-4        0.011911
        0.310000           0.014337           0.197602           0.523928E-4        0.011924
        0.315000           0.014870           0.201213           0.525152E-4        0.011937
        0.320000           0.015433           0.204958           0.526384E-4        0.011950
        0.325000           0.016029           0.208845           0.527622E-4        0.011963
        0.330000           0.016659           0.212881           0.528866E-4        0.011976
        0.335000           0.017328           0.217076           0.530116E-4        0.011990
        0.340000           0.018038           0.221438           0.531374E-4        0.012003
        0.345000           0.018792           0.225979           0.532640E-4        0.012016
        0.350000           0.019594           0.230708           0.533913E-4        0.012030
        0.355000           0.020449           0.235639           0.535195E-4        0.012043
        0.360000           0.021361           0.240784           0.536486E-4        0.012056
        0.365000           0.022335           0.246157           0.537787E-4        0.012070
        0.370000           0.023377           0.251773           0.539099E-4        0.012083
        0.375000           0.024493           0.257650           0.540423E-4        0.012097
        0.380000           0.025691           0.263806           0.541760E-4        0.012110
        0.385000           0.026979           0.270260           0.543111E-4        0.012124
        0.390000           0.028365           0.277036           0.544480E-4        0.012137
        0.395000           0.029862           0.284156           0.545868E-4        0.012151
        0.400000           0.031479           0.291648           0.547280E-4        0.012165
        0.405000           0.033231           0.299542           0.548718E-4        0.012178
        0.410000           0.035132           0.307870           0.550190E-4        0.012192
        0.415000           0.037201           0.316668           0.551702E-4        0.012206
        0.420000           0.039456           0.325976           0.553264E-4        0.012220
        0.425000           0.041923           0.335840           0.554889E-4        0.012234
        0.430000           0.044627           0.346310           0.556598E-4        0.012247
        0.435000           0.047599           0.357442           0.558414E-4        0.012261
        0.440000           0.050877           0.369300           0.560376E-4        0.012275
        0.445000           0.054503           0.381955           0.562536E-4        0.012289
        0.450000           0.058527           0.395490           0.564968E-4        0.012303
        0.455000           0.063011           0.409994           0.567773E-4        0.012317
        0.460000           0.068026           0.425574           0.571080E-4        0.012331
        0.465000           0.073658           0.442351           0.575009E-4        0.012345
        0.470000           0.080012           0.460460           0.579550E-4        0.012360
        0.475000           0.087216           0.480063           0.584289E-4        0.012373
        0.480000           0.095425           0.501341           0.588139E-4        0.012387
        0.485000           0.104834           0.524507           0.589812E-4        0.012401
        0.490000           0.115684           0.549810           0.589126E-4        0.012415
        0.495000           0.128279           0.577538           0.587236E-4        0.012429
        0.500000           0.143007           0.608028           0.585355E-4        0.012443
        0.505000           0.160366           0.641672           0.584042E-4        0.012457
        0.510000           0.181006           0.678930           0.583367E-4        0.012472
        0.515000           0.205781           0.720331           0.583225E-4        0.012486
        0.520000           0.235833           0.766481           0.583485E-4        0.012501
        0.525000           0.272708           0.818052           0.584038E-4        0.012515
        0.530000           0.318524           0.875752           0.584804E-4        0.012530
        0.535000           0.376230           0.940240           0.585728E-4        0.012544
        0.540000           0.449977           1.011933           0.586768E-4        0.012559
        0.545000           0.545667           1.090589           0.587897E-4        0.012574
        0.550000           0.671676           1.174396           0.589095E-4        0.012588
        0.555000           0.839705           1.258129           0.590348E-4        0.012603
        0.560000           1.065111           1.329431           0.591644E-4        0.012618
        0.565000           1.364740           1.362071           0.592977E-4        0.012633
        0.570000           1.746683           1.306432           0.594340E-4        0.012647
        0.575000           2.182493           1.086624           0.595729E-4        0.012662
        0.580000           2.565579           0.635855           0.597141E-4        0.012677
        0.585000           2.722818          -0.005907           0.598572E-4        0.012692
        0.590000           2.559734          -0.645447           0.600022E-4        0.012707
        0.595000           2.174047          -1.091589           0.601488E-4        0.012722
        0.600000           1.738572          -1.307429           0.602970E-4        0.012737
        0.605000           1.358135          -1.360704           0.604465E-4        0.012752
        0.610000           1.060076          -1.326933           0.605974E-4        0.012767
        0.615000           0.835941          -1.255196           0.607496E-4        0.012783
        0.620000           0.668857          -1.171370           0.609031E-4        0.012798
        0.625000           0.543532          -1.087620           0.610578E-4        0.012813
        0.630000           0.448340          -1.009082           0.612137E-4        0.012828
        0.635000           0.374957          -0.937520           0.613709E-4        0.012844
        0.640000           0.317521          -0.873161           0.615292E-4        0.012859
        0.645000           0.271909          -0.815583           0.616889E-4        0.012874
        0.650000           0.235190          -0.764120           0.618498E-4        0.012890
        0.655000           0.205257          -0.718067           0.620119E-4        0.012905
        0.660000           0.180575          -0.676749           0.621755E-4        0.012921
        0.665000           0.160010          -0.639563           0.623404E-4        0.012936
        0.670000           0.142710          -0.605981           0.625069E-4        0.012952
        0.675000           0.128030          -0.575545           0.626749E-4        0.012968
        0.680000           0.115475          -0.547864           0.628447E-4        0.012983
        0.685000           0.104659          -0.522600           0.630164E-4        0.012999
        0.690000           0.095279          -0.499466           0.631900E-4        0.013015
        0.695000           0.087094          -0.478217           0.633659E-4        0.013031
        0.700000           0.079912          -0.458639           0.635445E-4        0.013047
        0.705000           0.073577          -0.440549           0.637260E-4        0.013062
        0.710000           0.067963          -0.423789           0.639111E-4        0.013078
        0.715000           0.062966          -0.408222           0.641005E-4        0.013094
        0.720000           0.058499          -0.393727           0.642951E-4        0.013110
        0.725000           0.054492          -0.380200           0.644964E-4        0.013127
        0.730000           0.050885          -0.367548           0.647056E-4        0.013143
        0.735000           0.047629          -0.355692           0.649240E-4        0.013159
        0.740000           0.044681          -0.344559           0.651510E-4        0.013175
        0.745000           0.042009          -0.334087           0.653812E-4        0.013191
        0.750000           0.039581          -0.324223           0.656050E-4        0.013208
        0.755000           0.037375          -0.314919           0.658165E-4        0.013224
        0.760000           0.035367          -0.306140           0.660223E-4        0.013240
        0.765000           0.033531          -0.297856           0.662355E-4        0.013257
        0.770000           0.031831          -0.290039           0.664663E-4        0.013273
        0.775000           0.030228          -0.282643           0.667213E-4        0.013290
        0.780000           0.028702          -0.275610           0.670056E-4        0.013307
        0.785000           0.027260          -0.268891           0.673260E-4        0.013323
        0.790000           0.025916          -0.262461           0.676925E-4        0.013340
        0.795000           0.024670          -0.256309           0.681202E-4        0.013357
        0.800000           0.023518          -0.250426           0.686307E-4        0.013374
        0.805000           0.022450          -0.244797           0.692548E-4        0.013391
        0.810000           0.021457          -0.239411           0.700321E-4        0.013408
        0.815000           0.020532          -0.234253           0.710043E-4        0.013425
        0.820000           0.019668          -0.229308           0.721849E-4        0.013441
        0.825000           0.018859          -0.224565           0.734801E-4        0.013458
        0.830000           0.018101          -0.220011           0.745882E-4        0.013473
        0.835000           0.017389          -0.215636           0.750692E-4        0.013489
        0.840000           0.016719          -0.211428           0.747453E-4        0.013504
        0.845000           0.016089          -0.207378           0.739183E-4        0.013520
        0.850000           0.015495          -0.203478           0.730166E-4        0.013537
        0.855000           0.014934          -0.199719           0.722749E-4        0.013554
        0.860000           0.014404          -0.196093           0.717437E-4        0.013571
        0.865000           0.013904          -0.192593           0.713958E-4        0.013589
        0.870000           0.013432          -0.189212           0.711883E-4        0.013607
        0.875000           0.012985          -0.185945           0.710834E-4        0.013624
        0.880000           0.012562          -0.182784           0.710532E-4        0.013642
        0.885000           0.012163          -0.179725           0.710774E-4        0.013659
        0.890000           0.011786          -0.176762           0.711419E-4        0.013677
        0.895000           0.011432          -0.173890           0.712369E-4        0.013695
        0.900000           0.011098          -0.171104           0.713552E-4        0.013713
        0.905000           0.010787          -0.168401           0.714918E-4        0.013731
        0.910000           0.010499          -0.165775           0.716430E-4        0.013748
        0.915000           0.010236          -0.163224           0.718061E-4        0.013766
        0.920000           0.010001          -0.160745           0.719791E-4        0.013784
        0.925000           0.009798          -0.158337           0.721605E-4        0.013802
        0.930000           0.009634          -0.156003           0.723492E-4        0.013820
        0.935000           0.009517          -0.153753           0.725443E-4        0.013838
        0.940000           0.009447          -0.151608           0.727450E-4        0.013857
        0.945000           0.009410          -0.149601           0.729511E-4        0.013875
        0.950000           0.009353          -0.147758           0.731619E-4        0.013893
        0.955000           0.009195          -0.146052           0.733774E-4        0.013911
        0.960000           0.008901          -0.144389           0.735973E-4        0.013930
        0.965000           0.008519          -0.142684           0.738215E-4        0.013948
        0.970000           0.008128          -0.140924           0.740499E-4        0.013967
        0.975000           0.007771          -0.139140           0.742826E-4        0.013985
        0.980000           0.007459          -0.137364           0.745195E-4        0.014004
        0.985000           0.007187          -0.135614           0.747609E-4        0.014022
        0.990000           0.006947          -0.133902           0.750069E-4        0.014041
        0.995000           0.006732          -0.132230           0.752575E-4        0.014060
        1.000000           0.006536          -0.130599           0.755132E-4        0.014079
        1.005000           0.006355          -0.129009           0.757742E-4        0.014098
        1.010000           0.006186          -0.127459           0.760411E-4        0.014117
        1.015000           0.006028          -0.125946           0.763143E-4        0.014136
        1.020000           0.005878          -0.124469           0.765943E-4        0.014155
        1.025000           0.005736          -0.123028           0.768822E-4        0.014174
        1.030000           0.005601          -0.121620           0.771789E-4        0.014193
        1.035000           0.005472          -0.120243           0.774858E-4        0.014213
        1.040000           0.005349          -0.118898           0.778046E-4        0.014232
        1.045000           0.005231          -0.117582           0.781377E-4        0.014251
        1.050000           0.005117          -0.116295           0.784884E-4        0.014271
        1.055000           0.005008          -0.115035           0.788610E-4        0.014291
        1.060000           0.004903          -0.113802           0.792616E-4        0.014310
        1.065000           0.004802          -0.112594           0.796988E-4        0.014330
        1.070000           0.004705          -0.111411           0.801838E-4        0.014350
        1.075000           0.004612          -0.110251           0.807301E-4        0.014370
        1.080000           0.004522          -0.109114           0.813483E-4        0.014390
        1.085000           0.004435          -0.107999           0.820312E-4        0.014410
        1.090000           0.004352          -0.106905           0.827228E-4        0.014430
        1.095000           0.004272          -0.105831           0.833047E-4        0.014449
        1.100000           0.004195          -0.104777           0.836720E-4        0.014469
        1.105000           0.004122          -0.103742           0.838521E-4        0.014489
        1.110000           0.004051          -0.102725           0.839732E-4        0.014510
        1.115000           0.003985          -0.101726           0.841387E-4        0.014530
        1.120000           0.003921          -0.100743           0.843884E-4        0.014551
        1.125000           0.003862          -0.099775           0.847254E-4        0.014572
        1.130000           0.003807          -0.098823           0.851416E-4        0.014593
        1.135000           0.003756          -0.097884           0.856296E-4        0.014614
        1.140000           0.003711          -0.096959           0.861850E-4        0.014636
        1.145000           0.003671          -0.096047           0.868073E-4        0.014657
        1.150000           0.003640          -0.095145           0.874996E-4        0.014679
        1.155000           0.003617          -0.094255           0.882677E-4        0.014701
        1.160000           0.003606          -0.093374           0.891206E-4        0.014723
        1.165000           0.003611          -0.092502           0.900712E-4        0.014745
        1.170000           0.003636          -0.091640           0.911356E-4        0.014768
        1.175000           0.003690          -0.090791           0.923351E-4        0.014790
        1.180000           0.003781          -0.089961           0.936970E-4        0.014813
        1.185000           0.003922          -0.089164           0.952564E-4        0.014837
        1.190000           0.004120          -0.088429           0.970591E-4        0.014860
        1.195000           0.004367          -0.087805           0.991649E-4        0.014884
        1.200000           0.004604          -0.087343           0.101653E-3        0.014909
        1.205000           0.004718          -0.087044           0.104631E-3        0.014934
        1.210000           0.004618          -0.086795           0.108243E-3        0.014959
        1.215000           0.004337          -0.086451           0.112688E-3        0.014985
        1.220000           0.003993          -0.085956           0.118247E-3        0.015012
        1.225000           0.003676          -0.085343           0.125313E-3        0.015039
        1.230000           0.003415          -0.084669           0.134447E-3        0.015067
        1.235000           0.003208          -0.083972           0.146444E-3        0.015096
        1.240000           0.003045          -0.083273           0.162399E-3        0.015124
        1.245000           0.002914          -0.082581           0.183704E-3        0.015151
        1.250000           0.002807          -0.081902           0.211720E-3        0.015174
        1.255000           0.002717          -0.081237           0.246546E-3        0.015187
        1.260000           0.002640          -0.080585           0.284108E-3        0.015184
        1.265000           0.002572          -0.079947           0.313011E-3        0.015161
        1.270000           0.002512          -0.079322           0.318726E-3        0.015126
        1.275000           0.002459          -0.078708           0.297887E-3        0.015097
        1.280000           0.002409          -0.078106           0.262463E-3        0.015087
        1.285000           0.002364          -0.077515           0.226277E-3        0.015095
        1.290000           0.002323          -0.076933           0.196033E-3        0.015115
        1.295000           0.002284          -0.076362           0.172807E-3        0.015141
        1.300000           0.002248          -0.075799           0.155499E-3        0.015170
        1.305000           0.002215          -0.075245           0.142660E-3        0.015199
        1.310000           0.002184          -0.074699           0.133069E-3        0.015229
        1.315000           0.002155          -0.074160           0.125822E-3        0.015258
        1.320000           0.002130          -0.073629           0.120277E-3        0.015286
        1.325000           0.002108          -0.073105           0.115980E-3        0.015314
        1.330000           0.002089          -0.072588           0.112615E-3        0.015341
        1.335000           0.002076          -0.072077           0.109953E-3        0.015368
        1.340000           0.002069          -0.071573           0.107830E-3        0.015395
        1.345000           0.002069          -0.071078           0.106127E-3        0.015421
        1.350000           0.002081          -0.070594           0.104755E-3        0.015447
        1.355000           0.002103          -0.070128           0.103646E-3        0.015472
        1.360000           0.002134          -0.069689           0.102749E-3        0.015498
        1.365000           0.002161          -0.069285           0.102026E-3        0.015523
        1.370000           0.002160          -0.068915           0.101445E-3        0.015549
        1.375000           0.002119          -0.068552           0.100983E-3        0.015574
        1.380000           0.002047          -0.068172           0.100620E-3        0.015599
        1.385000           0.001967          -0.067767           0.100340E-3        0.015624
        1.390000           0.001894          -0.067345           0.100132E-3        0.015649
        1.395000           0.001832          -0.066917           0.999845E-4        0.015674
        1.400000           0.001781          -0.066488           0.998899E-4        0.015699
        1.405000           0.001737          -0.066063           0.998411E-4        0.015723
        1.410000           0.001700          -0.065643           0.998324E-4        0.015748
        1.415000           0.001667          -0.065229           0.998590E-4        0.015773
        1.420000           0.001638          -0.064821           0.999168E-4        0.015798
        1.425000           0.001611          -0.064418           0.100003E-3        0.015823
        1.430000           0.001586          -0.064021           0.100114E-3        0.015848
        1.435000           0.001563          -0.063630           0.100247E-3        0.015873
        1.440000           0.001541          -0.063244           0.100402E-3        0.015898
        1.445000           0.001520          -0.062862           0.100576E-3        0.015923
        1.450000           0.001499          -0.062486           0.100768E-3        0.015948
        1.455000           0.001480          -0.062115           0.100978E-3        0.015974
        1.460000           0.001461          -0.061748           0.101205E-3        0.015999
        1.465000           0.001443          -0.061386           0.101449E-3        0.016024
        1.470000           0.001425          -0.061028           0.101710E-3        0.016050
        1.475000           0.001408          -0.060674           0.101991E-3        0.016075
        1.480000           0.001392          -0.060325           0.102293E-3        0.016101
        1.485000           0.001375          -0.059980           0.102622E-3        0.016126
        1.490000           0.001360          -0.059638           0.102981E-3        0.016152
        1.495000           0.001344          -0.059301           0.103377E-3        0.016177
        1.500000           0.001329          -0.058967           0.103813E-3        0.016203
        1.505000           0.001314          -0.058637           0.104279E-3        0.016229
        1.510000           0.001299          -0.058311           0.104735E-3        0.016255
        1.515000           0.001285          -0.057988           0.105112E-3        0.016280
        1.520000           0.001271          -0.057669           0.105371E-3        0.016306
        1.525000           0.001258          -0.057353           0.105547E-3        0.016332
        1.530000           0.001244          -0.057041           0.105708E-3        0.016358
        1.535000           0.001231          -0.056732           0.105895E-3        0.016384
        1.540000           0.001218          -0.056426           0.106120E-3        0.016411
        1.545000           0.001205          -0.056124           0.106380E-3        0.016437
        1.550000           0.001193          -0.055824           0.106669E-3        0.016464
        1.555000           0.001181          -0.055528           0.106980E-3        0.016491
        1.560000           0.001169          -0.055234           0.107309E-3        0.016517
        1.565000           0.001157          -0.054944           0.107653E-3        0.016544
        1.570000           0.001145          -0.054656           0.108008E-3        0.016571
        1.575000           0.001134          -0.054372           0.108374E-3        0.016598
        1.580000           0.001123          -0.054090           0.108749E-3        0.016625
        1.585000           0.001112          -0.053811           0.109133E-3        0.016652
        1.590000           0.001101          -0.053535           0.109525E-3        0.016680
        1.595000           0.001090          -0.053261           0.109924E-3        0.016707
        1.600000           0.001080          -0.052990           0.110331E-3        0.016735
        1.605000           0.001070          -0.052722           0.110745E-3        0.016762
        1.610000           0.001060          -0.052456           0.111166E-3        0.016790
        1.615000           0.001050          -0.052192           0.111595E-3        0.016818
        1.620000           0.001041          -0.051931           0.112030E-3        0.016846
        1.625000           0.001032          -0.051672           0.112473E-3        0.016874
        1.630000           0.001023          -0.051416           0.112924E-3        0.016902
        1.635000           0.001014          -0.051162           0.113382E-3        0.016930
        1.640000           0.001006          -0.050910           0.113848E-3        0.016959
        1.645000           0.997886E-3       -0.050660           0.114323E-3        0.016987
        1.650000           0.990492E-3       -0.050413           0.114806E-3        0.017016
        1.655000           0.983740E-3       -0.050167           0.115298E-3        0.017045
        1.660000           0.977795E-3       -0.049924           0.115800E-3        0.017073
        1.665000           0.972818E-3       -0.049684           0.116311E-3        0.017102
        1.670000           0.968803E-3       -0.049447           0.116833E-3        0.017132
        1.675000           0.965222E-3       -0.049214           0.117365E-3        0.017161
        1.680000           0.960667E-3       -0.048985           0.117910E-3        0.017190
        1.685000           0.953431E-3       -0.048760           0.118467E-3        0.017220
        1.690000           0.943233E-3       -0.048536           0.119038E-3        0.017249
        1.695000           0.931570E-3       -0.048311           0.119623E-3        0.017279
        1.700000           0.920061E-3       -0.048086           0.120224E-3        0.017309
        1.705000           0.909463E-3       -0.047861           0.120843E-3        0.017339
        1.710000           0.899885E-3       -0.047637           0.121480E-3        0.017370
        1.715000           0.891198E-3       -0.047415           0.122138E-3        0.017400
        1.720000           0.883239E-3       -0.047195           0.122819E-3        0.017431
        1.725000           0.875877E-3       -0.046976           0.123526E-3        0.017461
        1.730000           0.869018E-3       -0.046758           0.124261E-3        0.017492
        1.735000           0.862605E-3       -0.046542           0.125029E-3        0.017523
        1.740000           0.856606E-3       -0.046328           0.125834E-3        0.017555
        1.745000           0.851008E-3       -0.046115           0.126682E-3        0.017586
        1.750000           0.845815E-3       -0.045904           0.127580E-3        0.017618
        1.755000           0.841044E-3       -0.045694           0.128536E-3        0.017650
        1.760000           0.836729E-3       -0.045485           0.129561E-3        0.017682
        1.765000           0.832915E-3       -0.045277           0.130670E-3        0.017714
        1.770000           0.829665E-3       -0.045070           0.131881E-3        0.017747
        1.775000           0.827061E-3       -0.044863           0.133218E-3        0.017780
        1.780000           0.825212E-3       -0.044658           0.134714E-3        0.017813
        1.785000           0.824258E-3       -0.044453           0.136413E-3        0.017847
        1.790000           0.824382E-3       -0.044249           0.138377E-3        0.017881
        1.795000           0.825825E-3       -0.044045           0.140693E-3        0.017915
        1.800000           0.828906E-3       -0.043841           0.143483E-3        0.017949
        1.805000           0.834054E-3       -0.043636           0.146916E-3        0.017984
        1.810000           0.841852E-3       -0.043432           0.151221E-3        0.018019
        1.815000           0.853105E-3       -0.043226           0.156668E-3        0.018054
        1.820000           0.868934E-3       -0.043019           0.163462E-3        0.018088
        1.825000           0.890924E-3       -0.042812           0.171409E-3        0.018120
        1.830000           0.921328E-3       -0.042603           0.179289E-3        0.018149
        1.835000           0.963342E-3       -0.042394           0.184612E-3        0.018175
        1.840000           0.001021          -0.042187           0.185270E-3        0.018200
        1.845000           0.001101          -0.041987           0.181951E-3        0.018229
        1.850000           0.001209          -0.041804           0.177318E-3        0.018261
        1.855000           0.001345          -0.041659           0.173443E-3        0.018296
        1.860000           0.001496          -0.041580           0.171091E-3        0.018334
        1.865000           0.001618          -0.041586           0.170301E-3        0.018373
        1.870000           0.001649          -0.041652           0.170907E-3        0.018413
        1.875000           0.001566          -0.041704           0.172766E-3        0.018454
        1.880000           0.001416          -0.041680           0.175821E-3        0.018496
        1.885000           0.001257          -0.041578           0.180118E-3        0.018538
        1.890000           0.001121          -0.041425           0.185811E-3        0.018582
        1.895000           0.001015          -0.041246           0.193180E-3        0.018626
        1.900000           0.934622E-3       -0.041056           0.202660E-3        0.018672
        1.905000           0.873457E-3       -0.040865           0.214904E-3        0.018719
        1.910000           0.826434E-3       -0.040675           0.230861E-3        0.018767
        1.915000           0.789631E-3       -0.040488           0.251897E-3        0.018815
        1.920000           0.760257E-3       -0.040305           0.279922E-3        0.018864
        1.925000           0.736348E-3       -0.040125           0.317423E-3        0.018911
        1.930000           0.716522E-3       -0.039949           0.367027E-3        0.018951
        1.935000           0.699797E-3       -0.039777           0.429635E-3        0.018976
        1.940000           0.685465E-3       -0.039607           0.499626E-3        0.018973
        1.945000           0.673009E-3       -0.039439           0.558416E-3        0.018934
        1.950000           0.662052E-3       -0.039274           0.578444E-3        0.018867
        1.955000           0.652311E-3       -0.039112           0.547944E-3        0.018804
        1.960000           0.643575E-3       -0.038951           0.485300E-3        0.018775
        1.965000           0.635687E-3       -0.038792           0.417465E-3        0.018781
        1.970000           0.628531E-3       -0.038635           0.359418E-3        0.018812
        1.975000           0.622024E-3       -0.038480           0.314513E-3        0.018856
        1.980000           0.616114E-3       -0.038326           0.281101E-3        0.018906
        1.985000           0.610778E-3       -0.038173           0.256495E-3        0.018957
        1.990000           0.606021E-3       -0.038022           0.238336E-3        0.019009
        1.995000           0.601885E-3       -0.037872           0.224856E-3        0.019059
        2.000000           0.598454E-3       -0.037724           0.214797E-3        0.019109
        2.005000           0.595859E-3       -0.037576           0.207278E-3        0.019159
        2.010000           0.594268E-3       -0.037430           0.201691E-3        0.019207
        2.015000           0.593806E-3       -0.037286           0.197609E-3        0.019255
        2.020000           0.594320E-3       -0.037145           0.194742E-3        0.019302
        2.025000           0.594921E-3       -0.037007           0.192893E-3        0.019349
        2.030000           0.593781E-3       -0.036873           0.191940E-3        0.019396
        2.035000           0.589305E-3       -0.036740           0.191822E-3        0.019443
        2.040000           0.581910E-3       -0.036607           0.192533E-3        0.019490
        2.045000           0.573502E-3       -0.036472           0.194127E-3        0.019537
        2.050000           0.565586E-3       -0.036335           0.196724E-3        0.019584
        2.055000           0.558701E-3       -0.036199           0.200534E-3        0.019631
        2.060000           0.552838E-3       -0.036062           0.205881E-3        0.019679
        2.065000           0.547815E-3       -0.035926           0.213249E-3        0.019727
        2.070000           0.543451E-3       -0.035791           0.223325E-3        0.019775
        2.075000           0.539601E-3       -0.035656           0.236999E-3        0.019821
        2.080000           0.536164E-3       -0.035522           0.255178E-3        0.019866
        2.085000           0.533069E-3       -0.035389           0.278027E-3        0.019904
        2.090000           0.530270E-3       -0.035256           0.303125E-3        0.019932
        2.095000           0.527735E-3       -0.035125           0.323279E-3        0.019947
        2.100000           0.525447E-3       -0.034993           0.328724E-3        0.019953
        2.105000           0.523395E-3       -0.034862           0.316403E-3        0.019962
        2.110000           0.521576E-3       -0.034732           0.293730E-3        0.019984
        2.115000           0.519993E-3       -0.034602           0.270078E-3        0.020018
        2.120000           0.518654E-3       -0.034473           0.250250E-3        0.020061
        2.125000           0.517571E-3       -0.034344           0.235143E-3        0.020108
        2.130000           0.516762E-3       -0.034215           0.224078E-3        0.020157
        2.135000           0.516245E-3       -0.034086           0.216090E-3        0.020206
        2.140000           0.516051E-3       -0.033957           0.210355E-3        0.020256
        2.145000           0.516209E-3       -0.033829           0.206259E-3        0.020306
        2.150000           0.516761E-3       -0.033700           0.203365E-3        0.020355
        2.155000           0.517754E-3       -0.033572           0.201366E-3        0.020404
        2.160000           0.519245E-3       -0.033443           0.200048E-3        0.020454
        2.165000           0.521304E-3       -0.033314           0.199255E-3        0.020503
        2.170000           0.524013E-3       -0.033184           0.198880E-3        0.020552
        2.175000           0.527477E-3       -0.033054           0.198842E-3        0.020601
        2.180000           0.531820E-3       -0.032923           0.199084E-3        0.020651
        2.185000           0.537195E-3       -0.032791           0.199563E-3        0.020700
        2.190000           0.543794E-3       -0.032657           0.200248E-3        0.020750
        2.195000           0.551856E-3       -0.032523           0.201117E-3        0.020800
        2.200000           0.561682E-3       -0.032386           0.202152E-3        0.020850
        2.205000           0.573659E-3       -0.032248           0.203344E-3        0.020900
        2.210000           0.588282E-3       -0.032107           0.204684E-3        0.020951
        2.215000           0.606197E-3       -0.031963           0.206169E-3        0.021002
        2.220000           0.628259E-3       -0.031816           0.207798E-3        0.021054
        2.225000           0.655607E-3       -0.031664           0.209572E-3        0.021106
        2.230000           0.689787E-3       -0.031508           0.211496E-3        0.021158
        2.235000           0.732924E-3       -0.031346           0.213577E-3        0.021211
        2.240000           0.787975E-3       -0.031179           0.215823E-3        0.021265
        2.245000           0.859113E-3       -0.031005           0.218246E-3        0.021319
        2.250000           0.952263E-3       -0.030824           0.220861E-3        0.021373
        2.255000           0.001076          -0.030640           0.223685E-3        0.021429
        2.260000           0.001242          -0.030457           0.226739E-3        0.021485
        2.265000           0.001465          -0.030288           0.230049E-3        0.021541
        2.270000           0.001761          -0.030160           0.233646E-3        0.021599
        2.275000           0.002138          -0.030125           0.237565E-3        0.021657
        2.280000           0.002562          -0.030257           0.241849E-3        0.021717
        2.285000           0.002921          -0.030617           0.246552E-3        0.021777
        2.290000           0.003047          -0.031153           0.251735E-3        0.021839
        2.295000           0.002861          -0.031667           0.257475E-3        0.021901
        2.300000           0.002473          -0.031985           0.263863E-3        0.021966
        2.305000           0.002048          -0.032081           0.271015E-3        0.022031
        2.310000           0.001682          -0.032027           0.279070E-3        0.022099
        2.315000           0.001396          -0.031893           0.288203E-3        0.022168
        2.320000           0.001181          -0.031726           0.298634E-3        0.022239
        2.325000           0.001020          -0.031548           0.310644E-3        0.022313
        2.330000           0.899072E-3       -0.031372           0.324589E-3        0.022389
        2.335000           0.806537E-3       -0.031202           0.340935E-3        0.022468
        2.340000           0.734717E-3       -0.031039           0.360292E-3        0.022551
        2.345000           0.678072E-3       -0.030883           0.383472E-3        0.022637
        2.350000           0.632695E-3       -0.030735           0.411569E-3        0.022728
        2.355000           0.595812E-3       -0.030593           0.446078E-3        0.022824
        2.360000           0.565426E-3       -0.030456           0.489073E-3        0.022925
        2.365000           0.540079E-3       -0.030325           0.543462E-3        0.023032
        2.370000           0.518691E-3       -0.030197           0.613374E-3        0.023145
        2.375000           0.500456E-3       -0.030074           0.704672E-3        0.023263
        2.380000           0.484758E-3       -0.029954           0.825610E-3        0.023382
        2.385000           0.471124E-3       -0.029838           0.987290E-3        0.023496
        2.390000           0.459188E-3       -0.029723           0.001203           0.023588
        2.395000           0.448659E-3       -0.029612           0.001482           0.023624
        2.400000           0.439310E-3       -0.029502           0.001813           0.023553
        2.405000           0.430956E-3       -0.029395           0.002135           0.023313
        2.410000           0.423449E-3       -0.029289           0.002320           0.022905
        2.415000           0.416668E-3       -0.029185           0.002265           0.022448
        2.420000           0.410515E-3       -0.029082           0.002003           0.022110
        2.425000           0.404909E-3       -0.028981           0.001668           0.021954
        2.430000           0.399783E-3       -0.028881           0.001360           0.021942
        2.435000           0.395079E-3       -0.028783           0.001113           0.022012
        2.440000           0.390753E-3       -0.028685           0.926686E-3        0.022121
        2.445000           0.386765E-3       -0.028588           0.788258E-3        0.022244
        2.450000           0.383083E-3       -0.028492           0.685211E-3        0.022369
        2.455000           0.379680E-3       -0.028397           0.607752E-3        0.022491
        2.460000           0.376533E-3       -0.028303           0.548791E-3        0.022609
        2.465000           0.373626E-3       -0.028210           0.503328E-3        0.022721
        2.470000           0.370943E-3       -0.028117           0.467845E-3        0.022829
        2.475000           0.368475E-3       -0.028025           0.439855E-3        0.022933
        2.480000           0.366213E-3       -0.027933           0.417576E-3        0.023032
        2.484999           0.364154E-3       -0.027842           0.399714E-3        0.023128
        2.490000           0.362298E-3       -0.027752           0.385321E-3        0.023222
        2.494999           0.360648E-3       -0.027662           0.373687E-3        0.023313
        2.500000           0.359212E-3       -0.027572           0.364278E-3        0.023403
        2.504999           0.358004E-3       -0.027483           0.356686E-3        0.023490
        2.510000           0.357046E-3       -0.027394           0.350596E-3        0.023577
        2.515000           0.356368E-3       -0.027305           0.345762E-3        0.023662
        2.520000           0.356012E-3       -0.027216           0.341993E-3        0.023747
        2.525000           0.356037E-3       -0.027128           0.339134E-3        0.023831
        2.530000           0.356529E-3       -0.027040           0.337067E-3        0.023914
        2.535000           0.357605E-3       -0.026951           0.335694E-3        0.023997
        2.540000           0.359434E-3       -0.026863           0.334939E-3        0.024080
        2.545000           0.362256E-3       -0.026775           0.334739E-3        0.024163
        2.550000           0.366411E-3       -0.026687           0.335048E-3        0.024247
        2.555000           0.372373E-3       -0.026599           0.335827E-3        0.024330
        2.560000           0.380750E-3       -0.026512           0.337047E-3        0.024413
        2.565000           0.392169E-3       -0.026427           0.338688E-3        0.024497
        2.570000           0.406793E-3       -0.026346           0.340735E-3        0.024582
        2.575000           0.423112E-3       -0.026271           0.343183E-3        0.024666
        2.580000           0.436444E-3       -0.026206           0.346025E-3        0.024752
        2.585000           0.440214E-3       -0.026147           0.349270E-3        0.024838
        2.590000           0.432085E-3       -0.026087           0.352924E-3        0.024926
        2.595000           0.416843E-3       -0.026018           0.357003E-3        0.025014
        2.600000           0.400862E-3       -0.025941           0.361529E-3        0.025103
        2.605000           0.387516E-3       -0.025858           0.366529E-3        0.025193
        2.610000           0.377496E-3       -0.025772           0.372040E-3        0.025285
        2.615000           0.370381E-3       -0.025684           0.378106E-3        0.025378
        2.620000           0.365544E-3       -0.025596           0.384781E-3        0.025472
        2.625000           0.362445E-3       -0.025508           0.392135E-3        0.025568
        2.630000           0.360689E-3       -0.025419           0.400248E-3        0.025666
        2.635000           0.360006E-3       -0.025331           0.409225E-3        0.025766
        2.640000           0.360216E-3       -0.025242           0.419191E-3        0.025868
        2.645000           0.361206E-3       -0.025153           0.430304E-3        0.025973
        2.650000           0.362912E-3       -0.025064           0.442760E-3        0.026080
        2.654999           0.365303E-3       -0.024974           0.456811E-3        0.026190
        2.660000           0.368380E-3       -0.024883           0.472778E-3        0.026303
        2.664999           0.372163E-3       -0.024791           0.491077E-3        0.026420
        2.670000           0.376698E-3       -0.024699           0.512260E-3        0.026540
        2.674999           0.382048E-3       -0.024605           0.537064E-3        0.026665
        2.680000           0.388299E-3       -0.024510           0.566487E-3        0.026795
        2.684999           0.395562E-3       -0.024414           0.601908E-3        0.026930
        2.690000           0.403976E-3       -0.024315           0.645252E-3        0.027070
        2.694999           0.413712E-3       -0.024215           0.699228E-3        0.027216
        2.700000           0.424985E-3       -0.024113           0.767634E-3        0.027367
        2.705000           0.438056E-3       -0.024008           0.855616E-3        0.027520
        2.710000           0.453255E-3       -0.023899           0.969554E-3        0.027668
        2.715000           0.470994E-3       -0.023788           0.001115           0.027800
        2.720000           0.491792E-3       -0.023672           0.001292           0.027892
        2.725000           0.516311E-3       -0.023552           0.001477           0.027915
        2.730000           0.545404E-3       -0.023427           0.001617           0.027859
        2.735000           0.580176E-3       -0.023296           0.001655           0.027768
        2.740000           0.622087E-3       -0.023157           0.001588           0.027722
        2.745000           0.673077E-3       -0.023011           0.001476           0.027771
        2.750000           0.735774E-3       -0.022855           0.001374           0.027905
        2.755000           0.813773E-3       -0.022689           0.001309           0.028096
        2.760000           0.912072E-3       -0.022511           0.001286           0.028323
        2.765000           0.001038          -0.022321           0.001300           0.028574
        2.770000           0.001201          -0.022119           0.001352           0.028843
        2.775000           0.001415          -0.021907           0.001440           0.029130
        2.780000           0.001701          -0.021693           0.001568           0.029436
        2.785000           0.002084          -0.021499           0.001743           0.029764
        2.790000           0.002594          -0.021366           0.001979           0.030114
        2.795000           0.003249          -0.021376           0.002293           0.030487
        2.800000           0.004008          -0.021659           0.002714           0.030877
        2.805000           0.004700          -0.022338           0.003280           0.031265
        2.810000           0.005027          -0.023369           0.004044           0.031612
        2.815000           0.004797          -0.024434           0.005064           0.031827
        2.820000           0.004152          -0.025182           0.006368           0.031745
        2.825000           0.003397          -0.025523           0.007864           0.031105
        2.830000           0.002729          -0.025565           0.009194           0.029672
        2.835000           0.002207          -0.025444           0.009762           0.027572
        2.839999           0.001819          -0.025250           0.009228           0.025458
        2.845000           0.001539          -0.025030           0.007914           0.023999
        2.849999           0.001340          -0.024810           0.006416           0.023336
        2.855000           0.001205          -0.024600           0.005101           0.023240
        2.859999           0.001121          -0.024407           0.004071           0.023450
        2.865000           0.001079          -0.024240           0.003296           0.023794
        2.869999           0.001070          -0.024110           0.002720           0.024182
        2.875000           0.001071          -0.024029           0.002289           0.024572
        2.879999           0.001052          -0.023992           0.001964           0.024945
        2.885000           0.989434E-3       -0.023970           0.001714           0.025295
        2.890000           0.892448E-3       -0.023926           0.001521           0.025621
        2.895000           0.788515E-3       -0.023851           0.001369           0.025926
        2.900000           0.696559E-3       -0.023751           0.001249           0.026210
        2.905000           0.621995E-3       -0.023640           0.001154           0.026478
        2.910000           0.563324E-3       -0.023526           0.001077           0.026731
        2.915000           0.517259E-3       -0.023413           0.001017           0.026971
        2.920000           0.480734E-3       -0.023303           0.969859E-3        0.027202
        2.925000           0.451366E-3       -0.023197           0.934146E-3        0.027424
        2.930000           0.427411E-3       -0.023095           0.908902E-3        0.027639
        2.935000           0.407614E-3       -0.022996           0.893794E-3        0.027849
        2.940000           0.391065E-3       -0.022901           0.889189E-3        0.028054
        2.945000           0.377106E-3       -0.022808           0.896269E-3        0.028256
        2.950000           0.365248E-3       -0.022718           0.917225E-3        0.028455
        2.955000           0.355129E-3       -0.022630           0.955482E-3        0.028648
        2.960000           0.346478E-3       -0.022545           0.001016           0.028833
        2.965000           0.339089E-3       -0.022461           0.001103           0.029000
        2.970000           0.332810E-3       -0.022378           0.001218           0.029132
        2.975000           0.327527E-3       -0.022297           0.001348           0.029204
        2.980000           0.323162E-3       -0.022217           0.001453           0.029199
        2.985000           0.319665E-3       -0.022138           0.001478           0.029139
        2.990000           0.317013E-3       -0.022059           0.001403           0.029091
        2.995000           0.315211E-3       -0.021981           0.001268           0.029110
        3.000000           0.314292E-3       -0.021904           0.001126           0.029200
        3.005000           0.314319E-3       -0.021827           0.001005           0.029336
        3.010000           0.315399E-3       -0.021750           0.911575E-3        0.029495
        3.015000           0.317684E-3       -0.021673           0.841600E-3        0.029665
        3.020000           0.321396E-3       -0.021595           0.789622E-3        0.029837
        3.025000           0.326844E-3       -0.021517           0.750893E-3        0.030009
        3.029999           0.334462E-3       -0.021438           0.721855E-3        0.030178
        3.035000           0.344864E-3       -0.021358           0.699973E-3        0.030346
        3.039999           0.358915E-3       -0.021277           0.683459E-3        0.030511
        3.045000           0.377855E-3       -0.021195           0.671054E-3        0.030675
        3.049999           0.403449E-3       -0.021111           0.661860E-3        0.030837
        3.055000           0.438196E-3       -0.021028           0.655239E-3        0.030999
        3.059999           0.485488E-3       -0.020946           0.650722E-3        0.031159
        3.064999           0.549427E-3       -0.020872           0.647977E-3        0.031319
        3.069999           0.633354E-3       -0.020813           0.646760E-3        0.031479
        3.074999           0.735049E-3       -0.020787           0.646902E-3        0.031639
        3.080000           0.837146E-3       -0.020812           0.648292E-3        0.031799
        3.085000           0.901488E-3       -0.020893           0.650868E-3        0.031960
        3.090000           0.891805E-3       -0.020996           0.654616E-3        0.032121
        3.095000           0.813585E-3       -0.021066           0.659570E-3        0.032284
        3.100000           0.707259E-3       -0.021080           0.665821E-3        0.032447
        3.105000           0.606990E-3       -0.021046           0.673528E-3        0.032612
        3.110000           0.525881E-3       -0.020985           0.682945E-3        0.032779
        3.115000           0.464259E-3       -0.020910           0.694454E-3        0.032947
        3.120000           0.418359E-3       -0.020830           0.708611E-3        0.033117
        3.125000           0.384178E-3       -0.020750           0.726213E-3        0.033289
        3.130000           0.358526E-3       -0.020670           0.748331E-3        0.033461
        3.135000           0.339085E-3       -0.020592           0.776204E-3        0.033633
        3.140000           0.324222E-3       -0.020515           0.810655E-3        0.033801
        3.145000           0.312796E-3       -0.020440           0.850347E-3        0.033960
        3.150000           0.304007E-3       -0.020367           0.888780E-3        0.034105
        3.155000           0.297291E-3       -0.020294           0.913812E-3        0.034238
        3.160000           0.292252E-3       -0.020223           0.916595E-3        0.034370
        3.165000           0.288611E-3       -0.020152           0.901917E-3        0.034516
        3.170000           0.286173E-3       -0.020082           0.882396E-3        0.034683
        3.175000           0.284812E-3       -0.020012           0.866906E-3        0.034865
        3.180000           0.284449E-3       -0.019942           0.858323E-3        0.035058
        3.185000           0.285053E-3       -0.019873           0.856418E-3        0.035258
        3.190000           0.286629E-3       -0.019803           0.860128E-3        0.035462
        3.194999           0.289221E-3       -0.019732           0.868452E-3        0.035671
        3.200000           0.292914E-3       -0.019661           0.880680E-3        0.035884
        3.204999           0.297839E-3       -0.019589           0.896386E-3        0.036101
        3.210000           0.304183E-3       -0.019516           0.915378E-3        0.036322
        3.214999           0.312204E-3       -0.019442           0.937654E-3        0.036549
        3.220000           0.322249E-3       -0.019366           0.963376E-3        0.036782
        3.224999           0.334795E-3       -0.019288           0.992856E-3        0.037020
        3.230000           0.350486E-3       -0.019207           0.001027           0.037266
        3.234999           0.370209E-3       -0.019124           0.001065           0.037520
        3.240000           0.395195E-3       -0.019038           0.001110           0.037783
        3.244999           0.427169E-3       -0.018949           0.001161           0.038056
        3.250000           0.468579E-3       -0.018856           0.001220           0.038340
        3.254999           0.522907E-3       -0.018759           0.001290           0.038637
        3.260000           0.595085E-3       -0.018661           0.001373           0.038948
        3.264999           0.691882E-3       -0.018565           0.001473           0.039275
        3.270000           0.821778E-3       -0.018480           0.001594           0.039621
        3.275000           0.992631E-3       -0.018423           0.001743           0.039986
        3.280000           0.001203          -0.018426           0.001930           0.040374
        3.285000           0.001426          -0.018529           0.002167           0.040785
        3.290000           0.001588          -0.018752           0.002474           0.041216
        3.295000           0.001604          -0.019041           0.002876           0.041660
        3.300000           0.001464          -0.019284           0.003412           0.042097
        3.305000           0.001247          -0.019409           0.004125           0.042479
        3.310000           0.001032          -0.019426           0.005059           0.042712
        3.315000           0.853855E-3       -0.019377           0.006209           0.042627
        3.320000           0.717847E-3       -0.019294           0.007420           0.042002
        3.325000           0.616622E-3       -0.019198           0.008302           0.040734
        3.330000           0.541554E-3       -0.019098           0.008399           0.039118
        3.335000           0.485536E-3       -0.019000           0.007660           0.037760
        3.340000           0.443339E-3       -0.018904           0.006504           0.037035
        3.345000           0.411267E-3       -0.018812           0.005359           0.036894
        3.350000           0.386739E-3       -0.018722           0.004416           0.037116
        3.355000           0.367946E-3       -0.018636           0.003698           0.037519
        3.360000           0.353620E-3       -0.018552           0.003168           0.037998
        3.365000           0.342867E-3       -0.018469           0.002778           0.038498
        3.370000           0.335065E-3       -0.018389           0.002490           0.038996
        3.375000           0.329788E-3       -0.018309           0.002277           0.039483
        3.380000           0.326764E-3       -0.018230           0.002118           0.039955
        3.385000           0.325845E-3       -0.018151           0.001999           0.040414
        3.390000           0.326999E-3       -0.018073           0.001910           0.040862
        3.395000           0.330302E-3       -0.017994           0.001845           0.041300
        3.400000           0.335954E-3       -0.017914           0.001798           0.041731
        3.404999           0.344303E-3       -0.017834           0.001765           0.042156
        3.410000           0.355888E-3       -0.017752           0.001745           0.042579
        3.414999           0.371505E-3       -0.017668           0.001735           0.043001
        3.420000           0.392325E-3       -0.017583           0.001734           0.043423
        3.424999           0.420027E-3       -0.017495           0.001740           0.043847
        3.430000           0.457043E-3       -0.017406           0.001753           0.044275
        3.434999           0.506774E-3       -0.017316           0.001773           0.044707
        3.440000           0.573760E-3       -0.017230           0.001798           0.045145
        3.444999           0.663064E-3       -0.017155           0.001829           0.045590
        3.450000           0.777569E-3       -0.017104           0.001866           0.046044
        3.454999           0.909996E-3       -0.017100           0.001908           0.046508
        3.460000           0.001030          -0.017164           0.001957           0.046983
        3.465000           0.001087          -0.017288           0.002012           0.047470
        3.470000           0.001049          -0.017416           0.002073           0.047971
        3.475000           0.939481E-3       -0.017487           0.002142           0.048488
        3.480000           0.812261E-3       -0.017489           0.002218           0.049021
        3.485000           0.700627E-3       -0.017438           0.002303           0.049574
        3.490000           0.614255E-3       -0.017358           0.002397           0.050147
        3.495000           0.551090E-3       -0.017265           0.002503           0.050743
        3.500000           0.506194E-3       -0.017166           0.002621           0.051365
        3.505000           0.474963E-3       -0.017066           0.002753           0.052015
        3.510000           0.453928E-3       -0.016965           0.002902           0.052697
        3.515000           0.440635E-3       -0.016865           0.003070           0.053414
        3.520000           0.433427E-3       -0.016764           0.003261           0.054170
        3.525000           0.431210E-3       -0.016663           0.003480           0.054970
        3.529999           0.433302E-3       -0.016561           0.003731           0.055820
        3.535000           0.439331E-3       -0.016457           0.004022           0.056725
        3.539999           0.449165E-3       -0.016352           0.004362           0.057693
        3.545000           0.462885E-3       -0.016244           0.004763           0.058733
        3.549999           0.480772E-3       -0.016132           0.005241           0.059854
        3.555000           0.503329E-3       -0.016016           0.005816           0.061068
        3.559999           0.531301E-3       -0.015896           0.006518           0.062386
        3.565000           0.565768E-3       -0.015769           0.007387           0.063820
        3.569999           0.608203E-3       -0.015636           0.008476           0.065381
        3.575000           0.660680E-3       -0.015494           0.009865           0.067074
        3.579999           0.726045E-3       -0.015344           0.011665           0.068886
        3.585000           0.808326E-3       -0.015184           0.014032           0.070772
        3.589999           0.913159E-3       -0.015013           0.017181           0.072610
        3.595000           0.001049          -0.014832           0.021380           0.074124
        3.599999           0.001226          -0.014644           0.026876           0.074753
        3.605000           0.001461          -0.014455           0.033628           0.073504
        3.609999           0.001774          -0.014286           0.040721           0.069084
        3.615000           0.002183          -0.014173           0.045844           0.060913
        3.619999           0.002691          -0.014185           0.046355           0.050767
        3.625000           0.003242          -0.014418           0.042020           0.042196
        3.629999           0.003677          -0.014925           0.035306           0.037356
        3.635000           0.003795          -0.015599           0.028699           0.035914
        3.639999           0.003553          -0.016181           0.023305           0.036591
        3.645000           0.003122          -0.016488           0.019248           0.038334
        3.650000           0.002699          -0.016528           0.016306           0.040532
        3.654999           0.002383          -0.016394           0.014218           0.042879
        3.660000           0.002197          -0.016167           0.012767           0.045246
        3.664999           0.002138          -0.015902           0.011805           0.047583
        3.670000           0.002204          -0.015631           0.011231           0.049883
        3.674999           0.002397          -0.015389           0.010989           0.052153
        3.680000           0.002724          -0.015226           0.011054           0.054409
        3.684999           0.003172          -0.015219           0.011432           0.056658
        3.690000           0.003660          -0.015470           0.012159           0.058894
        3.694999           0.004000          -0.016018           0.013297           0.061077
        3.700000           0.003988          -0.016716           0.014928           0.063098
        3.704999           0.003613          -0.017287           0.017100           0.064733
        3.710000           0.003071          -0.017571           0.019699           0.065623
        3.714999           0.002549          -0.017598           0.022231           0.065432
        3.720000           0.002129          -0.017467           0.023851           0.064329
        3.724999           0.001819          -0.017258           0.024061           0.063277
        3.730000           0.001604          -0.017016           0.023357           0.063303
        3.734999           0.001463          -0.016765           0.022705           0.064661
        3.740000           0.001384          -0.016515           0.022794           0.067021
        3.744999           0.001357          -0.016272           0.023953           0.069947
        3.750000           0.001379          -0.016044           0.026380           0.073053
        3.754999           0.001446          -0.015838           0.030273           0.075906
        3.760000           0.001548          -0.015665           0.035794           0.077843
        3.764999           0.001673          -0.015527           0.042779           0.077821
        3.770000           0.001817          -0.015419           0.050155           0.074633
        3.774999           0.001991          -0.015349           0.055646           0.068017
        3.780000           0.002191          -0.015355           0.057162           0.059861
        3.784999           0.002359          -0.015476           0.054873           0.053004
        3.790000           0.002399          -0.015676           0.050569           0.048894
        3.794999           0.002277          -0.015843           0.045861           0.047654
        3.800000           0.002065          -0.015880           0.041954           0.048912
        3.804999           0.001856          -0.015785           0.039712           0.051964
        3.810000           0.001703          -0.015597           0.039603           0.055987
        3.814999           0.001617          -0.015355           0.041878           0.060218
        3.820000           0.001596          -0.015082           0.046778           0.063834
        3.824999           0.001637          -0.014789           0.054469           0.065632
        3.830000           0.001741          -0.014479           0.064547           0.063752
        3.834999           0.001915          -0.014156           0.074953           0.056042
        3.839999           0.002175          -0.013821           0.081360           0.042087
        3.845000           0.002545          -0.013485           0.079695           0.025695
        3.849999           0.003061          -0.013171           0.070559           0.012813
        3.855000           0.003767          -0.012934           0.058422           0.006218
        3.859999           0.004699          -0.012878           0.047052           0.004835
        3.865000           0.005829          -0.013186           0.037872           0.006505
        3.869999           0.006961          -0.014070           0.030906           0.009607
        3.875000           0.007668          -0.015570           0.025724           0.013235
        3.879999           0.007550          -0.017301           0.021876           0.016947
        3.885000           0.006673          -0.018672           0.019003           0.020557
        3.889999           0.005490          -0.019407           0.016846           0.023996
        3.895000           0.004378          -0.019617           0.015220           0.027255
        3.899999           0.003480          -0.019519           0.014000           0.030349
        3.905000           0.002797          -0.019276           0.013096           0.033304
        3.909999           0.002289          -0.018979           0.012448           0.036148
        3.915000           0.001910          -0.018672           0.012015           0.038912
        3.919999           0.001626          -0.018375           0.011770           0.041623
        3.925000           0.001409          -0.018096           0.011699           0.044310
        3.929999           0.001243          -0.017835           0.011796           0.047000
        3.935000           0.001115          -0.017592           0.012066           0.049721
        3.939999           0.001015          -0.017365           0.012525           0.052501
        3.945000           0.937272E-3       -0.017151           0.013198           0.055369
        3.949999           0.877913E-3       -0.016948           0.014126           0.058353
        3.955000           0.833682E-3       -0.016755           0.015370           0.061484
        3.959999           0.802652E-3       -0.016569           0.017017           0.064786
        3.965000           0.783714E-3       -0.016388           0.019196           0.068277
        3.969999           0.776534E-3       -0.016211           0.022088           0.071948
        3.975000           0.781529E-3       -0.016035           0.025956           0.075739
        3.979999           0.799974E-3       -0.015860           0.031161           0.079467
        3.985000           0.834219E-3       -0.015684           0.038169           0.082714
        3.989999           0.888013E-3       -0.015506           0.047452           0.084597
        3.995000           0.967059E-3       -0.015328           0.059108           0.083501
        3.999999           0.001080          -0.015151           0.071910           0.077133
        4.005000           0.001237          -0.014983           0.082190           0.063949
        4.009999           0.001451          -0.014842           0.084944           0.046160
        4.014999           0.001732          -0.014761           0.078588           0.029926
        4.019999           0.002063          -0.014796           0.066913           0.020012
        4.025000           0.002375          -0.015001           0.054737           0.016562
        4.030000           0.002541          -0.015365           0.044545           0.017383
        4.034999           0.002469          -0.015753           0.036818           0.020429
        4.040000           0.002214          -0.016008           0.031224           0.024457
        4.045000           0.001909          -0.016082           0.027291           0.028836
        4.050000           0.001648          -0.016019           0.024626           0.033286
        4.054999           0.001462          -0.015879           0.022953           0.037696
        4.060000           0.001352          -0.015705           0.022102           0.042040
        4.065000           0.001312          -0.015521           0.021995           0.046319
        4.070000           0.001337          -0.015347           0.022627           0.050528
        4.074999           0.001425          -0.015205           0.024067           0.054619
        4.080000           0.001566          -0.015126           0.026442           0.058452
        4.085000           0.001725          -0.015146           0.029883           0.061703
        4.090000           0.001828          -0.015276           0.034353           0.063777
        4.094999           0.001802          -0.015454           0.039271           0.063894
        4.100000           0.001650          -0.015578           0.043190           0.061742
        4.105000           0.001447          -0.015595           0.044501           0.058505
        4.110000           0.001260          -0.015520           0.043158           0.056461
        4.114999           0.001114          -0.015389           0.040832           0.056976
        4.120000           0.001013          -0.015230           0.039229           0.059847
        4.125000           0.950223E-3       -0.015057           0.039244           0.064261
        4.130000           0.919332E-3       -0.014879           0.041257           0.069497
        4.134999           0.916733E-3       -0.014697           0.045549           0.074979
        4.140000           0.941362E-3       -0.014513           0.052502           0.080059
        4.145000           0.994806E-3       -0.014329           0.062543           0.083689
        4.150000           0.001081          -0.014148           0.075746           0.084079
        4.154999           0.001205          -0.013976           0.090829           0.078767
        4.160000           0.001369          -0.013828           0.104137           0.066119
        4.164999           0.001565          -0.013722           0.110995           0.048060
        4.170000           0.001768          -0.013667           0.109939           0.029520
        4.174999           0.001956          -0.013640           0.103125           0.013780
        4.180000           0.002149          -0.013612           0.092436           0.001690
        4.184999           0.002394          -0.013597           0.079210          -0.005778
        4.190000           0.002712          -0.013662           0.065708          -0.008148
        4.194999           0.003048          -0.013897           0.053977          -0.006511
        4.199999           0.003263          -0.014325           0.044765          -0.002540
        4.204999           0.003222          -0.014835           0.037909           0.002493
        4.210000           0.002927          -0.015240           0.032952           0.007883
        4.215000           0.002514          -0.015429           0.029465           0.013298
        4.219999           0.002116          -0.015422           0.027125           0.018614
        4.225000           0.001797          -0.015291           0.025718           0.023812
        4.230000           0.001565          -0.015094           0.025126           0.028912
        4.235000           0.001406          -0.014868           0.025310           0.033955
        4.239999           0.001306          -0.014629           0.026308           0.038973
        4.245000           0.001253          -0.014384           0.028243           0.043974
        4.250000           0.001240          -0.014135           0.031331           0.048900
        4.255000           0.001264          -0.013881           0.035902           0.053561
        4.259999           0.001325          -0.013619           0.042379           0.057493
        4.265000           0.001428          -0.013347           0.051148           0.059738
        4.270000           0.001580          -0.013064           0.062076           0.058603
        4.275000           0.001796          -0.012771           0.073507           0.051923
        4.279999           0.002094          -0.012471           0.081428           0.038878
        4.285000           0.002505          -0.012180           0.081484           0.022684
        4.289999           0.003065          -0.011933           0.073552           0.009351
        4.295000           0.003811          -0.011804           0.061893           0.002282
        4.299999           0.004748          -0.011924           0.050600           0.777402E-3
        4.305000           0.005769          -0.012480           0.041411           0.002676
        4.309999           0.006568          -0.013585           0.034492           0.006248
        4.315000           0.006747          -0.015043           0.029455           0.010500
        4.319999           0.006202          -0.016350           0.025861           0.014944
        4.325000           0.005254          -0.017141           0.023362           0.019370
        4.329999           0.004285          -0.017421           0.021716           0.023701
        4.335000           0.003486          -0.017369           0.020773           0.027926
        4.339999           0.002892          -0.017148           0.020461           0.032049
        4.345000           0.002479          -0.016854           0.020770           0.036074
        4.349999           0.002212          -0.016540           0.021753           0.039970
        4.355000           0.002069          -0.016233           0.023516           0.043630
        4.359999           0.002034          -0.015955           0.026185           0.046801
        4.365000           0.002102          -0.015730           0.029782           0.048996
        4.369999           0.002258          -0.015601           0.033926           0.049493
        4.375000           0.002458          -0.015620           0.037460           0.047784
        4.379999           0.002600          -0.015814           0.038749           0.044538
        4.385000           0.002563          -0.016110           0.037204           0.041756
        4.389999           0.002331          -0.016356           0.034022           0.041076
        4.395000           0.002002          -0.016455           0.030825           0.042633
        4.399999           0.001682          -0.016416           0.028508           0.045751
        4.405000           0.001421          -0.016291           0.027315           0.049781
        4.410000           0.001223          -0.016125           0.027240           0.054326
        4.414999           0.001079          -0.015944           0.028268           0.059183
        4.420000           0.979104E-3       -0.015761           0.030467           0.064238
        4.424999           0.913503E-3       -0.015580           0.034023           0.069364
        4.430000           0.877382E-3       -0.015404           0.039265           0.074322
        4.434999           0.868634E-3       -0.015232           0.046629           0.078589
        4.440000           0.888055E-3       -0.015066           0.056514           0.081112
        4.444999           0.939323E-3       -0.014908           0.068744           0.080055
        4.450000           0.001029          -0.014764           0.081479           0.073115
        4.454999           0.001164          -0.014649           0.090370           0.059528
        4.460000           0.001346          -0.014589           0.090854           0.042906
        4.464999           0.001557          -0.014625           0.083036           0.029690
        4.470000           0.001734          -0.014789           0.071593           0.023371
        4.474999           0.001784          -0.015050           0.060886           0.023111
        4.480000           0.001668          -0.015299           0.052778           0.026607
        4.484999           0.001446          -0.015442           0.047526           0.032043
        4.490000           0.001208          -0.015468           0.044877           0.038369
        4.494999           0.001003          -0.015415           0.044600           0.045015
        4.500000           0.843828E-3       -0.015321           0.046655           0.051602
        4.504999           0.724215E-3       -0.015211           0.051220           0.057676
        4.510000           0.635289E-3       -0.015097           0.058603           0.062442
        4.514999           0.569054E-3       -0.014986           0.068905           0.064431
        4.520000           0.519079E-3       -0.014879           0.081185           0.061414
        4.524999           0.480268E-3       -0.014778           0.092199           0.051458
        4.530000           0.448967E-3       -0.014682           0.096791           0.035831
        4.534999           0.423456E-3       -0.014589           0.092221           0.020333
        4.539999           0.403310E-3       -0.014498           0.081486           0.010619
        4.544999           0.388375E-3       -0.014409           0.069795           0.007732
        4.550000           0.378440E-3       -0.014322           0.060352           0.009598
        4.554999           0.373421E-3       -0.014237           0.054124           0.013844
        4.559999           0.373518E-3       -0.014153           0.051036           0.018714
        4.564999           0.379315E-3       -0.014071           0.050650           0.022858
        4.570000           0.391728E-3       -0.013993           0.052108           0.025049
        4.574999           0.411601E-3       -0.013920           0.053734           0.024468
        4.579999           0.438399E-3       -0.013857           0.053313           0.021757
        4.584999           0.467403E-3       -0.013810           0.049848           0.019258
        4.590000           0.487599E-3       -0.013780           0.044560           0.019018
        4.595000           0.487306E-3       -0.013759           0.039320           0.021293
        4.599999           0.466564E-3       -0.013729           0.035169           0.025302
        4.605000           0.437081E-3       -0.013682           0.032344           0.030259
        4.610000           0.409869E-3       -0.013619           0.030755           0.035690
        4.615000           0.389612E-3       -0.013547           0.030271           0.041367
        4.619999           0.376853E-3       -0.013469           0.030826           0.047198
        4.625000           0.370760E-3       -0.013388           0.032450           0.053146
        4.630000           0.370452E-3       -0.013306           0.035284           0.059161
        4.635000           0.375396E-3       -0.013221           0.039592           0.065110
        4.639999           0.385447E-3       -0.013136           0.045749           0.070661
        4.645000           0.400737E-3       -0.013049           0.054159           0.075100
        4.649999           0.421422E-3       -0.012962           0.064921           0.077112
        4.655000           0.447489E-3       -0.012874           0.077084           0.074875
        4.659999           0.479180E-3       -0.012784           0.087879           0.067249
        4.665000           0.518244E-3       -0.012694           0.093859           0.055829
        4.669999           0.567813E-3       -0.012603           0.094089           0.044455
        4.675000           0.629797E-3       -0.012518           0.090412           0.035685
        4.679999           0.700555E-3       -0.012447           0.084650           0.030232
        4.684999           0.767281E-3       -0.012395           0.078368           0.028559
        4.689999           0.813356E-3       -0.012351           0.073619           0.030444
        4.695000           0.836308E-3       -0.012293           0.072112           0.034455
        4.699999           0.853336E-3       -0.012202           0.074635           0.038493
        4.704999           0.885118E-3       -0.012079           0.081011           0.040102
        4.709999           0.945043E-3       -0.011930           0.089553           0.036595
        4.715000           0.001042          -0.011762           0.096224           0.026451
        4.719999           0.001184          -0.011580           0.096032           0.012083
        4.724999           0.001385          -0.011391           0.087705          -0.484277E-3
        4.729999           0.001663          -0.011206           0.075039          -0.006976
        4.735000           0.002042          -0.011050           0.062468          -0.007526
        4.739999           0.002547          -0.010974           0.052139          -0.004272
        4.744999           0.003179          -0.011067           0.044375           0.900361E-3
        4.749999           0.003863          -0.011457           0.038813           0.006869
        4.755000           0.004390          -0.012216           0.034990           0.013083
        4.759999           0.004493          -0.013204           0.032544           0.019304
        4.764999           0.004110          -0.014083           0.031240           0.025448
        4.769999           0.003462          -0.014612           0.030966           0.031487
        4.775000           0.002801          -0.014801           0.031716           0.037397
        4.779999           0.002252          -0.014772           0.033586           0.043092
        4.784999           0.001834          -0.014633           0.036755           0.048353
        4.790000           0.001528          -0.014448           0.041403           0.052689
        4.795000           0.001307          -0.014252           0.047454           0.055209
        4.800000           0.001148          -0.014061           0.054026           0.054753
        4.804999           0.001031          -0.013881           0.058956           0.050854
        4.810000           0.942760E-3       -0.013711           0.059838           0.045238
        4.815000           0.875487E-3       -0.013545           0.056552           0.041238
        4.820000           0.827686E-3       -0.013380           0.051461           0.040827
        4.824999           0.799268E-3       -0.013214           0.046932           0.043696
        4.830000           0.789998E-3       -0.013049           0.044080           0.048678
        4.835000           0.800038E-3       -0.012882           0.043190           0.054800
        4.840000           0.830691E-3       -0.012714           0.044308           0.061441
        4.844999           0.884954E-3       -0.012542           0.047542           0.068138
        4.850000           0.968111E-3       -0.012368           0.053138           0.074337
        4.855000           0.001088          -0.012192           0.061368           0.079094
        4.860000           0.001258          -0.012019           0.072104           0.080800
        4.864999           0.001492          -0.011865           0.083837           0.077343
        4.870000           0.001806          -0.011758           0.092796           0.067735
        4.874999           0.002203          -0.011752           0.094598           0.054821
        4.880000           0.002643          -0.011922           0.088771           0.044477
        4.884999           0.003003          -0.012316           0.079407           0.040380
        4.890000           0.003124          -0.012855           0.070789           0.042055
        4.894999           0.002968          -0.013338           0.064993           0.047336
        4.900000           0.002672          -0.013626           0.062523           0.054284
        4.904999           0.002392          -0.013737           0.063330           0.061457
        4.909999           0.002195          -0.013767           0.067163           0.067531
        4.914999           0.002060          -0.013803           0.073265           0.070982
        4.920000           0.001920          -0.013870           0.079654           0.070486
        4.924999           0.001733          -0.013923           0.083123           0.066515
        4.929999           0.001521          -0.013915           0.081641           0.062390
        4.934999           0.001330          -0.013840           0.076663           0.061782
        4.940000           0.001186          -0.013726           0.071371           0.065710
        4.944999           0.001095          -0.013601           0.067937           0.073125
        4.949999           0.001044          -0.013488           0.067178           0.082705
        4.954999           0.001014          -0.013400           0.069309           0.093532
        4.960000           0.982264E-3       -0.013331           0.074508           0.105012
        4.964999           0.941798E-3       -0.013261           0.083125           0.116577
        4.969999           0.906059E-3       -0.013175           0.095655           0.127349
        4.975000           0.892493E-3       -0.013079           0.112390           0.135801
        4.980000           0.909156E-3       -0.012987           0.132591           0.139794
        4.985000           0.951799E-3       -0.012919           0.153693           0.137823
        4.989999           0.001004          -0.012887           0.172594           0.131099
        4.995000           0.001042          -0.012890           0.189117           0.122522
        5.000000           0.001051          -0.012915           0.205355           0.112271
# 
# 02/28/2024 at 23:22 yambo @ unimi-XPS-8930 [start]
# 02/28/2024 at 23:22                        [end]
#  
# Timing   [Min/Max/Average]: 03s/03s/03s
#
# .-Input file  yambo.in
# | optics                           # [R] Linear Response optical properties
# | bss                              # [R] BSE solver
# | bse                              # [R][BSE] Bethe Salpeter Equation.
# | tddft                            # [R][K] Use TDDFT kernel
# | ElecTemp= 0.025861         eV    # Electronic Temperature
# | BoseTemp= 0.025861         eV    # Bosonic Temperature
# | FFTGvecs=  4935            RL    # [FFT] Plane-waves
# | BS_nCPU_LinAlg_INV= 1            # [PARALLEL] CPUs for Linear Algebra (if -1 it is automatically set)
# | BS_nCPU_LinAlg_DIAGO= 1          # [PARALLEL] CPUs for Linear Algebra (if -1 it is automatically set)
# | X_Threads= 1                     # [OPENMP/X] Number of threads for response functions
# | DIP_Threads= 1                   # [OPENMP/X] Number of threads for dipoles
# | K_Threads= 1                     # [OPENMP/BSK] Number of threads for response functions
# | BSKmod= "ALDA"                   # [BSE] IP/Hartree/HF/ALDA/SEX/BSfxc
# | BSEmod= "coupling"               # [BSE] resonant/retarded/coupling
# | BSSmod= "d"                      # [BSS] (h)aydock/(d)iagonalization/(s)lepc/(i)nversion/(t)ddft`
# | DipComputed= "R V P Spin"        # [DIP] [default R P V; extra P2 Spin Orb]
# | BSENGexx= 1                RL    # [BSK] Exchange components
# | BSENGfxc=  40              Ry    # [BSK] Fxc components
# | % BSEQptR
# |  1 | 2 |                             # [BSK] Transferred momenta range
# | %
# | % BSEBands
# |   1 |  4 |                           # [BSK] Bands range
# | %
# | % BEnRange
# | -1.000000 | 5.000000 |         eV    # [BSS] Energy range
# | %
# | % BDmRange
# |  0.020000 | 0.020000 |         eV    # [BSS] Damping range
# | %
# | BEnSteps= 1201                   # [BSS] Energy steps
# | % BLongDir
# |  1.000000 | 0.000000 | 0.000000 |        # [BSS] [cc] Electric Field versor
# | %
# | BSEprop= " jdos magn"            # [BSS] Can be any among abs/jdos/kerr/asymm/anHAll/magn/dich/photolum/esrt
# | BSEdips= "none"                  # [BSS] Can be "trace/none" or "xy/xz/yz" to define off-diagonal rotation plane
# | #WRbsWF                        # [BSS] Write to disk excitonic the WFs
