#  __      __   ______   __       __  _______    ______               
# |  \    /  \ /      \ |  \     /  \|       \  /      \              
#  \$$\  /  $$|  $$$$$$\| $$\   /  $$| $$$$$$$\|  $$$$$$\             
#   \$$\/  $$ | $$__| $$| $$$\ /  $$$| $$__/ $$| $$  | $$             
#    \$$  $$  | $$    $$| $$$$\  $$$$| $$    $$| $$  | $$             
#     \$$$$   | $$$$$$$$| $$\$$ $$ $$| $$$$$$$\| $$  | $$             
#     | $$    | $$  | $$| $$ \$$$| $$| $$__/ $$| $$__/ $$             
#     | $$    | $$  | $$| $$  \$ | $$| $$    $$ \$$    $$             
#      \$$     \$$   \$$ \$$      \$$ \$$$$$$$   \$$$$$$              
#                                                                     
# Version 5.2.0 Revision 23455 Hash (prev commit) 4b9e8e27e8          
#                 Branch is phys-magnons                              
#         MPI+OpenMP+SLK+SLEPC+HDF5_MPI_IO Build                      
#                http://www.yambo-code.org                            
#
# Joint Density of states @ Q(2):   0.00000000     0.166666657      0.00000000    [iku]
#
# [GEN] GF Energies                               : Slater exchange(X)+Perdew & Wang(C)
# [GEN] Green`s Function                          : Resonant
#
# DIP band range                                  :   1  10
# DIP band range limits                           :  10   1
# DIP e/h energy range                            :  -1.00000000     -1.00000000    [eV]
# RL vectors in the sum                           :   4935
# [r,Vnl] included                                : yes
# Bands ordered                                   : no
# Direct v evaluation                             : no
# Approach used                                   : G-space v
# Dipoles computed                                : R V P Spin
# Wavefunctions                                   : Slater exchange(X)+Perdew & Wang(C)
#
#
# [K] Identifier                                  :   3312
# [K] Q-point                                     :   0.00000000     0.166666657      0.00000000   
# [K] Dimension                                   :   720
# [K] Bands                                       :   1  10
# [K] Exchange res                                : no
# [K] Correlation res                             : no
# [K] Kernel`s coupling                           : no
# [K] Exchange cpl                                : no
# [K] Correlation cpl                             : no
# [K] W interaction is bare                       : no
# [K] ALDA kernel in R-space                      : yes
# [K] E/h energy range                            :  -1.00000000     -1.00000000    [eV]
# [K] Coupling range                              :   100.000000      100.000000    [o/o]
# [X] Response Kind                               : BAR
#
#
#    E[1] [eV]          Im(jdos)           Re(jdos)           Im(jdos_o)         Re(jdos_o)
#
       -0.500000           0.063977           0.671941           0.002932           0.836727
       -0.498000           0.060279           0.676844           0.002936           0.837020
       -0.496000           0.056896           0.681545           0.002941           0.837314
       -0.494000           0.053796           0.686054           0.002945           0.837608
       -0.492000           0.050948           0.690380           0.002949           0.837903
       -0.490000           0.048328           0.694528           0.002953           0.838197
       -0.488000           0.045912           0.698513           0.002958           0.838493
       -0.486000           0.043681           0.702339           0.002962           0.838789
       -0.484000           0.041616           0.706017           0.002966           0.839086
       -0.482000           0.039701           0.709553           0.002971           0.839383
       -0.480000           0.037924           0.712956           0.002975           0.839679
       -0.478000           0.036271           0.716232           0.002980           0.839977
       -0.476000           0.034732           0.719389           0.002984           0.840275
       -0.474000           0.033296           0.722432           0.002988           0.840575
       -0.472000           0.031955           0.725368           0.002993           0.840873
       -0.470000           0.030701           0.728203           0.002997           0.841173
       -0.468000           0.029526           0.730941           0.003002           0.841472
       -0.466000           0.028424           0.733588           0.003006           0.841772
       -0.464000           0.027389           0.736148           0.003011           0.842073
       -0.462000           0.026417           0.738627           0.003015           0.842375
       -0.460000           0.025502           0.741028           0.003020           0.842677
       -0.458000           0.024639           0.743356           0.003024           0.842979
       -0.456000           0.023826           0.745612           0.003029           0.843281
       -0.454000           0.023058           0.747802           0.003034           0.843584
       -0.452000           0.022333           0.749929           0.003038           0.843888
       -0.450000           0.021646           0.751995           0.003043           0.844192
       -0.448000           0.020997           0.754005           0.003047           0.844497
       -0.446000           0.020381           0.755958           0.003052           0.844800
       -0.444000           0.019797           0.757861           0.003057           0.845106
       -0.442000           0.019242           0.759712           0.003062           0.845412
       -0.440000           0.018715           0.761517           0.003066           0.845718
       -0.438000           0.018215           0.763276           0.003071           0.846026
       -0.436000           0.017738           0.764993           0.003076           0.846332
       -0.434000           0.017284           0.766667           0.003081           0.846641
       -0.432000           0.016852           0.768303           0.003085           0.846949
       -0.430000           0.016439           0.769900           0.003090           0.847256
       -0.428000           0.016046           0.771461           0.003095           0.847567
       -0.426000           0.015670           0.772987           0.003100           0.847876
       -0.424000           0.015311           0.774480           0.003105           0.848186
       -0.422000           0.014968           0.775941           0.003110           0.848497
       -0.420000           0.014640           0.777371           0.003115           0.848809
       -0.418000           0.014326           0.778773           0.003120           0.849120
       -0.416000           0.014025           0.780146           0.003124           0.849432
       -0.414000           0.013737           0.781492           0.003129           0.849745
       -0.412000           0.013461           0.782813           0.003134           0.850057
       -0.410000           0.013196           0.784107           0.003139           0.850371
       -0.408000           0.012941           0.785379           0.003145           0.850686
       -0.406000           0.012697           0.786626           0.003150           0.850999
       -0.404000           0.012463           0.787852           0.003155           0.851315
       -0.402000           0.012237           0.789057           0.003160           0.851631
       -0.400000           0.012021           0.790241           0.003165           0.851946
       -0.398000           0.011812           0.791405           0.003170           0.852264
       -0.396000           0.011612           0.792551           0.003175           0.852581
       -0.394000           0.011419           0.793676           0.003180           0.852899
       -0.392000           0.011233           0.794785           0.003186           0.853218
       -0.390000           0.011054           0.795877           0.003191           0.853536
       -0.388000           0.010881           0.796952           0.003196           0.853854
       -0.386000           0.010715           0.798011           0.003201           0.854175
       -0.384000           0.010555           0.799055           0.003207           0.854494
       -0.382000           0.010400           0.800084           0.003212           0.854817
       -0.380000           0.010250           0.801099           0.003217           0.855138
       -0.378000           0.010106           0.802099           0.003223           0.855459
       -0.376000           0.009967           0.803086           0.003228           0.855781
       -0.374000           0.009833           0.804060           0.003234           0.856104
       -0.372000           0.009703           0.805022           0.003239           0.856429
       -0.370000           0.009577           0.805971           0.003244           0.856752
       -0.368000           0.009456           0.806910           0.003250           0.857078
       -0.366000           0.009338           0.807835           0.003255           0.857402
       -0.364000           0.009225           0.808751           0.003261           0.857728
       -0.362000           0.009115           0.809656           0.003266           0.858055
       -0.360000           0.009009           0.810550           0.003272           0.858381
       -0.358000           0.008906           0.811435           0.003278           0.858708
       -0.356000           0.008806           0.812310           0.003283           0.859037
       -0.354000           0.008710           0.813175           0.003289           0.859365
       -0.352000           0.008616           0.814031           0.003295           0.859693
       -0.350000           0.008526           0.814879           0.003300           0.860024
       -0.348000           0.008438           0.815718           0.003306           0.860355
       -0.346000           0.008353           0.816548           0.003312           0.860684
       -0.344000           0.008271           0.817371           0.003318           0.861015
       -0.342000           0.008191           0.818186           0.003323           0.861348
       -0.340000           0.008113           0.818992           0.003329           0.861681
       -0.338000           0.008038           0.819792           0.003335           0.862013
       -0.336000           0.007965           0.820585           0.003341           0.862348
       -0.334000           0.007895           0.821371           0.003347           0.862681
       -0.332000           0.007826           0.822150           0.003353           0.863017
       -0.330000           0.007759           0.822922           0.003359           0.863352
       -0.328000           0.007695           0.823688           0.003365           0.863689
       -0.326000           0.007632           0.824449           0.003371           0.864025
       -0.324000           0.007571           0.825203           0.003377           0.864362
       -0.322000           0.007512           0.825951           0.003383           0.864700
       -0.320000           0.007455           0.826693           0.003389           0.865038
       -0.318000           0.007399           0.827431           0.003395           0.865378
       -0.316000           0.007345           0.828163           0.003401           0.865718
       -0.314000           0.007292           0.828890           0.003408           0.866058
       -0.312000           0.007241           0.829611           0.003414           0.866399
       -0.310000           0.007191           0.830327           0.003420           0.866741
       -0.308000           0.007143           0.831040           0.003426           0.867083
       -0.306000           0.007096           0.831747           0.003433           0.867427
       -0.304000           0.007051           0.832450           0.003439           0.867769
       -0.302000           0.007007           0.833149           0.003445           0.868114
       -0.300000           0.006964           0.833843           0.003452           0.868458
       -0.298000           0.006922           0.834533           0.003458           0.868803
       -0.296000           0.006882           0.835220           0.003465           0.869149
       -0.294000           0.006842           0.835902           0.003471           0.869496
       -0.292000           0.006804           0.836581           0.003478           0.869844
       -0.290000           0.006767           0.837256           0.003484           0.870192
       -0.288000           0.006731           0.837927           0.003491           0.870540
       -0.286000           0.006696           0.838595           0.003498           0.870889
       -0.284000           0.006661           0.839259           0.003504           0.871239
       -0.282000           0.006628           0.839921           0.003511           0.871590
       -0.280000           0.006596           0.840579           0.003518           0.871942
       -0.278000           0.006565           0.841234           0.003524           0.872294
       -0.276000           0.006534           0.841885           0.003531           0.872646
       -0.274000           0.006505           0.842535           0.003538           0.873000
       -0.272000           0.006476           0.843182           0.003545           0.873353
       -0.270000           0.006448           0.843824           0.003552           0.873708
       -0.268000           0.006421           0.844465           0.003559           0.874063
       -0.266000           0.006395           0.845103           0.003566           0.874420
       -0.264000           0.006370           0.845739           0.003573           0.874777
       -0.262000           0.006345           0.846373           0.003580           0.875134
       -0.260000           0.006321           0.847004           0.003587           0.875493
       -0.258000           0.006298           0.847633           0.003594           0.875852
       -0.256000           0.006275           0.848258           0.003601           0.876210
       -0.254000           0.006253           0.848882           0.003608           0.876571
       -0.252000           0.006232           0.849504           0.003615           0.876933
       -0.250000           0.006212           0.850124           0.003623           0.877295
       -0.248000           0.006192           0.850743           0.003630           0.877657
       -0.246000           0.006172           0.851358           0.003637           0.878019
       -0.244000           0.006154           0.851973           0.003645           0.878384
       -0.242000           0.006136           0.852585           0.003652           0.878749
       -0.240000           0.006118           0.853196           0.003660           0.879114
       -0.238000           0.006101           0.853805           0.003667           0.879480
       -0.236000           0.006085           0.854412           0.003675           0.879846
       -0.234000           0.006069           0.855020           0.003682           0.880214
       -0.232000           0.006053           0.855623           0.003690           0.880583
       -0.230000           0.006039           0.856226           0.003697           0.880953
       -0.228000           0.006024           0.856828           0.003705           0.881322
       -0.226000           0.006011           0.857428           0.003713           0.881694
       -0.224000           0.005997           0.858027           0.003721           0.882065
       -0.222000           0.005984           0.858624           0.003728           0.882437
       -0.220000           0.005972           0.859220           0.003736           0.882811
       -0.218000           0.005960           0.859814           0.003744           0.883184
       -0.216000           0.005949           0.860408           0.003752           0.883558
       -0.214000           0.005938           0.861001           0.003760           0.883934
       -0.212000           0.005927           0.861594           0.003768           0.884310
       -0.210000           0.005917           0.862184           0.003776           0.884687
       -0.208000           0.005908           0.862774           0.003784           0.885065
       -0.206000           0.005898           0.863363           0.003793           0.885444
       -0.204000           0.005889           0.863951           0.003801           0.885823
       -0.202000           0.005881           0.864538           0.003809           0.886203
       -0.200000           0.005873           0.865125           0.003817           0.886585
       -0.198000           0.005865           0.865709           0.003826           0.886967
       -0.196000           0.005858           0.866295           0.003834           0.887349
       -0.194000           0.005851           0.866878           0.003843           0.887733
       -0.192000           0.005845           0.867462           0.003851           0.888118
       -0.190000           0.005838           0.868046           0.003860           0.888503
       -0.188000           0.005833           0.868627           0.003868           0.888889
       -0.186000           0.005827           0.869211           0.003877           0.889277
       -0.184000           0.005822           0.869792           0.003886           0.889665
       -0.182000           0.005817           0.870372           0.003894           0.890054
       -0.180000           0.005813           0.870952           0.003903           0.890443
       -0.178000           0.005809           0.871533           0.003912           0.890833
       -0.176000           0.005805           0.872112           0.003921           0.891226
       -0.174000           0.005802           0.872691           0.003930           0.891617
       -0.172000           0.005799           0.873271           0.003939           0.892012
       -0.170000           0.005796           0.873849           0.003948           0.892406
       -0.168000           0.005793           0.874427           0.003957           0.892800
       -0.166000           0.005791           0.875005           0.003966           0.893196
       -0.164000           0.005790           0.875583           0.003976           0.893593
       -0.162000           0.005788           0.876161           0.003985           0.893991
       -0.160000           0.005787           0.876738           0.003994           0.894391
       -0.158000           0.005786           0.877317           0.004004           0.894790
       -0.156000           0.005785           0.877894           0.004013           0.895190
       -0.154000           0.005785           0.878471           0.004023           0.895592
       -0.152000           0.005785           0.879049           0.004032           0.895994
       -0.150000           0.005785           0.879627           0.004042           0.896398
       -0.148000           0.005786           0.880204           0.004052           0.896802
       -0.146000           0.005787           0.880783           0.004061           0.897208
       -0.144000           0.005788           0.881360           0.004071           0.897614
       -0.142000           0.005789           0.881938           0.004081           0.898021
       -0.140000           0.005791           0.882516           0.004091           0.898431
       -0.138000           0.005793           0.883094           0.004101           0.898839
       -0.136000           0.005795           0.883672           0.004111           0.899251
       -0.134000           0.005797           0.884251           0.004121           0.899661
       -0.132000           0.005800           0.884830           0.004131           0.900074
       -0.130000           0.005803           0.885409           0.004142           0.900486
       -0.128000           0.005806           0.885988           0.004152           0.900901
       -0.126000           0.005810           0.886569           0.004163           0.901319
       -0.124000           0.005814           0.887149           0.004173           0.901733
       -0.122000           0.005818           0.887730           0.004184           0.902150
       -0.120000           0.005822           0.888311           0.004194           0.902569
       -0.118000           0.005827           0.888893           0.004205           0.902990
       -0.116000           0.005832           0.889475           0.004216           0.903409
       -0.114000           0.005837           0.890058           0.004226           0.903832
       -0.112000           0.005842           0.890640           0.004237           0.904257
       -0.110000           0.005848           0.891224           0.004248           0.904678
       -0.108000           0.005854           0.891808           0.004259           0.905103
       -0.106000           0.005860           0.892394           0.004270           0.905532
       -0.104000           0.005866           0.892978           0.004282           0.905958
       -0.102000           0.005873           0.893565           0.004293           0.906386
       -0.100000           0.005880           0.894150           0.004304           0.906815
       -0.098000           0.005887           0.894739           0.004316           0.907247
       -0.096000           0.005894           0.895328           0.004327           0.907678
       -0.094000           0.005902           0.895916           0.004339           0.908111
       -0.092000           0.005910           0.896506           0.004351           0.908547
       -0.090000           0.005918           0.897096           0.004362           0.908981
       -0.088000           0.005926           0.897688           0.004374           0.909418
       -0.086000           0.005935           0.898280           0.004386           0.909855
       -0.084000           0.005944           0.898873           0.004398           0.910294
       -0.082000           0.005953           0.899467           0.004410           0.910734
       -0.080000           0.005962           0.900062           0.004422           0.911175
       -0.078000           0.005972           0.900658           0.004435           0.911617
       -0.076000           0.005982           0.901254           0.004447           0.912063
       -0.074000           0.005992           0.901852           0.004459           0.912507
       -0.072000           0.006002           0.902451           0.004472           0.912953
       -0.070000           0.006013           0.903051           0.004485           0.913401
       -0.068000           0.006024           0.903652           0.004497           0.913851
       -0.066000           0.006035           0.904253           0.004510           0.914299
       -0.064000           0.006046           0.904857           0.004523           0.914750
       -0.062000           0.006058           0.905461           0.004536           0.915204
       -0.060000           0.006070           0.906067           0.004549           0.915657
       -0.058000           0.006082           0.906674           0.004562           0.916112
       -0.056000           0.006095           0.907281           0.004576           0.916569
       -0.054000           0.006107           0.907891           0.004589           0.917027
       -0.052000           0.006120           0.908501           0.004603           0.917487
       -0.050000           0.006134           0.909113           0.004616           0.917948
       -0.048000           0.006147           0.909726           0.004630           0.918409
       -0.046000           0.006161           0.910341           0.004644           0.918872
       -0.044000           0.006175           0.910957           0.004658           0.919336
       -0.042000           0.006189           0.911575           0.004672           0.919804
       -0.040000           0.006204           0.912193           0.004686           0.920270
       -0.038000           0.006219           0.912813           0.004700           0.920739
       -0.036000           0.006234           0.913435           0.004714           0.921209
       -0.034000           0.006249           0.914058           0.004729           0.921682
       -0.032000           0.006265           0.914682           0.004744           0.922155
       -0.030000           0.006281           0.915309           0.004758           0.922629
       -0.028000           0.006297           0.915937           0.004773           0.923106
       -0.026000           0.006314           0.916566           0.004788           0.923583
       -0.024000           0.006331           0.917198           0.004803           0.924063
       -0.022000           0.006348           0.917830           0.004818           0.924543
       -0.020000           0.006365           0.918465           0.004834           0.925024
       -0.018000           0.006383           0.919102           0.004849           0.925509
       -0.016000           0.006401           0.919740           0.004865           0.925994
       -0.014000           0.006420           0.920380           0.004880           0.926481
       -0.012000           0.006438           0.921022           0.004896           0.926970
       -0.010000           0.006457           0.921666           0.004912           0.927459
       -0.008000           0.006477           0.922312           0.004928           0.927952
       -0.006000           0.006496           0.922960           0.004945           0.928444
       -0.004000           0.006516           0.923609           0.004961           0.928939
       -0.002000           0.006536           0.924261           0.004978           0.929434
        0.000000           0.006557           0.924914           0.004994           0.929933
        0.002000           0.006578           0.925569           0.005011           0.930433
        0.004000           0.006599           0.926226           0.005028           0.930935
        0.006000           0.006621           0.926887           0.005045           0.931439
        0.008000           0.006643           0.927549           0.005063           0.931942
        0.010000           0.006665           0.928214           0.005080           0.932449
        0.012000           0.006688           0.928880           0.005098           0.932959
        0.014000           0.006711           0.929549           0.005115           0.933467
        0.016000           0.006734           0.930218           0.005133           0.933980
        0.018000           0.006758           0.930891           0.005151           0.934493
        0.020000           0.006782           0.931568           0.005170           0.935009
        0.022000           0.006807           0.932247           0.005188           0.935528
        0.024000           0.006831           0.932927           0.005206           0.936045
        0.026000           0.006857           0.933609           0.005225           0.936567
        0.028000           0.006882           0.934295           0.005244           0.937088
        0.030000           0.006908           0.934984           0.005263           0.937615
        0.032000           0.006935           0.935675           0.005283           0.938141
        0.034000           0.006962           0.936367           0.005302           0.938670
        0.036000           0.006989           0.937065           0.005322           0.939201
        0.038000           0.007017           0.937764           0.005341           0.939733
        0.040000           0.007045           0.938465           0.005361           0.940267
        0.042000           0.007074           0.939170           0.005382           0.940804
        0.044000           0.007103           0.939877           0.005402           0.941342
        0.046000           0.007132           0.940587           0.005423           0.941882
        0.048000           0.007162           0.941300           0.005444           0.942427
        0.050000           0.007192           0.942016           0.005465           0.942970
        0.052000           0.007223           0.942735           0.005486           0.943518
        0.054000           0.007255           0.943458           0.005507           0.944066
        0.056000           0.007287           0.944183           0.005529           0.944617
        0.058000           0.007319           0.944911           0.005551           0.945170
        0.060000           0.007352           0.945643           0.005573           0.945726
        0.062000           0.007385           0.946378           0.005595           0.946283
        0.064000           0.007419           0.947116           0.005618           0.946844
        0.066000           0.007453           0.947858           0.005641           0.947405
        0.068000           0.007488           0.948604           0.005664           0.947970
        0.070000           0.007524           0.949353           0.005687           0.948536
        0.072000           0.007560           0.950105           0.005710           0.949105
        0.074000           0.007597           0.950860           0.005734           0.949677
        0.076000           0.007634           0.951621           0.005758           0.950250
        0.078000           0.007672           0.952383           0.005782           0.950827
        0.080000           0.007710           0.953151           0.005807           0.951405
        0.082000           0.007750           0.953922           0.005832           0.951986
        0.084000           0.007789           0.954697           0.005857           0.952570
        0.086000           0.007830           0.955476           0.005882           0.953155
        0.088000           0.007871           0.956258           0.005908           0.953745
        0.090000           0.007912           0.957045           0.005934           0.954335
        0.092000           0.007955           0.957837           0.005960           0.954928
        0.094000           0.007998           0.958632           0.005987           0.955524
        0.096000           0.008042           0.959431           0.006014           0.956124
        0.098000           0.008086           0.960234           0.006041           0.956725
        0.100000           0.008132           0.961043           0.006068           0.957331
        0.102000           0.008178           0.961855           0.006096           0.957938
        0.104000           0.008225           0.962674           0.006124           0.958547
        0.106000           0.008272           0.963496           0.006152           0.959161
        0.108000           0.008321           0.964323           0.006181           0.959776
        0.110000           0.008370           0.965154           0.006210           0.960394
        0.112000           0.008420           0.965992           0.006240           0.961016
        0.114000           0.008471           0.966832           0.006270           0.961640
        0.116000           0.008523           0.967679           0.006300           0.962267
        0.118000           0.008576           0.968532           0.006330           0.962896
        0.120000           0.008629           0.969388           0.006361           0.963530
        0.122000           0.008684           0.970251           0.006392           0.964167
        0.124000           0.008740           0.971118           0.006424           0.964806
        0.126000           0.008797           0.971992           0.006456           0.965449
        0.128000           0.008854           0.972870           0.006489           0.966095
        0.130000           0.008913           0.973756           0.006522           0.966744
        0.132000           0.008973           0.974645           0.006555           0.967397
        0.134000           0.009034           0.975543           0.006589           0.968053
        0.136000           0.009096           0.976445           0.006623           0.968711
        0.138000           0.009159           0.977355           0.006658           0.969375
        0.140000           0.009223           0.978269           0.006693           0.970039
        0.142000           0.009289           0.979190           0.006728           0.970708
        0.144000           0.009356           0.980119           0.006764           0.971382
        0.146000           0.009424           0.981052           0.006801           0.972058
        0.148000           0.009493           0.981995           0.006838           0.972738
        0.150000           0.009564           0.982943           0.006876           0.973423
        0.152000           0.009636           0.983898           0.006914           0.974110
        0.154000           0.009710           0.984860           0.006952           0.974802
        0.156000           0.009785           0.985830           0.006992           0.975498
        0.158000           0.009862           0.986806           0.007031           0.976197
        0.160000           0.009940           0.987792           0.007072           0.976900
        0.162000           0.010019           0.988785           0.007112           0.977608
        0.164000           0.010101           0.989786           0.007154           0.978319
        0.166000           0.010184           0.990794           0.007196           0.979034
        0.168000           0.010269           0.991810           0.007239           0.979754
        0.170000           0.010355           0.992836           0.007282           0.980478
        0.172000           0.010444           0.993870           0.007326           0.981207
        0.174000           0.010534           0.994912           0.007371           0.981939
        0.176000           0.010626           0.995964           0.007416           0.982675
        0.178000           0.010720           0.997024           0.007462           0.983417
        0.180000           0.010817           0.998093           0.007509           0.984162
        0.182000           0.010915           0.999172           0.007556           0.984914
        0.184000           0.011016           1.000262           0.007604           0.985668
        0.186000           0.011119           1.001360           0.007653           0.986430
        0.188000           0.011224           1.002470           0.007703           0.987194
        0.190000           0.011332           1.003590           0.007753           0.987965
        0.192000           0.011442           1.004719           0.007805           0.988739
        0.194000           0.011555           1.005859           0.007857           0.989519
        0.196000           0.011670           1.007012           0.007910           0.990307
        0.198000           0.011788           1.008175           0.007964           0.991097
        0.200000           0.011909           1.009350           0.008019           0.991892
        0.202000           0.012033           1.010538           0.008075           0.992694
        0.204000           0.012160           1.011737           0.008131           0.993501
        0.206000           0.012291           1.012948           0.008189           0.994314
        0.208000           0.012424           1.014174           0.008248           0.995132
        0.210000           0.012561           1.015410           0.008307           0.995955
        0.212000           0.012701           1.016660           0.008368           0.996787
        0.214000           0.012845           1.017926           0.008430           0.997621
        0.216000           0.012993           1.019205           0.008493           0.998466
        0.218000           0.013145           1.020498           0.008557           0.999314
        0.220000           0.013301           1.021806           0.008623           1.000168
        0.222000           0.013461           1.023130           0.008689           1.001031
        0.224000           0.013625           1.024469           0.008757           1.001898
        0.226000           0.013794           1.025824           0.008826           1.002772
        0.228000           0.013968           1.027197           0.008897           1.003655
        0.230000           0.014147           1.028585           0.008968           1.004543
        0.232000           0.014330           1.029991           0.009042           1.005439
        0.234000           0.014520           1.031416           0.009116           1.006342
        0.236000           0.014714           1.032857           0.009192           1.007253
        0.238000           0.014915           1.034319           0.009270           1.008169
        0.240000           0.015121           1.035800           0.009349           1.009094
        0.242000           0.015334           1.037300           0.009430           1.010028
        0.244000           0.015554           1.038822           0.009512           1.010970
        0.246000           0.015780           1.040366           0.009597           1.011920
        0.248000           0.016014           1.041930           0.009683           1.012878
        0.250000           0.016255           1.043516           0.009771           1.013844
        0.252000           0.016504           1.045127           0.009860           1.014820
        0.254000           0.016761           1.046761           0.009952           1.015802
        0.256000           0.017027           1.048421           0.010046           1.016796
        0.258000           0.017302           1.050106           0.010142           1.017797
        0.260000           0.017586           1.051818           0.010239           1.018811
        0.262000           0.017880           1.053556           0.010340           1.019830
        0.264000           0.018185           1.055322           0.010442           1.020862
        0.266000           0.018501           1.057118           0.010547           1.021903
        0.268000           0.018828           1.058944           0.010654           1.022956
        0.270000           0.019167           1.060801           0.010764           1.024017
        0.272000           0.019519           1.062691           0.010877           1.025089
        0.274000           0.019885           1.064614           0.010992           1.026175
        0.276000           0.020265           1.066572           0.011110           1.027270
        0.278000           0.020659           1.068565           0.011231           1.028378
        0.280000           0.021070           1.070595           0.011355           1.029497
        0.282000           0.021497           1.072664           0.011483           1.030627
        0.284000           0.021942           1.074774           0.011613           1.031771
        0.286000           0.022405           1.076926           0.011747           1.032925
        0.288000           0.022889           1.079119           0.011885           1.034097
        0.290000           0.023393           1.081359           0.012026           1.035278
        0.292000           0.023920           1.083645           0.012171           1.036476
        0.294000           0.024470           1.085979           0.012320           1.037686
        0.296000           0.025046           1.088366           0.012473           1.038912
        0.298000           0.025648           1.090804           0.012630           1.040153
        0.300000           0.026279           1.093297           0.012792           1.041407
        0.302000           0.026941           1.095849           0.012959           1.042679
        0.304000           0.027635           1.098460           0.013130           1.043967
        0.306000           0.028364           1.101135           0.013307           1.045269
        0.308000           0.029130           1.103875           0.013489           1.046591
        0.310000           0.029937           1.106683           0.013676           1.047932
        0.312000           0.030786           1.109563           0.013869           1.049288
        0.314000           0.031681           1.112519           0.014068           1.050662
        0.316000           0.032626           1.115552           0.014274           1.052060
        0.318000           0.033625           1.118669           0.014486           1.053474
        0.320000           0.034681           1.121871           0.014705           1.054909
        0.322000           0.035800           1.125164           0.014931           1.056367
        0.324000           0.036985           1.128554           0.015164           1.057844
        0.326000           0.038245           1.132044           0.015406           1.059345
        0.328000           0.039583           1.135639           0.015656           1.060871
        0.330000           0.041008           1.139346           0.015915           1.062417
        0.332000           0.042526           1.143168           0.016183           1.063990
        0.334000           0.044148           1.147114           0.016460           1.065589
        0.336000           0.045881           1.151189           0.016748           1.067213
        0.338000           0.047737           1.155399           0.017046           1.068866
        0.340000           0.049728           1.159755           0.017356           1.070546
        0.342000           0.051867           1.164262           0.017677           1.072257
        0.344000           0.054169           1.168928           0.018011           1.073997
        0.346000           0.056652           1.173762           0.018359           1.075768
        0.348000           0.059333           1.178772           0.018720           1.077573
        0.350000           0.062235           1.183968           0.019095           1.079412
        0.352000           0.065384           1.189361           0.019487           1.081285
        0.354000           0.068805           1.194956           0.019895           1.083197
        0.356000           0.072532           1.200765           0.020320           1.085146
        0.358000           0.076601           1.206798           0.020764           1.087133
        0.360000           0.081053           1.213061           0.021228           1.089162
        0.362000           0.085937           1.219563           0.021712           1.091236
        0.364000           0.091306           1.226308           0.022219           1.093353
        0.366000           0.097226           1.233300           0.022750           1.095515
        0.368000           0.103767           1.240536           0.023305           1.097727
        0.370000           0.111013           1.248010           0.023888           1.099992
        0.372000           0.119062           1.255709           0.024499           1.102306
        0.374000           0.128023           1.263605           0.025142           1.104678
        0.376000           0.138025           1.271660           0.025817           1.107107
        0.378000           0.149212           1.279817           0.026527           1.109596
        0.380000           0.161748           1.287988           0.027276           1.112149
        0.382000           0.175818           1.296051           0.028065           1.114765
        0.384000           0.191626           1.303839           0.028897           1.117455
        0.386000           0.209386           1.311125           0.029777           1.120217
        0.388000           0.229323           1.317594           0.030708           1.123054
        0.390000           0.251649           1.322839           0.031693           1.125973
        0.392000           0.276538           1.326325           0.032738           1.128976
        0.394000           0.304086           1.327374           0.033846           1.132065
        0.396000           0.334244           1.325154           0.035025           1.135251
        0.398000           0.366735           1.318684           0.036279           1.138534
        0.400000           0.400955           1.306885           0.037616           1.141918
        0.402000           0.435858           1.288696           0.039042           1.145415
        0.404000           0.469885           1.263253           0.040566           1.149023
        0.406000           0.500988           1.230148           0.042198           1.152756
        0.408000           0.526780           1.189719           0.043947           1.156611
        0.410000           0.544888           1.143271           0.045824           1.160604
        0.412000           0.553436           1.093056           0.047844           1.164740
        0.414000           0.551496           1.042019           0.050020           1.169023
        0.416000           0.539347           0.993269           0.052368           1.173464
        0.418000           0.518393           0.949490           0.054907           1.178072
        0.420000           0.490804           0.912526           0.057659           1.182855
        0.422000           0.459008           0.883225           0.060645           1.187821
        0.424000           0.425278           0.861563           0.063895           1.192981
        0.426000           0.391457           0.846891           0.067437           1.198341
        0.428000           0.358864           0.838227           0.071308           1.203914
        0.430000           0.328338           0.834482           0.075546           1.209704
        0.432000           0.300327           0.834619           0.080199           1.215725
        0.434000           0.274995           0.837718           0.085319           1.221972
        0.436000           0.252318           0.843023           0.090966           1.228454
        0.438000           0.232165           0.849920           0.097210           1.235170
        0.440000           0.214341           0.857940           0.104131           1.242117
        0.442000           0.198632           0.866721           0.111824           1.249277
        0.444000           0.184820           0.875995           0.120393           1.256630
        0.446000           0.172697           0.885567           0.129962           1.264141
        0.448000           0.162075           0.895293           0.140671           1.271757
        0.450000           0.152782           0.905072           0.152677           1.279400
        0.452000           0.144669           0.914838           0.166161           1.286952
        0.454000           0.137606           0.924542           0.181320           1.294265
        0.456000           0.131480           0.934160           0.198368           1.301122
        0.458000           0.126193           0.943675           0.217527           1.307239
        0.460000           0.121666           0.953081           0.239013           1.312228
        0.462000           0.117828           0.962383           0.263015           1.315593
        0.464000           0.114621           0.971585           0.289652           1.316692
        0.466000           0.111999           0.980697           0.318918           1.314736
        0.468000           0.109922           0.989733           0.350608           1.308773
        0.470000           0.108360           0.998710           0.384211           1.297746
        0.472000           0.107291           1.007641           0.418804           1.280572
        0.474000           0.106699           1.016545           0.452967           1.256309
        0.476000           0.106575           1.025440           0.484768           1.224406
        0.478000           0.106916           1.034343           0.511878           1.184980
        0.480000           0.107726           1.043272           0.531882           1.139068
        0.482000           0.109015           1.052245           0.542723           1.088697
        0.484000           0.110800           1.061280           0.543189           1.036664
        0.486000           0.113105           1.070390           0.533238           0.986095
        0.488000           0.115962           1.079594           0.514007           0.939837
        0.490000           0.119411           1.088901           0.487509           0.899969
        0.492000           0.123500           1.098325           0.456152           0.867604
        0.494000           0.128290           1.107870           0.422282           0.842919
        0.496000           0.133852           1.117534           0.387863           0.825393
        0.498000           0.140269           1.127313           0.354353           0.814107
        0.500000           0.147642           1.137191           0.322708           0.807980
        0.502000           0.156085           1.147137           0.293460           0.805948
        0.504000           0.165733           1.157102           0.266837           0.807055
        0.506000           0.176737           1.167014           0.242856           0.810496
        0.508000           0.189274           1.176764           0.221401           0.815623
        0.510000           0.203533           1.186203           0.202289           0.821926
        0.512000           0.219727           1.195126           0.185306           0.829014
        0.514000           0.238072           1.203248           0.170227           0.836594
        0.516000           0.258783           1.210190           0.156839           0.844449
        0.518000           0.282046           1.215466           0.144944           0.852420
        0.520000           0.307979           1.218436           0.134360           0.860393
        0.522000           0.336579           1.218314           0.124928           0.868286
        0.524000           0.367644           1.214161           0.116507           0.876047
        0.526000           0.400669           1.204922           0.108973           0.883637
        0.528000           0.434738           1.189516           0.102219           0.891035
        0.530000           0.468447           1.166996           0.096150           0.898226
        0.532000           0.499870           1.136800           0.090686           0.905204
        0.534000           0.526685           1.099030           0.085757           0.911971
        0.536000           0.546474           1.054699           0.081301           0.918528
        0.538000           0.557161           1.005807           0.077266           0.924881
        0.540000           0.557510           0.955155           0.073605           0.931037
        0.542000           0.547447           0.905855           0.070277           0.937004
        0.544000           0.528083           0.860772           0.067249           0.942793
        0.546000           0.501412           0.822012           0.064488           0.948411
        0.548000           0.469840           0.790712           0.061968           0.953870
        0.550000           0.435717           0.767067           0.059665           0.959177
        0.552000           0.401018           0.750576           0.057559           0.964342
        0.554000           0.367211           0.740325           0.055630           0.969373
        0.556000           0.335266           0.735237           0.053863           0.974280
        0.558000           0.305722           0.734246           0.052244           0.979070
        0.560000           0.278811           0.736394           0.050759           0.983751
        0.562000           0.254556           0.740875           0.049397           0.988332
        0.564000           0.232841           0.747036           0.048148           0.992817
        0.566000           0.213486           0.754364           0.047003           0.997216
        0.568000           0.196274           0.762469           0.045954           1.001532
        0.570000           0.180982           0.771057           0.044994           1.005775
        0.572000           0.167396           0.779907           0.044116           1.009949
        0.574000           0.155316           0.788864           0.043314           1.014058
        0.576000           0.144561           0.797811           0.042584           1.018108
        0.578000           0.134971           0.806667           0.041921           1.022107
        0.580000           0.126402           0.815379           0.041320           1.026054
        0.582000           0.118732           0.823911           0.040778           1.029961
        0.584000           0.111852           0.832239           0.040292           1.033825
        0.586000           0.105667           0.840351           0.039858           1.037655
        0.588000           0.100097           0.848242           0.039473           1.041451
        0.590000           0.095072           0.855911           0.039136           1.045221
        0.592000           0.090528           0.863364           0.038845           1.048966
        0.594000           0.086414           0.870605           0.038596           1.052693
        0.596000           0.082682           0.877644           0.038390           1.056398
        0.598000           0.079293           0.884487           0.038223           1.060093
        0.600000           0.076210           0.891146           0.038096           1.063776
        0.602000           0.073403           0.897632           0.038006           1.067452
        0.604000           0.070845           0.903951           0.037953           1.071126
        0.606000           0.068513           0.910117           0.037936           1.074797
        0.608000           0.066384           0.916138           0.037954           1.078471
        0.610000           0.064441           0.922024           0.038008           1.082148
        0.612000           0.062669           0.927783           0.038096           1.085833
        0.614000           0.061051           0.933427           0.038218           1.089535
        0.616000           0.059576           0.938961           0.038375           1.093245
        0.618000           0.058233           0.944395           0.038566           1.096974
        0.620000           0.057011           0.949736           0.038792           1.100723
        0.622000           0.055901           0.954992           0.039052           1.104495
        0.624000           0.054897           0.960172           0.039348           1.108292
        0.626000           0.053990           0.965279           0.039680           1.112121
        0.628000           0.053176           0.970322           0.040048           1.115979
        0.630000           0.052447           0.975308           0.040453           1.119874
        0.632000           0.051799           0.980241           0.040897           1.123807
        0.634000           0.051229           0.985129           0.041381           1.127783
        0.636000           0.050732           0.989975           0.041905           1.131804
        0.638000           0.050306           0.994788           0.042472           1.135873
        0.640000           0.049946           0.999569           0.043083           1.139996
        0.642000           0.049652           1.004327           0.043740           1.144173
        0.644000           0.049420           1.009065           0.044445           1.148412
        0.646000           0.049249           1.013788           0.045200           1.152715
        0.648000           0.049138           1.018504           0.046009           1.157087
        0.650000           0.049086           1.023214           0.046873           1.161530
        0.652000           0.049091           1.027923           0.047797           1.166052
        0.654000           0.049154           1.032637           0.048783           1.170655
        0.656000           0.049273           1.037362           0.049835           1.175346
        0.658000           0.049450           1.042099           0.050958           1.180127
        0.660000           0.049684           1.046857           0.052157           1.185007
        0.662000           0.049976           1.051637           0.053437           1.189991
        0.664000           0.050327           1.056446           0.054803           1.195086
        0.666000           0.050738           1.061288           0.056263           1.200294
        0.668000           0.051211           1.066169           0.057823           1.205628
        0.670000           0.051747           1.071093           0.059491           1.211091
        0.672000           0.052348           1.076067           0.061277           1.216691
        0.674000           0.053018           1.081092           0.063189           1.222434
        0.676000           0.053758           1.086178           0.065240           1.228333
        0.678000           0.054573           1.091329           0.067442           1.234395
        0.680000           0.055465           1.096550           0.069807           1.240627
        0.682000           0.056440           1.101849           0.072353           1.247040
        0.684000           0.057501           1.107231           0.075097           1.253646
        0.686000           0.058655           1.112702           0.078058           1.260450
        0.688000           0.059906           1.118272           0.081260           1.267467
        0.690000           0.061263           1.123944           0.084726           1.274709
        0.692000           0.062731           1.129727           0.088486           1.282186
        0.694000           0.064321           1.135629           0.092574           1.289906
        0.696000           0.066041           1.141660           0.097025           1.297885
        0.698000           0.067902           1.147827           0.101883           1.306131
        0.700000           0.069915           1.154139           0.107198           1.314648
        0.702000           0.072095           1.160606           0.113024           1.323454
        0.704000           0.074456           1.167236           0.119427           1.332547
        0.706000           0.077016           1.174044           0.126480           1.341930
        0.708000           0.079793           1.181034           0.134268           1.351597
        0.710000           0.082809           1.188222           0.142891           1.361542
        0.712000           0.086089           1.195619           0.152459           1.371737
        0.714000           0.089662           1.203234           0.163103           1.382147
        0.716000           0.093558           1.211081           0.174970           1.392718
        0.718000           0.097815           1.219172           0.188226           1.403368
        0.720000           0.102474           1.227513           0.203057           1.413981
        0.722000           0.107583           1.236119           0.219671           1.424389
        0.724000           0.113196           1.244996           0.238285           1.434369
        0.726000           0.119376           1.254151           0.259128           1.443620
        0.728000           0.126195           1.263588           0.282417           1.451738
        0.730000           0.133736           1.273302           0.308329           1.458190
        0.732000           0.142095           1.283285           0.336967           1.462308
        0.734000           0.151381           1.293520           0.368291           1.463267
        0.736000           0.161721           1.303972           0.402033           1.460095
        0.738000           0.173258           1.314594           0.437602           1.451722
        0.740000           0.186155           1.325312           0.473964           1.437088
        0.742000           0.200595           1.336015           0.509579           1.415328
        0.744000           0.216783           1.346558           0.542412           1.386038
        0.746000           0.234937           1.356728           0.570088           1.349549
        0.748000           0.255284           1.366247           0.590243           1.307155
        0.750000           0.278050           1.374737           0.600998           1.261112
        0.752000           0.303428           1.381701           0.601423           1.214360
        0.754000           0.331548           1.386507           0.591793           1.170022
        0.756000           0.362416           1.388369           0.573511           1.130800
        0.758000           0.395832           1.386348           0.548758           1.098567
        0.760000           0.431299           1.379391           0.519984           1.074200
        0.762000           0.467909           1.366424           0.489486           1.057691
        0.764000           0.504252           1.346516           0.459140           1.048415
        0.766000           0.538417           1.319117           0.430304           1.045407
        0.768000           0.568094           1.284361           0.403855           1.047592
        0.770000           0.590888           1.243296           0.380281           1.053947
        0.772000           0.604770           1.197953           0.359791           1.063564
        0.774000           0.608557           1.151148           0.342412           1.075700
        0.776000           0.602240           1.106012           0.328068           1.089754
        0.778000           0.586996           1.065396           0.316626           1.105271
        0.780000           0.564882           1.031398           0.307941           1.121895
        0.782000           0.538354           1.005125           0.301878           1.139377
        0.784000           0.509812           0.986761           0.298320           1.157528
        0.786000           0.481290           0.975790           0.297186           1.176204
        0.788000           0.454315           0.971287           0.298429           1.195309
        0.790000           0.429928           0.972166           0.302040           1.214761
        0.792000           0.408764           0.977342           0.308054           1.234497
        0.794000           0.391161           0.985839           0.316547           1.254447
        0.796000           0.377267           0.996804           0.327640           1.274540
        0.798000           0.367115           1.009529           0.341502           1.294676
        0.800000           0.360690           1.023409           0.358349           1.314726
        0.802000           0.357965           1.037929           0.378447           1.334509
        0.804000           0.358922           1.052613           0.402108           1.353773
        0.806000           0.363568           1.067002           0.429695           1.372173
        0.808000           0.371924           1.080612           0.461595           1.389232
        0.810000           0.384020           1.092894           0.498213           1.404310
        0.812000           0.399858           1.103210           0.539936           1.416565
        0.814000           0.419368           1.110799           0.587061           1.424895
        0.816000           0.442347           1.114760           0.639722           1.427909
        0.818000           0.468355           1.114067           0.697745           1.423904
        0.820000           0.496615           1.107623           0.760470           1.410892
        0.822000           0.525913           1.094377           0.826561           1.386709
        0.824000           0.554521           1.073529           0.893771           1.349266
        0.826000           0.580243           1.044799           0.958817           1.296933
        0.828000           0.600616           1.008701           1.017464           1.229080
        0.830000           0.613275           0.966730           1.064880           1.146647
        0.832000           0.616447           0.921312           1.096390           1.052522
        0.834000           0.609393           0.875476           1.108444           0.951455
        0.836000           0.592586           0.832298           1.099503           0.849463
        0.838000           0.567589           0.794348           1.070460           0.752709
        0.840000           0.536628           0.763283           1.024387           0.666361
        0.842000           0.502119           0.739789           0.965747           0.593840
        0.844000           0.466242           0.723704           0.899393           0.536568
        0.846000           0.430730           0.714307           0.829759           0.494282
        0.848000           0.396797           0.710589           0.760385           0.465561
        0.850000           0.365182           0.711470           0.693752           0.448382
        0.852000           0.336263           0.715937           0.631412           0.440571
        0.854000           0.310153           0.723109           0.574158           0.440073
        0.856000           0.286793           0.732265           0.522242           0.445097
        0.858000           0.266030           0.742827           0.475574           0.454162
        0.860000           0.247659           0.754352           0.433861           0.466090
        0.862000           0.231457           0.766508           0.396695           0.479966
        0.864000           0.217204           0.779047           0.363632           0.495093
        0.866000           0.204693           0.791787           0.334233           0.510955
        0.868000           0.193734           0.804602           0.308075           0.527168
        0.870000           0.184160           0.817405           0.284775           0.543456
        0.872000           0.175825           0.830137           0.263988           0.559622
        0.874000           0.168600           0.842761           0.245406           0.575531
        0.876000           0.162377           0.855258           0.228761           0.591087
        0.878000           0.157065           0.867618           0.213816           0.606233
        0.880000           0.152585           0.879845           0.200370           0.620932
        0.882000           0.148876           0.891943           0.188242           0.635165
        0.884000           0.145885           0.903930           0.177279           0.648927
        0.886000           0.143572           0.915814           0.167347           0.662222
        0.888000           0.141909           0.927617           0.158331           0.675059
        0.890000           0.140874           0.939357           0.150127           0.687451
        0.892000           0.140456           0.951052           0.142649           0.699415
        0.894000           0.140654           0.962725           0.135819           0.710968
        0.896000           0.141475           0.974393           0.129570           0.722132
        0.898000           0.142933           0.986077           0.123843           0.732924
        0.900000           0.145055           0.997792           0.118586           0.743363
        0.902000           0.147875           1.009554           0.113753           0.753473
        0.904000           0.151440           1.021376           0.109305           0.763266
        0.906000           0.155809           1.033262           0.105206           0.772764
        0.908000           0.161052           1.045216           0.101424           0.781985
        0.910000           0.167255           1.057225           0.097931           0.790941
        0.912000           0.174521           1.069277           0.094703           0.799653
        0.914000           0.182970           1.081330           0.091718           0.808135
        0.916000           0.192741           1.093327           0.088955           0.816397
        0.918000           0.203993           1.105187           0.086397           0.824458
        0.920000           0.216908           1.116783           0.084029           0.832328
        0.922000           0.231683           1.127941           0.081837           0.840020
        0.924000           0.248534           1.138425           0.079807           0.847545
        0.926000           0.267675           1.147908           0.077928           0.854915
        0.928000           0.289307           1.155963           0.076190           0.862138
        0.930000           0.313590           1.162031           0.074585           0.869228
        0.932000           0.340588           1.165410           0.073103           0.876190
        0.934000           0.370212           1.165232           0.071737           0.883037
        0.936000           0.402123           1.160503           0.070481           0.889776
        0.938000           0.435626           1.150138           0.069328           0.896414
        0.940000           0.469577           1.133096           0.068274           0.902960
        0.942000           0.502307           1.108591           0.067313           0.909423
        0.944000           0.531672           1.076347           0.066442           0.915807
        0.946000           0.555256           1.036892           0.065655           0.922122
        0.948000           0.570743           0.991732           0.064951           0.928373
        0.950000           0.576415           0.943303           0.064326           0.934570
        0.952000           0.571577           0.894626           0.063777           0.940714
        0.954000           0.556756           0.848770           0.063302           0.946817
        0.956000           0.533549           0.808281           0.062899           0.952881
        0.958000           0.504213           0.774798           0.062567           0.958912
        0.960000           0.471177           0.748978           0.062305           0.964918
        0.962000           0.436640           0.730645           0.062110           0.970906
        0.964000           0.402331           0.719061           0.061984           0.976878
        0.966000           0.369472           0.713207           0.061925           0.982841
        0.968000           0.338805           0.711996           0.061933           0.988803
        0.970000           0.310710           0.714410           0.062008           0.994769
        0.972000           0.285306           0.719564           0.062151           1.000742
        0.974000           0.262537           0.726731           0.062362           1.006731
        0.976000           0.242252           0.735330           0.062643           1.012740
        0.978000           0.224252           0.744914           0.062995           1.018773
        0.980000           0.208313           0.755145           0.063419           1.024842
        0.982000           0.194218           0.765769           0.063917           1.030948
        0.984000           0.181762           0.776602           0.064492           1.037100
        0.986000           0.170753           0.787511           0.065146           1.043301
        0.988000           0.161024           0.798402           0.065882           1.049561
        0.990000           0.152425           0.809210           0.066704           1.055886
        0.992000           0.144825           0.819894           0.067615           1.062284
        0.994000           0.138112           0.830429           0.068621           1.068759
        0.996000           0.132186           0.840801           0.069725           1.075323
        0.998000           0.126965           0.851004           0.070933           1.081979
        1.000000           0.122374           0.861039           0.072253           1.088737
        1.002000           0.118353           0.870911           0.073689           1.095607
        1.004000           0.114847           0.880631           0.075251           1.102599
        1.006000           0.111813           0.890211           0.076946           1.109719
        1.008000           0.109212           0.899663           0.078784           1.116979
        1.010000           0.107013           0.909001           0.080776           1.124392
        1.012000           0.105188           0.918240           0.082933           1.131963
        1.014000           0.103717           0.927397           0.085269           1.139704
        1.016000           0.102583           0.936485           0.087798           1.147636
        1.018000           0.101773           0.945524           0.090537           1.155761
        1.020000           0.101277           0.954528           0.093504           1.164100
        1.022000           0.101091           0.963513           0.096719           1.172663
        1.024000           0.101212           0.972496           0.100207           1.181465
        1.026000           0.101641           0.981494           0.103992           1.190526
        1.028000           0.102384           0.990521           0.108104           1.199856
        1.030000           0.103449           0.999595           0.112578           1.209478
        1.032000           0.104848           1.008732           0.117449           1.219408
        1.034000           0.106598           1.017947           0.122760           1.229661
        1.036000           0.108721           1.027257           0.128561           1.240259
        1.038000           0.111240           1.036676           0.134905           1.251223
        1.040000           0.114186           1.046219           0.141856           1.262566
        1.042000           0.117599           1.055900           0.149485           1.274309
        1.044000           0.121519           1.065729           0.157875           1.286468
        1.046000           0.126001           1.075717           0.167119           1.299057
        1.048000           0.131103           1.085869           0.177327           1.312087
        1.050000           0.136898           1.096191           0.188623           1.325565
        1.052000           0.143467           1.106674           0.201150           1.339486
        1.054000           0.150906           1.117309           0.215074           1.353838
        1.056000           0.159326           1.128070           0.230586           1.368593
        1.058000           0.168855           1.138921           0.247905           1.383700
        1.060000           0.179640           1.149798           0.267283           1.399086
        1.062000           0.191846           1.160615           0.289006           1.414628
        1.064000           0.205660           1.171245           0.313403           1.430163
        1.066000           0.221285           1.181512           0.340837           1.445450
        1.068000           0.238939           1.191177           0.371711           1.460159
        1.070000           0.258844           1.199915           0.406459           1.473835
        1.072000           0.281206           1.207294           0.445526           1.485867
        1.074000           0.306186           1.212760           0.489334           1.495450
        1.076000           0.333858           1.215608           0.538242           1.501525
        1.078000           0.364136           1.214978           0.592449           1.502751
        1.080000           0.396689           1.209866           0.651872           1.497482
        1.082000           0.430838           1.199192           0.715996           1.483766
        1.084000           0.465440           1.181914           0.783640           1.459459
        1.086000           0.498845           1.157235           0.852770           1.422414
        1.088000           0.528916           1.124868           0.920334           1.370873
        1.090000           0.553239           1.085333           0.982268           1.303957
        1.092000           0.569499           1.040109           1.033825           1.222247
        1.094000           0.575964           0.991623           1.070236           1.128226
        1.096000           0.571927           0.942895           1.087661           1.026321
        1.098000           0.557894           0.896993           1.084121           0.922358
        1.100000           0.535451           0.856475           1.060037           0.822558
        1.102000           0.506855           0.823002           1.018115           0.732376
        1.104000           0.474535           0.797244           0.962622           0.655587
        1.106000           0.440698           0.779035           0.898416           0.594001
        1.108000           0.407092           0.767649           0.830075           0.547647
        1.110000           0.374942           0.762068           0.761327           0.515274
        1.112000           0.345008           0.761209           0.694875           0.494939
        1.114000           0.317675           0.764053           0.632435           0.484466
        1.116000           0.293070           0.769714           0.574937           0.481760
        1.118000           0.271147           0.777465           0.522732           0.484968
        1.120000           0.251761           0.786726           0.475782           0.492548
        1.122000           0.234717           0.797051           0.433828           0.503261
        1.124000           0.219802           0.808101           0.396484           0.516142
        1.126000           0.206803           0.819628           0.363310           0.530455
        1.128000           0.195523           0.831447           0.333865           0.545648
        1.130000           0.185783           0.843430           0.307728           0.561312
        1.132000           0.177422           0.855486           0.284506           0.577154
        1.134000           0.170304           0.867556           0.263850           0.592961
        1.136000           0.164310           0.879601           0.245447           0.608584
        1.138000           0.159343           0.891599           0.229023           0.623922
        1.140000           0.155321           0.903545           0.214337           0.638910
        1.142000           0.152179           0.915433           0.201185           0.653507
        1.144000           0.149867           0.927274           0.189382           0.667693
        1.146000           0.148349           0.939073           0.178773           0.681456
        1.148000           0.147600           0.950850           0.169222           0.694801
        1.150000           0.147609           0.962615           0.160611           0.707737
        1.152000           0.148377           0.974386           0.152840           0.720275
        1.154000           0.149917           0.986176           0.145818           0.732434
        1.156000           0.152254           0.998000           0.139469           0.744231
        1.158000           0.155425           1.009865           0.133727           0.755686
        1.160000           0.159484           1.021779           0.128532           0.766820
        1.162000           0.164497           1.033740           0.123836           0.777653
        1.164000           0.170546           1.045738           0.119593           0.788205
        1.166000           0.177734           1.057749           0.115764           0.798498
        1.168000           0.186179           1.069734           0.112318           0.808551
        1.170000           0.196021           1.081626           0.109224           0.818382
        1.172000           0.207423           1.093334           0.106458           0.828013
        1.174000           0.220565           1.104721           0.103999           0.837458
        1.176000           0.235650           1.115597           0.101826           0.846739
        1.178000           0.252889           1.125704           0.099926           0.855870
        1.180000           0.272493           1.134687           0.098285           0.864869
        1.182000           0.294654           1.142085           0.096893           0.873753
        1.184000           0.319508           1.147305           0.095741           0.882537
        1.186000           0.347082           1.149594           0.094823           0.891234
        1.188000           0.377224           1.148050           0.094134           0.899865
        1.190000           0.409506           1.141643           0.093673           0.908441
        1.192000           0.443115           1.129284           0.093439           0.916978
        1.194000           0.476762           1.109980           0.093434           0.925490
        1.196000           0.508633           1.083059           0.093662           0.933992
        1.198000           0.536479           1.048448           0.094130           0.942501
        1.200000           0.557865           1.006933           0.094844           0.951028
        1.202000           0.570591           0.960299           0.095817           0.959589
        1.204000           0.573189           0.911195           0.097062           0.968199
        1.206000           0.565304           0.862720           0.098596           0.976870
        1.208000           0.547787           0.817838           0.100438           0.985621
        1.210000           0.522470           0.778869           0.102612           0.994459
        1.212000           0.491705           0.747178           0.105146           1.003407
        1.214000           0.457890           0.723159           0.108073           1.012470
        1.216000           0.423106           0.706452           0.111432           1.021663
        1.218000           0.388945           0.696213           0.115267           1.030997
        1.220000           0.356475           0.691383           0.119630           1.040478
        1.222000           0.326332           0.690887           0.124582           1.050117
        1.224000           0.298809           0.693737           0.130194           1.059911
        1.226000           0.273966           0.699091           0.136547           1.069859
        1.228000           0.251718           0.706264           0.143735           1.079943
        1.230000           0.231889           0.714715           0.151869           1.090146
        1.232000           0.214273           0.724029           0.161073           1.100428
        1.234000           0.198645           0.733891           0.171493           1.110731
        1.236000           0.184791           0.744070           0.183290           1.120970
        1.238000           0.172505           0.754395           0.196649           1.131024
        1.240000           0.161604           0.764743           0.211770           1.140721
        1.242000           0.151922           0.775031           0.228871           1.149836
        1.244000           0.143315           0.785200           0.248173           1.158052
        1.246000           0.135654           0.795210           0.269884           1.164956
        1.248000           0.128830           0.805041           0.294177           1.170013
        1.250000           0.122747           0.814675           0.321136           1.172536
        1.252000           0.117321           0.824112           0.350711           1.171688
        1.254000           0.112482           0.833350           0.382609           1.166483
        1.256000           0.108166           0.842398           0.416208           1.155845
        1.258000           0.104321           0.851260           0.450440           1.138713
        1.260000           0.100901           0.859947           0.483729           1.114235
        1.262000           0.097866           0.868470           0.513997           1.082035
        1.264000           0.095182           0.876842           0.538858           1.042483
        1.266000           0.092820           0.885078           0.555945           0.996919
        1.268000           0.090755           0.893189           0.563409           0.947641
        1.270000           0.088966           0.901186           0.560368           0.897607
        1.272000           0.087435           0.909084           0.547148           0.849916
        1.274000           0.086146           0.916895           0.525197           0.807233
        1.276000           0.085088           0.924635           0.496694           0.771352
        1.278000           0.084250           0.932316           0.464074           0.743088
        1.280000           0.083626           0.939948           0.429591           0.722381
        1.282000           0.083209           0.947547           0.395064           0.708563
        1.284000           0.082996           0.955124           0.361797           0.700643
        1.286000           0.082985           0.962692           0.330601           0.697534
        1.288000           0.083178           0.970264           0.301908           0.698193
        1.290000           0.083576           0.977853           0.275873           0.701712
        1.292000           0.084183           0.985471           0.252464           0.707335
        1.294000           0.085006           0.993130           0.231540           0.714457
        1.296000           0.086053           1.000842           0.212908           0.722606
        1.298000           0.087335           1.008623           0.196342           0.731426
        1.300000           0.088867           1.016484           0.181625           0.740649
        1.302000           0.090663           1.024439           0.168545           0.750077
        1.304000           0.092743           1.032500           0.156909           0.759568
        1.306000           0.095130           1.040681           0.146543           0.769018
        1.308000           0.097851           1.048993           0.137292           0.778355
        1.310000           0.100937           1.057449           0.129021           0.787537
        1.312000           0.104424           1.066064           0.121610           0.796526
        1.314000           0.108356           1.074843           0.114956           0.805306
        1.316000           0.112781           1.083799           0.108971           0.813865
        1.318000           0.117756           1.092934           0.103576           0.822202
        1.320000           0.123349           1.102255           0.098704           0.830317
        1.322000           0.129635           1.111758           0.094295           0.838215
        1.324000           0.136703           1.121437           0.090301           0.845905
        1.326000           0.144658           1.131270           0.086675           0.853391
        1.328000           0.153616           1.141228           0.083380           0.860686
        1.330000           0.163712           1.151261           0.080381           0.867797
        1.332000           0.175103           1.161302           0.077650           0.874736
        1.334000           0.187963           1.171243           0.075160           0.881514
        1.336000           0.202484           1.180941           0.072888           0.888138
        1.338000           0.218879           1.190198           0.070816           0.894621
        1.340000           0.237365           1.198738           0.068924           0.900969
        1.342000           0.258165           1.206201           0.067199           0.907196
        1.344000           0.281471           1.212110           0.065625           0.913305
        1.346000           0.307417           1.215851           0.064191           0.919309
        1.348000           0.336026           1.216662           0.062886           0.925215
        1.350000           0.367131           1.213621           0.061701           0.931031
        1.352000           0.400277           1.205685           0.060627           0.936762
        1.354000           0.434626           1.191768           0.059657           0.942419
        1.356000           0.468845           1.170890           0.058784           0.948007
        1.358000           0.501083           1.142412           0.058003           0.953533
        1.360000           0.529067           1.106319           0.057307           0.959003
        1.362000           0.550365           1.063482           0.056693           0.964424
        1.364000           0.562822           1.015767           0.056157           0.969800
        1.366000           0.565053           0.965861           0.055696           0.975137
        1.368000           0.556804           0.916880           0.055305           0.980446
        1.370000           0.539022           0.871756           0.054982           0.985724
        1.372000           0.513602           0.832736           0.054726           0.990984
        1.374000           0.482925           0.801099           0.054534           0.996225
        1.376000           0.449366           0.777164           0.054405           1.001457
        1.378000           0.414975           0.760519           0.054338           1.006682
        1.380000           0.381298           0.750294           0.054332           1.011905
        1.382000           0.349374           0.745423           0.054386           1.017134
        1.384000           0.319802           0.744832           0.054500           1.022371
        1.386000           0.292858           0.747542           0.054674           1.027622
        1.388000           0.268583           0.752727           0.054909           1.032892
        1.390000           0.246883           0.759711           0.055203           1.038186
        1.392000           0.227586           0.767965           0.055560           1.043510
        1.394000           0.210479           0.777081           0.055979           1.048867
        1.396000           0.195341           0.786753           0.056463           1.054266
        1.398000           0.181960           0.796753           0.057012           1.059707
        1.400000           0.170131           0.806919           0.057629           1.065202
        1.402000           0.159674           0.817129           0.058316           1.070751
        1.404000           0.150427           0.827303           0.059076           1.076361
        1.406000           0.142248           0.837382           0.059912           1.082042
        1.408000           0.135014           0.847330           0.060828           1.087796
        1.410000           0.128615           0.857126           0.061827           1.093630
        1.412000           0.122958           0.866758           0.062913           1.099552
        1.414000           0.117963           0.876222           0.064093           1.105567
        1.416000           0.113562           0.885522           0.065370           1.111687
        1.418000           0.109695           0.894660           0.066752           1.117916
        1.420000           0.106312           0.903648           0.068244           1.124260
        1.422000           0.103369           0.912497           0.069856           1.130732
        1.424000           0.100830           0.921217           0.071594           1.137339
        1.426000           0.098665           0.929828           0.073469           1.144089
        1.428000           0.096847           0.938337           0.075490           1.150996
        1.430000           0.095355           0.946760           0.077669           1.158064
        1.432000           0.094173           0.955115           0.080020           1.165310
        1.434000           0.093287           0.963414           0.082556           1.172744
        1.436000           0.092687           0.971673           0.085293           1.180376
        1.438000           0.092366           0.979907           0.088250           1.188222
        1.440000           0.092322           0.988131           0.091447           1.196295
        1.442000           0.092553           0.996358           0.094905           1.204606
        1.444000           0.093062           1.004607           0.098650           1.213176
        1.446000           0.093855           1.012891           0.102712           1.222017
        1.448000           0.094941           1.021224           0.107121           1.231143
        1.450000           0.096332           1.029622           0.111915           1.240578
        1.452000           0.098044           1.038100           0.117135           1.250336
        1.454000           0.100097           1.046672           0.122826           1.260435
        1.456000           0.102516           1.055353           0.129044           1.270894
        1.458000           0.105328           1.064155           0.135847           1.281733
        1.460000           0.108570           1.073092           0.143307           1.292968
        1.462000           0.112283           1.082177           0.151501           1.304616
        1.464000           0.116513           1.091417           0.160520           1.316691
        1.466000           0.121320           1.100821           0.170471           1.329206
        1.468000           0.126767           1.110392           0.181472           1.342165
        1.470000           0.132933           1.120125           0.193663           1.355572
        1.472000           0.139905           1.130016           0.207203           1.369412
        1.474000           0.147789           1.140045           0.222274           1.383663
        1.476000           0.156702           1.150178           0.239089           1.398281
        1.478000           0.166782           1.160366           0.257892           1.413197
        1.480000           0.178186           1.170534           0.278961           1.428304
        1.482000           0.191089           1.180576           0.302610           1.443451
        1.484000           0.205687           1.190341           0.329197           1.458418
        1.486000           0.222191           1.199621           0.359113           1.472895
        1.488000           0.240820           1.208135           0.392781           1.486466
        1.490000           0.261793           1.215507           0.430653           1.498567
        1.492000           0.285299           1.221244           0.473160           1.508442
        1.494000           0.311459           1.224716           0.520680           1.515102
        1.496000           0.340275           1.225139           0.573464           1.517283
        1.498000           0.371548           1.221576           0.631513           1.513417
        1.500000           0.404789           1.212972           0.694447           1.501624
# 
# 02/28/2024 at 13:49 yambo @ unimi-XPS-8930 [start]
# 02/28/2024 at 13:49                        [end]
#  
# Timing   [Min/Max/Average]: 06s/06s/06s
#
# .-Input file  yambo.in
# | optics                           # [R] Linear Response optical properties
# | bss                              # [R] BSE solver
# | bse                              # [R][BSE] Bethe Salpeter Equation.
# | tddft                            # [R][K] Use TDDFT kernel
# | ElecTemp= 0.025861         eV    # Electronic Temperature
# | BoseTemp= 0.025861         eV    # Bosonic Temperature
# | FFTGvecs=  4935            RL    # [FFT] Plane-waves
# | BS_nCPU_LinAlg_INV= 1            # [PARALLEL] CPUs for Linear Algebra (if -1 it is automatically set)
# | BS_nCPU_LinAlg_DIAGO= 1          # [PARALLEL] CPUs for Linear Algebra (if -1 it is automatically set)
# | X_Threads= 1                     # [OPENMP/X] Number of threads for response functions
# | DIP_Threads= 1                   # [OPENMP/X] Number of threads for dipoles
# | K_Threads= 1                     # [OPENMP/BSK] Number of threads for response functions
# | BSKmod= "ALDA"                   # [BSE] IP/Hartree/HF/ALDA/SEX/BSfxc
# | BSEmod= "resonant"               # [BSE] resonant/retarded/coupling
# | BSSmod= "d"                      # [BSS] (h)aydock/(d)iagonalization/(s)lepc/(i)nversion/(t)ddft`
# | DipComputed= "R V P Spin"        # [DIP] [default R P V; extra P2 Spin Orb]
# | BSENGexx= 1                RL    # [BSK] Exchange components
# | BSENGfxc= 10               Ry    # [BSK] Fxc components
# | % BSEQptR
# |  1 | 2 |                             # [BSK] Transferred momenta range
# | %
# | % BSEBands
# |   1 | 10 |                           # [BSK] Bands range
# | %
# | % BEnRange
# | -0.500000 | 1.500000 |         eV    # [BSS] Energy range
# | %
# | % BDmRange
# |  0.020000 | 0.020000 |         eV    # [BSS] Damping range
# | %
# | BEnSteps= 1001                   # [BSS] Energy steps
# | % BLongDir
# |  1.000000 | 0.000000 | 0.000000 |        # [BSS] [cc] Electric Field versor
# | %
# | BSEprop= " jdos magn"            # [BSS] Can be any among abs/jdos/kerr/asymm/anHAll/magn/dich/photolum/esrt
# | BSEdips= "none"                  # [BSS] Can be "trace/none" or "xy/xz/yz" to define off-diagonal rotation plane
# | #WRbsWF                        # [BSS] Write to disk excitonic the WFs
