#                                                                     
#                                                                     
# Y88b    /   e           e    e      888~~\    ,88~-_                
#  Y88b  /   d8b         d8b  d8b     888   |  d888   \               
#   Y88b/   /Y88b       d888bdY88b    888 _/  88888    |              
#    Y8Y   /  Y88b     / Y88Y Y888b   888  \  88888    |              
#     Y   /____Y88b   /   YY   Y888b  888   |  Y888   /               
#    /   /      Y88b /          Y888b 888__/    `88_-~                
#                                                                     
#                                                                     
# Version 5.2.0 Revision 22184 Hash (prev commit) 2871b0cee           
#                 Branch is devel-excph                               
#         MPI+OpenMP+SLK+SLEPC+HDF5_MPI_IO Build                      
#               http://www.yambo-code.org                             
#
# Joint Density of states @ Q(1):   0.00000000     0.999999975E-5   0.00000000    [q->0 direction]
#
# [GEN] GF Energies                               : Slater exchange(X)+Perdew & Zunger(C)
# [GEN] Green`s Function                          : Resonant
#
# [GEN] Gauge                                     : Length
# [GEN] [r,Vnl] included                          : yes
#
# DIP band range                                  :   3   6
# DIP band range limits                           :   4   5
# DIP e/h energy range                            :  -1.00000000     -1.00000000    [eV]
# RL vectors in the sum                           :   4653
# [r,Vnl] included                                : yes
# Bands ordered                                   : yes
# Direct v evaluation                             : no
# Approach used                                   : G-space v
# Dipoles computed                                : R V P
# Wavefunctions                                   : Slater exchange(X)+Perdew & Zunger(C)
#
#
# [K] Identifier                                  :   7254
# [K] Dimension                                   :   36
# [K] Bands                                       :   3   6
# [K] Exchange res                                : yes
# [K] Correlation res                             : no
# [K] Kernel`s coupling                           : no
# [K] Exchange cpl                                : no
# [K] Correlation cpl                             : no
# [K] W interaction is bare                       : no
# [K] ALDA kernel in R-space                      : no
# [K] RL vectors exchange                         :  1
# [K] E/h energy range                            :  -1.00000000     -1.00000000    [eV]
# [K] Coupling range                              :   100.000000      100.000000    [o/o]
# [K] BSE L kind                                  : BAR
# [X] Response Kind                               : BAR
#
#
#    E[1] [eV]          Im(jdos)           Re(jdos)           Im(jdos_o)         Re(jdos_o)
#
        0.000000           0.005763           0.492256           0.005763           0.492256
        0.010010           0.005779           0.492833           0.005779           0.492833
        0.020020           0.005794           0.493412           0.005794           0.493412
        0.030030           0.005810           0.493993           0.005810           0.493993
        0.040040           0.005826           0.494575           0.005826           0.494575
        0.050050           0.005842           0.495158           0.005842           0.495158
        0.060060           0.005858           0.495744           0.005858           0.495744
        0.070070           0.005874           0.496331           0.005874           0.496331
        0.080080           0.005890           0.496919           0.005890           0.496919
        0.090090           0.005907           0.497510           0.005907           0.497510
        0.100100           0.005923           0.498101           0.005923           0.498101
        0.110110           0.005939           0.498695           0.005939           0.498695
        0.120120           0.005956           0.499290           0.005956           0.499290
        0.130130           0.005973           0.499887           0.005973           0.499887
        0.140140           0.005989           0.500485           0.005989           0.500485
        0.150150           0.006006           0.501085           0.006006           0.501085
        0.160160           0.006023           0.501687           0.006023           0.501687
        0.170170           0.006040           0.502290           0.006040           0.502290
        0.180180           0.006057           0.502895           0.006057           0.502895
        0.190190           0.006074           0.503502           0.006074           0.503502
        0.200200           0.006091           0.504111           0.006091           0.504111
        0.210210           0.006108           0.504721           0.006108           0.504721
        0.220220           0.006125           0.505333           0.006125           0.505333
        0.230230           0.006143           0.505947           0.006143           0.505947
        0.240240           0.006160           0.506562           0.006160           0.506562
        0.250250           0.006178           0.507180           0.006178           0.507180
        0.260260           0.006196           0.507798           0.006196           0.507799
        0.270270           0.006213           0.508420           0.006213           0.508419
        0.280280           0.006231           0.509042           0.006231           0.509042
        0.290290           0.006249           0.509666           0.006249           0.509666
        0.300300           0.006267           0.510293           0.006267           0.510292
        0.310310           0.006285           0.510920           0.006285           0.510921
        0.320320           0.006304           0.511550           0.006304           0.511550
        0.330330           0.006322           0.512182           0.006322           0.512182
        0.340340           0.006340           0.512815           0.006340           0.512815
        0.350350           0.006359           0.513450           0.006359           0.513451
        0.360360           0.006378           0.514088           0.006378           0.514088
        0.370370           0.006396           0.514727           0.006396           0.514727
        0.380380           0.006415           0.515368           0.006415           0.515368
        0.390390           0.006434           0.516010           0.006434           0.516010
        0.400400           0.006453           0.516655           0.006453           0.516655
        0.410410           0.006472           0.517302           0.006472           0.517302
        0.420420           0.006491           0.517950           0.006491           0.517950
        0.430430           0.006511           0.518600           0.006511           0.518601
        0.440440           0.006530           0.519253           0.006530           0.519253
        0.450450           0.006550           0.519907           0.006550           0.519907
        0.460460           0.006569           0.520563           0.006569           0.520563
        0.470470           0.006589           0.521222           0.006589           0.521222
        0.480480           0.006609           0.521882           0.006609           0.521882
        0.490490           0.006629           0.522544           0.006629           0.522544
        0.500500           0.006649           0.523208           0.006649           0.523208
        0.510511           0.006669           0.523874           0.006669           0.523874
        0.520521           0.006689           0.524543           0.006689           0.524543
        0.530531           0.006709           0.525213           0.006709           0.525213
        0.540541           0.006730           0.525885           0.006730           0.525885
        0.550551           0.006750           0.526559           0.006750           0.526559
        0.560561           0.006771           0.527236           0.006771           0.527236
        0.570571           0.006792           0.527914           0.006792           0.527914
        0.580581           0.006813           0.528595           0.006813           0.528595
        0.590591           0.006834           0.529277           0.006834           0.529277
        0.600601           0.006855           0.529962           0.006855           0.529962
        0.610611           0.006876           0.530649           0.006876           0.530649
        0.620621           0.006898           0.531338           0.006898           0.531338
        0.630631           0.006919           0.532029           0.006919           0.532029
        0.640641           0.006941           0.532722           0.006941           0.532722
        0.650651           0.006963           0.533418           0.006963           0.533418
        0.660661           0.006985           0.534116           0.006985           0.534116
        0.670671           0.007007           0.534815           0.007007           0.534815
        0.680681           0.007029           0.535517           0.007029           0.535517
        0.690691           0.007051           0.536222           0.007051           0.536222
        0.700701           0.007073           0.536928           0.007073           0.536928
        0.710711           0.007096           0.537637           0.007096           0.537637
        0.720721           0.007118           0.538348           0.007118           0.538348
        0.730731           0.007141           0.539061           0.007141           0.539061
        0.740741           0.007164           0.539777           0.007164           0.539777
        0.750751           0.007187           0.540495           0.007187           0.540495
        0.760761           0.007210           0.541215           0.007210           0.541215
        0.770771           0.007234           0.541937           0.007234           0.541937
        0.780781           0.007257           0.542662           0.007257           0.542662
        0.790791           0.007281           0.543389           0.007281           0.543389
        0.800801           0.007304           0.544119           0.007304           0.544119
        0.810811           0.007328           0.544851           0.007328           0.544851
        0.820821           0.007352           0.545585           0.007352           0.545585
        0.830831           0.007376           0.546322           0.007376           0.546322
        0.840841           0.007401           0.547060           0.007401           0.547061
        0.850851           0.007425           0.547802           0.007425           0.547802
        0.860861           0.007450           0.548546           0.007450           0.548546
        0.870871           0.007474           0.549293           0.007474           0.549293
        0.880881           0.007499           0.550041           0.007499           0.550042
        0.890891           0.007524           0.550793           0.007524           0.550793
        0.900901           0.007549           0.551547           0.007549           0.551547
        0.910911           0.007575           0.552303           0.007575           0.552303
        0.920921           0.007600           0.553062           0.007600           0.553062
        0.930931           0.007626           0.553824           0.007626           0.553824
        0.940941           0.007652           0.554588           0.007652           0.554588
        0.950951           0.007678           0.555355           0.007678           0.555355
        0.960961           0.007704           0.556124           0.007704           0.556124
        0.970971           0.007730           0.556896           0.007730           0.556896
        0.980981           0.007756           0.557670           0.007756           0.557670
        0.990991           0.007783           0.558447           0.007783           0.558448
        1.001001           0.007810           0.559227           0.007810           0.559227
        1.011011           0.007837           0.560010           0.007837           0.560010
        1.021021           0.007864           0.560795           0.007864           0.560795
        1.031031           0.007891           0.561583           0.007891           0.561583
        1.041041           0.007919           0.562374           0.007919           0.562374
        1.051051           0.007946           0.563168           0.007946           0.563167
        1.061061           0.007974           0.563963           0.007974           0.563963
        1.071071           0.008002           0.564762           0.008002           0.564762
        1.081081           0.008030           0.565564           0.008030           0.565564
        1.091091           0.008058           0.566369           0.008058           0.566369
        1.101101           0.008087           0.567177           0.008087           0.567177
        1.111111           0.008116           0.567987           0.008116           0.567987
        1.121121           0.008145           0.568800           0.008145           0.568800
        1.131131           0.008174           0.569616           0.008174           0.569616
        1.141141           0.008203           0.570435           0.008203           0.570435
        1.151151           0.008232           0.571257           0.008232           0.571257
        1.161161           0.008262           0.572082           0.008262           0.572082
        1.171171           0.008292           0.572910           0.008292           0.572910
        1.181181           0.008322           0.573741           0.008322           0.573741
        1.191191           0.008352           0.574575           0.008352           0.574575
        1.201201           0.008383           0.575411           0.008383           0.575411
        1.211211           0.008413           0.576251           0.008413           0.576251
        1.221221           0.008444           0.577094           0.008444           0.577094
        1.231231           0.008475           0.577940           0.008475           0.577940
        1.241241           0.008507           0.578790           0.008507           0.578790
        1.251251           0.008538           0.579642           0.008538           0.579642
        1.261261           0.008570           0.580498           0.008570           0.580498
        1.271271           0.008602           0.581356           0.008602           0.581356
        1.281281           0.008634           0.582218           0.008634           0.582218
        1.291291           0.008666           0.583083           0.008666           0.583083
        1.301301           0.008699           0.583952           0.008699           0.583952
        1.311311           0.008732           0.584823           0.008732           0.584823
        1.321321           0.008765           0.585698           0.008765           0.585698
        1.331331           0.008798           0.586577           0.008798           0.586577
        1.341341           0.008832           0.587458           0.008832           0.587458
        1.351351           0.008866           0.588343           0.008866           0.588343
        1.361361           0.008900           0.589232           0.008900           0.589232
        1.371371           0.008934           0.590123           0.008934           0.590123
        1.381381           0.008968           0.591018           0.008968           0.591018
        1.391391           0.009003           0.591917           0.009003           0.591917
        1.401401           0.009038           0.592819           0.009038           0.592819
        1.411411           0.009073           0.593725           0.009073           0.593725
        1.421421           0.009109           0.594634           0.009109           0.594634
        1.431431           0.009145           0.595547           0.009145           0.595547
        1.441441           0.009181           0.596463           0.009181           0.596463
        1.451451           0.009217           0.597383           0.009217           0.597383
        1.461461           0.009254           0.598306           0.009254           0.598307
        1.471471           0.009291           0.599234           0.009291           0.599234
        1.481481           0.009328           0.600165           0.009328           0.600165
        1.491491           0.009365           0.601099           0.009365           0.601099
        1.501501           0.009403           0.602038           0.009403           0.602038
        1.511511           0.009441           0.602980           0.009441           0.602980
        1.521521           0.009479           0.603926           0.009479           0.603926
        1.531531           0.009518           0.604876           0.009518           0.604876
        1.541541           0.009557           0.605830           0.009557           0.605829
        1.551551           0.009596           0.606787           0.009596           0.606787
        1.561561           0.009635           0.607749           0.009635           0.607749
        1.571571           0.009675           0.608714           0.009675           0.608714
        1.581581           0.009715           0.609684           0.009715           0.609683
        1.591591           0.009755           0.610657           0.009755           0.610657
        1.601601           0.009796           0.611634           0.009796           0.611634
        1.611611           0.009837           0.612616           0.009837           0.612616
        1.621622           0.009878           0.613601           0.009878           0.613602
        1.631632           0.009920           0.614591           0.009920           0.614591
        1.641642           0.009962           0.615585           0.009962           0.615585
        1.651652           0.010004           0.616584           0.010004           0.616584
        1.661662           0.010047           0.617586           0.010047           0.617586
        1.671672           0.010090           0.618593           0.010090           0.618593
        1.681682           0.010134           0.619604           0.010134           0.619604
        1.691692           0.010177           0.620619           0.010177           0.620619
        1.701702           0.010221           0.621639           0.010221           0.621639
        1.711712           0.010266           0.622663           0.010266           0.622663
        1.721722           0.010311           0.623692           0.010311           0.623692
        1.731732           0.010356           0.624725           0.010356           0.624725
        1.741742           0.010401           0.625762           0.010401           0.625762
        1.751752           0.010447           0.626804           0.010447           0.626804
        1.761762           0.010494           0.627851           0.010494           0.627851
        1.771772           0.010540           0.628903           0.010540           0.628903
        1.781782           0.010587           0.629959           0.010587           0.629959
        1.791792           0.010635           0.631020           0.010635           0.631020
        1.801802           0.010683           0.632085           0.010683           0.632085
        1.811812           0.010731           0.633156           0.010731           0.633156
        1.821822           0.010780           0.634231           0.010780           0.634231
        1.831832           0.010829           0.635311           0.010829           0.635311
        1.841842           0.010879           0.636396           0.010879           0.636396
        1.851852           0.010929           0.637486           0.010929           0.637486
        1.861862           0.010979           0.638581           0.010979           0.638581
        1.871872           0.011030           0.639681           0.011030           0.639681
        1.881882           0.011082           0.640786           0.011082           0.640786
        1.891892           0.011133           0.641896           0.011133           0.641896
        1.901902           0.011186           0.643012           0.011186           0.643012
        1.911912           0.011239           0.644133           0.011239           0.644133
        1.921922           0.011292           0.645259           0.011292           0.645259
        1.931932           0.011346           0.646390           0.011346           0.646390
        1.941942           0.011400           0.647527           0.011400           0.647527
        1.951952           0.011454           0.648669           0.011454           0.648669
        1.961962           0.011510           0.649817           0.011510           0.649817
        1.971972           0.011565           0.650970           0.011565           0.650970
        1.981982           0.011622           0.652129           0.011622           0.652129
        1.991992           0.011678           0.653293           0.011678           0.653293
        2.002002           0.011736           0.654463           0.011736           0.654463
        2.012012           0.011794           0.655639           0.011794           0.655639
        2.022022           0.011852           0.656821           0.011852           0.656821
        2.032032           0.011911           0.658008           0.011911           0.658008
        2.042042           0.011971           0.659202           0.011971           0.659202
        2.052052           0.012031           0.660401           0.012031           0.660401
        2.062062           0.012091           0.661606           0.012091           0.661606
        2.072072           0.012153           0.662818           0.012153           0.662818
        2.082082           0.012215           0.664035           0.012215           0.664035
        2.092092           0.012277           0.665259           0.012277           0.665259
        2.102102           0.012340           0.666489           0.012340           0.666489
        2.112112           0.012404           0.667725           0.012404           0.667725
        2.122122           0.012468           0.668968           0.012468           0.668968
        2.132132           0.012533           0.670217           0.012533           0.670217
        2.142142           0.012599           0.671473           0.012599           0.671473
        2.152152           0.012665           0.672735           0.012665           0.672735
        2.162162           0.012732           0.674004           0.012732           0.674004
        2.172172           0.012800           0.675279           0.012800           0.675280
        2.182182           0.012868           0.676562           0.012868           0.676562
        2.192192           0.012938           0.677851           0.012938           0.677851
        2.202202           0.013007           0.679147           0.013007           0.679147
        2.212212           0.013078           0.680450           0.013078           0.680450
        2.222222           0.013149           0.681761           0.013149           0.681761
        2.232232           0.013221           0.683078           0.013221           0.683078
        2.242242           0.013294           0.684402           0.013294           0.684402
        2.252252           0.013368           0.685734           0.013368           0.685734
        2.262262           0.013442           0.687073           0.013442           0.687073
        2.272272           0.013517           0.688420           0.013517           0.688420
        2.282282           0.013593           0.689774           0.013593           0.689774
        2.292292           0.013670           0.691136           0.013670           0.691136
        2.302302           0.013748           0.692505           0.013748           0.692505
        2.312312           0.013827           0.693882           0.013827           0.693882
        2.322322           0.013906           0.695267           0.013906           0.695267
        2.332332           0.013986           0.696660           0.013986           0.696660
        2.342342           0.014068           0.698061           0.014068           0.698061
        2.352352           0.014150           0.699471           0.014150           0.699471
        2.362362           0.014233           0.700888           0.014233           0.700888
        2.372372           0.014317           0.702314           0.014317           0.702314
        2.382382           0.014402           0.703748           0.014402           0.703748
        2.392392           0.014488           0.705190           0.014488           0.705191
        2.402402           0.014575           0.706642           0.014575           0.706642
        2.412412           0.014663           0.708102           0.014663           0.708102
        2.422422           0.014752           0.709571           0.014752           0.709571
        2.432432           0.014842           0.711048           0.014842           0.711048
        2.442442           0.014934           0.712535           0.014934           0.712535
        2.452452           0.015026           0.714031           0.015026           0.714030
        2.462462           0.015120           0.715535           0.015119           0.715536
        2.472472           0.015214           0.717050           0.015214           0.717050
        2.482482           0.015310           0.718574           0.015310           0.718574
        2.492492           0.015407           0.720107           0.015407           0.720107
        2.502502           0.015505           0.721650           0.015505           0.721650
        2.512512           0.015604           0.723203           0.015604           0.723203
        2.522522           0.015705           0.724766           0.015705           0.724766
        2.532532           0.015807           0.726339           0.015807           0.726339
        2.542542           0.015910           0.727921           0.015910           0.727922
        2.552552           0.016014           0.729515           0.016014           0.729515
        2.562562           0.016120           0.731119           0.016120           0.731119
        2.572572           0.016227           0.732733           0.016227           0.732733
        2.582582           0.016336           0.734358           0.016336           0.734358
        2.592592           0.016446           0.735994           0.016446           0.735994
        2.602602           0.016558           0.737641           0.016558           0.737641
        2.612612           0.016671           0.739299           0.016671           0.739299
        2.622622           0.016785           0.740969           0.016785           0.740969
        2.632632           0.016901           0.742649           0.016901           0.742649
        2.642642           0.017019           0.744342           0.017019           0.744342
        2.652653           0.017138           0.746046           0.017138           0.746046
        2.662663           0.017259           0.747762           0.017259           0.747762
        2.672673           0.017381           0.749490           0.017381           0.749490
        2.682683           0.017506           0.751230           0.017506           0.751230
        2.692693           0.017632           0.752983           0.017632           0.752983
        2.702703           0.017759           0.754748           0.017759           0.754748
        2.712713           0.017889           0.756526           0.017889           0.756526
        2.722723           0.018020           0.758317           0.018020           0.758317
        2.732733           0.018154           0.760121           0.018154           0.760121
        2.742743           0.018289           0.761939           0.018289           0.761939
        2.752753           0.018426           0.763769           0.018426           0.763769
        2.762763           0.018566           0.765614           0.018566           0.765614
        2.772773           0.018707           0.767473           0.018707           0.767473
        2.782783           0.018851           0.769345           0.018851           0.769345
        2.792793           0.018996           0.771232           0.018996           0.771232
        2.802803           0.019144           0.773133           0.019144           0.773133
        2.812813           0.019294           0.775050           0.019294           0.775050
        2.822823           0.019447           0.776981           0.019447           0.776981
        2.832833           0.019601           0.778927           0.019601           0.778927
        2.842843           0.019759           0.780889           0.019759           0.780889
        2.852853           0.019918           0.782866           0.019918           0.782866
        2.862863           0.020081           0.784860           0.020081           0.784860
        2.872873           0.020245           0.786869           0.020245           0.786869
        2.882883           0.020413           0.788895           0.020413           0.788895
        2.892893           0.020583           0.790938           0.020583           0.790938
        2.902903           0.020756           0.792997           0.020756           0.792997
        2.912913           0.020932           0.795074           0.020932           0.795074
        2.922923           0.021111           0.797169           0.021111           0.797168
        2.932933           0.021292           0.799281           0.021292           0.799281
        2.942943           0.021477           0.801411           0.021477           0.801411
        2.952953           0.021665           0.803559           0.021665           0.803559
        2.962963           0.021856           0.805727           0.021856           0.805727
        2.972973           0.022051           0.807913           0.022051           0.807913
        2.982983           0.022249           0.810119           0.022249           0.810119
        2.992993           0.022450           0.812344           0.022450           0.812344
        3.003003           0.022655           0.814589           0.022655           0.814589
        3.013013           0.022863           0.816855           0.022863           0.816855
        3.023023           0.023076           0.819142           0.023076           0.819142
        3.033033           0.023292           0.821449           0.023292           0.821449
        3.043043           0.023512           0.823778           0.023512           0.823778
        3.053053           0.023736           0.826129           0.023736           0.826129
        3.063063           0.023965           0.828502           0.023965           0.828502
        3.073073           0.024197           0.830898           0.024197           0.830898
        3.083083           0.024434           0.833317           0.024434           0.833317
        3.093093           0.024676           0.835760           0.024676           0.835760
        3.103103           0.024922           0.838226           0.024922           0.838226
        3.113113           0.025173           0.840717           0.025173           0.840717
        3.123123           0.025429           0.843233           0.025429           0.843233
        3.133133           0.025690           0.845774           0.025690           0.845774
        3.143143           0.025956           0.848342           0.025956           0.848342
        3.153153           0.026227           0.850935           0.026227           0.850935
        3.163163           0.026504           0.853556           0.026504           0.853556
        3.173173           0.026787           0.856203           0.026787           0.856203
        3.183183           0.027076           0.858880           0.027076           0.858880
        3.193193           0.027370           0.861584           0.027370           0.861584
        3.203203           0.027671           0.864317           0.027671           0.864317
        3.213213           0.027978           0.867081           0.027978           0.867081
        3.223223           0.028292           0.869875           0.028292           0.869875
        3.233233           0.028612           0.872699           0.028612           0.872699
        3.243243           0.028940           0.875556           0.028940           0.875556
        3.253253           0.029274           0.878445           0.029274           0.878445
        3.263263           0.029616           0.881367           0.029616           0.881367
        3.273273           0.029966           0.884323           0.029966           0.884323
        3.283283           0.030324           0.887313           0.030324           0.887313
        3.293293           0.030690           0.890339           0.030690           0.890339
        3.303303           0.031064           0.893401           0.031064           0.893401
        3.313313           0.031447           0.896500           0.031447           0.896500
        3.323323           0.031840           0.899636           0.031840           0.899636
        3.333333           0.032241           0.902811           0.032241           0.902811
        3.343343           0.032652           0.906026           0.032652           0.906026
        3.353353           0.033074           0.909281           0.033074           0.909281
        3.363363           0.033505           0.912578           0.033505           0.912578
        3.373373           0.033947           0.915917           0.033947           0.915917
        3.383383           0.034401           0.919299           0.034401           0.919300
        3.393393           0.034866           0.922727           0.034866           0.922727
        3.403403           0.035342           0.926201           0.035342           0.926201
        3.413413           0.035831           0.929720           0.035831           0.929720
        3.423423           0.036333           0.933288           0.036333           0.933288
        3.433433           0.036849           0.936904           0.036849           0.936905
        3.443443           0.037377           0.940573           0.037377           0.940573
        3.453453           0.037921           0.944292           0.037921           0.944292
        3.463463           0.038479           0.948065           0.038479           0.948065
        3.473473           0.039052           0.951892           0.039052           0.951892
        3.483483           0.039642           0.955775           0.039642           0.955775
        3.493493           0.040248           0.959716           0.040248           0.959716
        3.503503           0.040872           0.963717           0.040872           0.963717
        3.513513           0.041513           0.967778           0.041513           0.967778
        3.523524           0.042174           0.971901           0.042174           0.971901
        3.533533           0.042854           0.976089           0.042854           0.976089
        3.543543           0.043554           0.980343           0.043554           0.980343
        3.553553           0.044275           0.984666           0.044275           0.984666
        3.563564           0.045019           0.989059           0.045019           0.989059
        3.573573           0.045786           0.993523           0.045786           0.993523
        3.583583           0.046577           0.998062           0.046577           0.998062
        3.593593           0.047393           1.002678           0.047393           1.002678
        3.603603           0.048235           1.007373           0.048235           1.007373
        3.613613           0.049105           1.012149           0.049105           1.012149
        3.623623           0.050003           1.017010           0.050003           1.017010
        3.633634           0.050932           1.021957           0.050932           1.021957
        3.643643           0.051892           1.026993           0.051892           1.026994
        3.653653           0.052885           1.032123           0.052885           1.032123
        3.663663           0.053913           1.037348           0.053913           1.037348
        3.673674           0.054977           1.042671           0.054977           1.042671
        3.683683           0.056079           1.048097           0.056079           1.048097
        3.693693           0.057221           1.053628           0.057221           1.053628
        3.703704           0.058405           1.059268           0.058405           1.059268
        3.713714           0.059633           1.065022           0.059633           1.065022
        3.723723           0.060907           1.070892           0.060907           1.070892
        3.733733           0.062230           1.076884           0.062230           1.076884
        3.743744           0.063605           1.083001           0.063605           1.083001
        3.753754           0.065033           1.089249           0.065033           1.089249
        3.763763           0.066519           1.095633           0.066519           1.095632
        3.773773           0.068066           1.102156           0.068066           1.102156
        3.783784           0.069676           1.108825           0.069676           1.108825
        3.793794           0.071353           1.115646           0.071353           1.115646
        3.803803           0.073102           1.122623           0.073102           1.122623
        3.813814           0.074926           1.129765           0.074926           1.129765
        3.823824           0.076830           1.137078           0.076830           1.137078
        3.833834           0.078819           1.144567           0.078819           1.144567
        3.843843           0.080897           1.152241           0.080897           1.152241
        3.853854           0.083072           1.160107           0.083072           1.160107
        3.863864           0.085348           1.168174           0.085348           1.168174
        3.873873           0.087732           1.176450           0.087732           1.176450
        3.883883           0.090231           1.184945           0.090231           1.184945
        3.893894           0.092853           1.193668           0.092853           1.193668
        3.903904           0.095607           1.202630           0.095607           1.202630
        3.913913           0.098500           1.211840           0.098500           1.211840
        3.923924           0.101544           1.221312           0.101544           1.221312
        3.933934           0.104748           1.231057           0.104748           1.231057
        3.943944           0.108124           1.241088           0.108124           1.241088
        3.953954           0.111685           1.251418           0.111685           1.251418
        3.963964           0.115444           1.262064           0.115444           1.262064
        3.973974           0.119418           1.273039           0.119418           1.273039
        3.983984           0.123621           1.284361           0.123621           1.284361
        3.993994           0.128072           1.296046           0.128072           1.296047
        4.004004           0.132792           1.308115           0.132792           1.308116
        4.014014           0.137803           1.320587           0.137803           1.320587
        4.024024           0.143127           1.333482           0.143127           1.333482
        4.034034           0.148793           1.346824           0.148793           1.346823
        4.044044           0.154830           1.360635           0.154830           1.360635
        4.054054           0.161270           1.374942           0.161270           1.374942
        4.064064           0.168150           1.389773           0.168150           1.389772
        4.074074           0.175511           1.405154           0.175511           1.405154
        4.084084           0.183398           1.421117           0.183398           1.421117
        4.094094           0.191861           1.437695           0.191861           1.437695
        4.104104           0.200957           1.454921           0.200957           1.454921
        4.114114           0.210749           1.472831           0.210749           1.472831
        4.124124           0.221310           1.491465           0.221310           1.491465
        4.134134           0.232718           1.510862           0.232718           1.510862
        4.144144           0.245066           1.531061           0.245066           1.531061
        4.154154           0.258455           1.552109           0.258455           1.552108
        4.164164           0.273003           1.574046           0.273003           1.574046
        4.174174           0.288842           1.596920           0.288842           1.596920
        4.184184           0.306123           1.620772           0.306123           1.620773
        4.194194           0.325020           1.645650           0.325020           1.645650
        4.204204           0.345728           1.671590           0.345728           1.671589
        4.214214           0.368476           1.698628           0.368476           1.698627
        4.224224           0.393521           1.726789           0.393521           1.726789
        4.234234           0.421165           1.756093           0.421165           1.756092
        4.244244           0.451752           1.786533           0.451752           1.786533
        4.254254           0.485679           1.818083           0.485679           1.818083
        4.264264           0.523401           1.850680           0.523401           1.850680
        4.274274           0.565449           1.884217           0.565449           1.884217
        4.284284           0.612425           1.918515           0.612425           1.918514
        4.294294           0.665021           1.953308           0.665021           1.953308
        4.304304           0.724020           1.988208           0.724021           1.988208
        4.314314           0.790311           2.022667           0.790311           2.022667
        4.324324           0.864868           2.055920           0.864868           2.055920
        4.334334           0.948748           2.086914           0.948748           2.086914
        4.344344           1.043046           2.114228           1.043046           2.114228
        4.354354           1.148843           2.135974           1.148843           2.135973
        4.364364           1.267066           2.149677           1.267064           2.149676
        4.374374           1.398301           2.152176           1.398300           2.152176
        4.384384           1.542543           2.139549           1.542543           2.139549
        4.394394           1.698764           2.107118           1.698764           2.107118
        4.404404           1.864440           2.049639           1.864440           2.049639
        4.414414           2.035004           1.961753           2.035005           1.961753
        4.424424           2.203446           1.838800           2.203445           1.838799
        4.434434           2.360189           1.678041           2.360188           1.678042
        4.444444           2.493722           1.480079           2.493723           1.480078
        4.454454           2.592083           1.250061           2.592082           1.250061
        4.464464           2.645109           0.997992           2.645108           0.997992
        4.474474           2.646828           0.737781           2.646828           0.737781
        4.484484           2.597062           0.484861           2.597061           0.484861
        4.494494           2.501476           0.253303           2.501477           0.253303
        4.504504           2.370049           0.053383           2.370048           0.053383
        4.514514           2.214705          -0.109464           2.214704          -0.109464
        4.524524           2.047033          -0.234398           2.047033          -0.234398
        4.534534           1.876747          -0.324001           1.876747          -0.324001
        4.544544           1.711010          -0.382859           1.711010          -0.382859
        4.554554           1.554523          -0.416315           1.554523          -0.416314
        4.564565           1.409914          -0.429635           1.409914          -0.429635
        4.574574           1.278286          -0.427538           1.278286          -0.427538
        4.584584           1.159693          -0.413992           1.159693          -0.413991
        4.594594           1.053572          -0.392201           1.053572          -0.392201
        4.604605           0.959007          -0.364675           0.959007          -0.364675
        4.614614           0.874934          -0.333337           0.874935          -0.333337
        4.624624           0.800247          -0.299629           0.800247          -0.299629
        4.634634           0.733888          -0.264623           0.733888          -0.264623
        4.644644           0.674876          -0.229099           0.674877          -0.229099
        4.654655           0.622320          -0.193617           0.622320          -0.193617
        4.664664           0.575430          -0.158573           0.575430          -0.158573
        4.674675           0.533508          -0.124238           0.533508          -0.124238
        4.684684           0.495949          -0.090795           0.495949          -0.090795
        4.694695           0.462216          -0.058353           0.462216          -0.058353
        4.704704           0.431852          -0.026979           0.431852          -0.026979
        4.714715           0.404455           0.003299           0.404455           0.003299
        4.724724           0.379680           0.032475           0.379680           0.032475
        4.734735           0.357223           0.060568           0.357223           0.060568
        4.744744           0.336823           0.087602           0.336823           0.087602
        4.754755           0.318252           0.113612           0.318252           0.113612
        4.764764           0.301311           0.138638           0.301311           0.138638
        4.774775           0.285826           0.162725           0.285826           0.162725
        4.784785           0.271645           0.185917           0.271645           0.185917
        4.794795           0.258635           0.208258           0.258635           0.208258
        4.804804           0.246679           0.229794           0.246679           0.229794
        4.814815           0.235673           0.250568           0.235673           0.250568
        4.824825           0.225525           0.270622           0.225526           0.270622
        4.834835           0.216156           0.289997           0.216156           0.289997
        4.844844           0.207494           0.308730           0.207494           0.308730
        4.854855           0.199474           0.326860           0.199474           0.326860
        4.864865           0.192040           0.344422           0.192040           0.344422
        4.874875           0.185142           0.361446           0.185142           0.361446
        4.884884           0.178734           0.377967           0.178734           0.377967
        4.894895           0.172776           0.394013           0.172776           0.394013
        4.904905           0.167232           0.409612           0.167232           0.409612
        4.914915           0.162068           0.424789           0.162068           0.424789
        4.924924           0.157256           0.439571           0.157256           0.439571
        4.934935           0.152769           0.453981           0.152769           0.453981
        4.944945           0.148582           0.468040           0.148582           0.468040
        4.954955           0.144674           0.481768           0.144674           0.481768
        4.964964           0.141026           0.495187           0.141026           0.495187
        4.974975           0.137619           0.508315           0.137619           0.508315
        4.984985           0.134438           0.521168           0.134438           0.521168
        4.994995           0.131467           0.533765           0.131467           0.533764
        5.005005           0.128693           0.546119           0.128693           0.546119
        5.015015           0.126105           0.558248           0.126105           0.558248
        5.025025           0.123690           0.570164           0.123690           0.570164
        5.035035           0.121439           0.581880           0.121439           0.581880
        5.045045           0.119342           0.593411           0.119342           0.593411
        5.055055           0.117391           0.604768           0.117391           0.604768
        5.065065           0.115579           0.615964           0.115579           0.615964
        5.075075           0.113897           0.627007           0.113897           0.627007
        5.085085           0.112341           0.637911           0.112341           0.637911
        5.095095           0.110903           0.648685           0.110903           0.648685
        5.105105           0.109579           0.659338           0.109579           0.659338
        5.115115           0.108363           0.669880           0.108363           0.669880
        5.125125           0.107252           0.680322           0.107252           0.680322
        5.135135           0.106240           0.690670           0.106240           0.690670
        5.145144           0.105326           0.700934           0.105326           0.700933
        5.155155           0.104504           0.711121           0.104504           0.711121
        5.165165           0.103773           0.721241           0.103773           0.721242
        5.175175           0.103130           0.731301           0.103129           0.731301
        5.185184           0.102571           0.741308           0.102571           0.741309
        5.195195           0.102097           0.751270           0.102097           0.751271
        5.205205           0.101704           0.761195           0.101704           0.761195
        5.215215           0.101390           0.771089           0.101390           0.771089
        5.225225           0.101156           0.780960           0.101156           0.780960
        5.235235           0.101000           0.790814           0.101000           0.790814
        5.245245           0.100920           0.800659           0.100920           0.800659
        5.255255           0.100917           0.810501           0.100917           0.810501
        5.265265           0.100990           0.820347           0.100990           0.820347
        5.275275           0.101139           0.830205           0.101139           0.830205
        5.285285           0.101364           0.840080           0.101364           0.840080
        5.295295           0.101666           0.849980           0.101666           0.849980
        5.305305           0.102045           0.859912           0.102045           0.859912
        5.315315           0.102501           0.869883           0.102501           0.869882
        5.325325           0.103037           0.879899           0.103037           0.879899
        5.335335           0.103653           0.889968           0.103653           0.889968
        5.345345           0.104350           0.900096           0.104350           0.900096
        5.355355           0.105131           0.910292           0.105131           0.910292
        5.365365           0.105997           0.920564           0.105997           0.920563
        5.375375           0.106951           0.930917           0.106951           0.930917
        5.385385           0.107996           0.941360           0.107996           0.941360
        5.395395           0.109134           0.951902           0.109134           0.951902
        5.405405           0.110369           0.962550           0.110369           0.962551
        5.415415           0.111704           0.973314           0.111704           0.973314
        5.425425           0.113143           0.984202           0.113143           0.984202
        5.435435           0.114691           0.995223           0.114691           0.995223
        5.445445           0.116353           1.006387           0.116353           1.006387
        5.455455           0.118134           1.017703           0.118134           1.017703
        5.465465           0.120040           1.029182           0.120040           1.029182
        5.475475           0.122077           1.040835           0.122077           1.040834
        5.485485           0.124252           1.052672           0.124252           1.052673
        5.495495           0.126573           1.064706           0.126573           1.064706
        5.505505           0.129049           1.076948           0.129049           1.076948
        5.515515           0.131688           1.089413           0.131688           1.089413
        5.525526           0.134501           1.102112           0.134501           1.102113
        5.535535           0.137498           1.115061           0.137498           1.115060
        5.545545           0.140692           1.128274           0.140692           1.128274
        5.555555           0.144097           1.141767           0.144097           1.141766
        5.565566           0.147726           1.155557           0.147726           1.155557
        5.575575           0.151597           1.169660           0.151597           1.169660
        5.585585           0.155725           1.184097           0.155725           1.184097
        5.595595           0.160132           1.198887           0.160132           1.198886
        5.605606           0.164839           1.214050           0.164839           1.214050
        5.615615           0.169868           1.229608           0.169868           1.229608
        5.625625           0.175247           1.245585           0.175247           1.245585
        5.635635           0.181005           1.262007           0.181005           1.262007
        5.645645           0.187173           1.278897           0.187173           1.278897
        5.655655           0.193789           1.296286           0.193789           1.296286
        5.665665           0.200891           1.314203           0.200891           1.314203
        5.675675           0.208525           1.332678           0.208525           1.332678
        5.685685           0.216740           1.351743           0.216740           1.351744
        5.695695           0.225593           1.371437           0.225593           1.371437
        5.705705           0.235146           1.391795           0.235146           1.391794
        5.715715           0.245470           1.412853           0.245470           1.412854
        5.725725           0.256643           1.434655           0.256643           1.434654
        5.735735           0.268757           1.457241           0.268757           1.457241
        5.745746           0.281912           1.480657           0.281912           1.480657
        5.755755           0.296225           1.504945           0.296225           1.504945
        5.765765           0.311825           1.530151           0.311826           1.530151
        5.775775           0.328865           1.556322           0.328864           1.556321
        5.785786           0.347512           1.583501           0.347512           1.583501
        5.795795           0.367964           1.611728           0.367964           1.611728
        5.805805           0.390443           1.641039           0.390443           1.641039
        5.815815           0.415209           1.671465           0.415209           1.671465
        5.825826           0.442555           1.703021           0.442555           1.703020
        5.835835           0.472825           1.735707           0.472825           1.735707
        5.845845           0.506408           1.769496           0.506408           1.769496
        5.855855           0.543760           1.804334           0.543760           1.804334
        5.865866           0.585401           1.840115           0.585401           1.840115
        5.875876           0.631929           1.876666           0.631929           1.876666
        5.885885           0.684027           1.913730           0.684027           1.913730
        5.895895           0.742477           1.950933           0.742477           1.950933
        5.905906           0.808154           1.987739           0.808154           1.987740
        5.915915           0.882023           2.023401           0.882023           2.023401
        5.925925           0.965146           2.056893           0.965146           2.056893
        5.935935           1.058615           2.086827           1.058615           2.086827
        5.945946           1.163509           2.111349           1.163508           2.111349
        5.955956           1.280766           2.128038           1.280766           2.128038
        5.965966           1.411031           2.133788           1.411030           2.133788
        5.975976           1.554334           2.124731           1.554334           2.124731
        5.985986           1.709746           2.096251           1.709746           2.096251
        5.995996           1.874867           2.043130           1.874867           2.043130
        6.006006           2.045321           1.959993           2.045321           1.959993
        6.016016           2.214271           1.842095           2.214271           1.842095
        6.026026           2.372329           1.686504           2.372329           1.686504
        6.036036           2.508085           1.493531           2.508085           1.493531
        6.046046           2.609554           1.267933           2.609553           1.267933
        6.056056           2.666334           1.019393           2.666334           1.019392
        6.066066           2.672079           0.761584           2.672079           0.761584
        6.076076           2.626146           0.509938           2.626146           0.509938
        6.086086           2.533794           0.278695           2.533794           0.278695
        6.096096           2.404768           0.078501           2.404768           0.078501
        6.106106           2.250923          -0.084846           2.250923          -0.084846
        6.116116           2.083948          -0.210191           2.083948          -0.210191
        6.126126           1.913710          -0.299919           1.913710          -0.299919
        6.136136           1.747589          -0.358501           1.747589          -0.358502
        6.146146           1.590452          -0.391259           1.590452          -0.391259
        6.156156           1.445072          -0.403487           1.445072          -0.403487
        6.166166           1.312633          -0.399951           1.312633          -0.399950
        6.176176           1.193265          -0.384676           1.193265          -0.384676
        6.186186           1.086442          -0.360925           1.086442          -0.360925
        6.196196           0.991259          -0.331252           0.991259          -0.331251
        6.206206           0.906658          -0.297617           0.906658          -0.297617
        6.216216           0.831540          -0.261498           0.831540          -0.261499
        6.226226           0.764843          -0.223990           0.764843          -0.223990
        6.236236           0.705572          -0.185888           0.705572          -0.185888
        6.246246           0.652836          -0.147767           0.652836          -0.147767
        6.256256           0.605835          -0.110032           0.605835          -0.110032
        6.266266           0.563870          -0.072964           0.563869          -0.072964
        6.276276           0.526319          -0.036743           0.526319          -0.036743
        6.286286           0.492651          -0.001489           0.492651          -0.001489
        6.296296           0.462399           0.032734           0.462399           0.032734
        6.306306           0.435161           0.065893           0.435161           0.065893
        6.316316           0.410585           0.097989           0.410585           0.097989
        6.326326           0.388367           0.129035           0.388367           0.129035
        6.336336           0.368243           0.159059           0.368243           0.159059
        6.346346           0.349985           0.188095           0.349985           0.188095
        6.356356           0.333391           0.216189           0.333391           0.216189
        6.366366           0.318287           0.243383           0.318287           0.243383
        6.376376           0.304521           0.269725           0.304521           0.269725
        6.386386           0.291959           0.295260           0.291959           0.295260
        6.396396           0.280483           0.320038           0.280483           0.320038
        6.406406           0.269990           0.344104           0.269990           0.344104
        6.416416           0.260391           0.367501           0.260391           0.367501
        6.426426           0.251604           0.390274           0.251604           0.390274
        6.436436           0.243558           0.412463           0.243558           0.412463
        6.446446           0.236191           0.434109           0.236191           0.434109
        6.456456           0.229448           0.455249           0.229448           0.455249
        6.466466           0.223279           0.475920           0.223279           0.475920
        6.476476           0.217640           0.496156           0.217640           0.496156
        6.486486           0.212493           0.515990           0.212493           0.515990
        6.496496           0.207802           0.535453           0.207802           0.535453
        6.506506           0.203539           0.554576           0.203539           0.554576
        6.516516           0.199674           0.573388           0.199674           0.573388
        6.526526           0.196184           0.591916           0.196184           0.591916
        6.536536           0.193048           0.610186           0.193048           0.610186
        6.546546           0.190247           0.628224           0.190247           0.628224
        6.556556           0.187764           0.646055           0.187764           0.646055
        6.566566           0.185585           0.663702           0.185585           0.663702
        6.576576           0.183697           0.681187           0.183697           0.681187
        6.586586           0.182089           0.698534           0.182089           0.698534
        6.596596           0.180753           0.715764           0.180753           0.715764
        6.606606           0.179681           0.732898           0.179681           0.732898
        6.616616           0.178866           0.749956           0.178866           0.749956
        6.626626           0.178304           0.766961           0.178304           0.766961
        6.636636           0.177992           0.783932           0.177992           0.783932
        6.646646           0.177928           0.800889           0.177928           0.800889
        6.656656           0.178110           0.817851           0.178110           0.817851
        6.666666           0.178540           0.834840           0.178540           0.834841
        6.676676           0.179220           0.851876           0.179220           0.851876
        6.686686           0.180152           0.868978           0.180152           0.868978
        6.696696           0.181341           0.886167           0.181341           0.886167
        6.706707           0.182794           0.903464           0.182794           0.903464
        6.716716           0.184517           0.920891           0.184517           0.920891
        6.726726           0.186519           0.938467           0.186519           0.938467
        6.736736           0.188812           0.956218           0.188812           0.956218
        6.746747           0.191407           0.974164           0.191407           0.974164
        6.756756           0.194319           0.992330           0.194319           0.992330
        6.766766           0.197563           1.010739           0.197563           1.010739
        6.776776           0.201160           1.029418           0.201160           1.029418
        6.786787           0.205129           1.048392           0.205129           1.048392
        6.796796           0.209495           1.067690           0.209495           1.067690
        6.806807           0.214285           1.087339           0.214285           1.087339
        6.816816           0.219528           1.107370           0.219528           1.107370
        6.826826           0.225259           1.127813           0.225259           1.127813
        6.836837           0.231518           1.148703           0.231518           1.148703
        6.846846           0.238345           1.170072           0.238345           1.170072
        6.856857           0.245791           1.191960           0.245791           1.191959
        6.866867           0.253910           1.214398           0.253910           1.214398
        6.876876           0.262765           1.237431           0.262765           1.237431
        6.886887           0.272425           1.261101           0.272425           1.261101
        6.896896           0.282968           1.285446           0.282968           1.285446
        6.906906           0.294486           1.310515           0.294486           1.310514
        6.916917           0.307081           1.336352           0.307081           1.336352
        6.926927           0.320866           1.363003           0.320866           1.363003
        6.936936           0.335976           1.390516           0.335976           1.390516
        6.946947           0.352561           1.418939           0.352561           1.418939
        6.956956           0.370791           1.448315           0.370791           1.448315
        6.966967           0.390868           1.478689           0.390868           1.478689
        6.976976           0.413014           1.510093           0.413014           1.510093
        6.986986           0.437491           1.542561           0.437491           1.542560
        6.996997           0.464601           1.576107           0.464601           1.576107
        7.007007           0.494686           1.610729           0.494686           1.610729
        7.017016           0.528145           1.646401           0.528145           1.646401
        7.027027           0.565442           1.683064           0.565442           1.683063
        7.037036           0.607099           1.720600           0.607099           1.720600
        7.047047           0.653730           1.758841           0.653730           1.758841
        7.057057           0.706020           1.797509           0.706020           1.797510
        7.067066           0.764763           1.836220           0.764763           1.836219
        7.077077           0.830851           1.874415           0.830851           1.874415
        7.087087           0.905253           1.911321           0.905253           1.911321
        7.097096           0.989032           1.945875           0.989032           1.945875
        7.107107           1.083296           1.976645           1.083296           1.976645
        7.117116           1.189098           2.001718           1.189098           2.001718
        7.127127           1.307377           2.018600           1.307377           2.018600
        7.137137           1.438687           2.024104           1.438687           2.024104
        7.147147           1.582995           2.014275           1.582995           2.014275
        7.157157           1.739239           1.984411           1.739238           1.984412
        7.167167           1.904801           1.929261           1.904801           1.929262
        7.177176           2.075051           1.843470           2.075051           1.843469
        7.187187           2.242876           1.722419           2.242876           1.722419
        7.197196           2.398590           1.563494           2.398590           1.563494
        7.207206           2.530650           1.367439           2.530650           1.367439
        7.217217           2.627121           1.139561           2.627121           1.139561
        7.227227           2.677939           0.890096           2.677939           0.890096
        7.237237           2.677343           0.633010           2.677342           0.633010
        7.247247           2.625384           0.383782           2.625384           0.383782
        7.257257           2.527926           0.156345           2.527925           0.156345
        7.267267           2.395058          -0.039194           2.395058          -0.039194
        7.277277           2.238751          -0.197565           2.238751          -0.197565
        7.287286           2.070533          -0.318100           2.070533          -0.318100
        7.297297           1.900005          -0.403488           1.900005          -0.403488
        7.307307           1.734275          -0.458344           1.734275          -0.458344
        7.317317           1.577922          -0.488034           1.577922          -0.488034
        7.327327           1.433530          -0.497804           1.433530          -0.497804
        7.337337           1.302135          -0.492347           1.302135          -0.492348
        7.347347           1.183766          -0.475602           1.183766          -0.475602
        7.357357           1.077851          -0.450745           1.077851          -0.450745
        7.367367           0.983458          -0.420262           0.983458          -0.420262
        7.377377           0.899508          -0.386048           0.899508          -0.386049
        7.387387           0.824916          -0.349541           0.824916          -0.349541
        7.397398           0.758612          -0.311789           0.758612          -0.311788
        7.407407           0.699627          -0.273569           0.699627          -0.273569
        7.417417           0.647070          -0.235433           0.647070          -0.235433
        7.427427           0.600150          -0.197765           0.600150          -0.197765
        7.437437           0.558181          -0.160841           0.558181          -0.160841
        7.447447           0.520552          -0.124833           0.520552          -0.124833
        7.457457           0.486734          -0.089851           0.486734          -0.089851
        7.467467           0.456272          -0.055962           0.456272          -0.055962
        7.477477           0.428765          -0.023191           0.428765          -0.023191
        7.487487           0.403866           0.008462           0.403866           0.008462
        7.497497           0.381280           0.039007           0.381280           0.039007
        7.507507           0.360741           0.068477           0.360741           0.068477
        7.517517           0.342025           0.096903           0.342025           0.096903
        7.527527           0.324933           0.124326           0.324933           0.124326
        7.537537           0.309291           0.150793           0.309291           0.150793
        7.547547           0.294949           0.176344           0.294949           0.176344
        7.557557           0.281774           0.201026           0.281774           0.201026
        7.567567           0.269646           0.224887           0.269646           0.224887
        7.577577           0.258466           0.247965           0.258466           0.247965
        7.587587           0.248141           0.270307           0.248141           0.270307
        7.597597           0.238591           0.291949           0.238591           0.291949
        7.607607           0.229744           0.312931           0.229744           0.312931
        7.617618           0.221535           0.333293           0.221535           0.333293
        7.627627           0.213910           0.353065           0.213910           0.353064
        7.637637           0.206818           0.372281           0.206818           0.372281
        7.647647           0.200211           0.390975           0.200211           0.390975
        7.657657           0.194051           0.409173           0.194051           0.409173
        7.667667           0.188301           0.426906           0.188301           0.426906
        7.677677           0.182927           0.444195           0.182928           0.444195
        7.687687           0.177902           0.461069           0.177901           0.461069
        7.697698           0.173196           0.477550           0.173196           0.477550
        7.707707           0.168786           0.493658           0.168786           0.493658
        7.717717           0.164651           0.509414           0.164651           0.509414
        7.727727           0.160770           0.524840           0.160770           0.524840
        7.737737           0.157125           0.539950           0.157125           0.539950
        7.747747           0.153700           0.554764           0.153701           0.554764
        7.757757           0.150480           0.569298           0.150480           0.569298
        7.767767           0.147450           0.583565           0.147450           0.583565
        7.777778           0.144599           0.597582           0.144599           0.597582
        7.787787           0.141914           0.611360           0.141914           0.611360
        7.797797           0.139386           0.624914           0.139386           0.624914
        7.807807           0.137004           0.638256           0.137004           0.638256
        7.817817           0.134759           0.651395           0.134759           0.651395
        7.827827           0.132644           0.664345           0.132644           0.664345
        7.837838           0.130650           0.677115           0.130650           0.677115
        7.847847           0.128771           0.689715           0.128771           0.689714
        7.857858           0.127000           0.702154           0.127000           0.702154
        7.867867           0.125332           0.714440           0.125332           0.714441
        7.877877           0.123760           0.726584           0.123760           0.726584
        7.887887           0.122279           0.738592           0.122279           0.738592
        7.897897           0.120886           0.750472           0.120886           0.750472
        7.907907           0.119575           0.762231           0.119575           0.762231
        7.917918           0.118342           0.773877           0.118342           0.773877
        7.927927           0.117184           0.785416           0.117184           0.785416
        7.937938           0.116097           0.796855           0.116097           0.796855
        7.947948           0.115078           0.808199           0.115078           0.808199
        7.957957           0.114124           0.819454           0.114124           0.819454
        7.967968           0.113231           0.830628           0.113231           0.830627
        7.977977           0.112398           0.841722           0.112398           0.841722
        7.987987           0.111621           0.852745           0.111621           0.852745
        7.997998           0.110899           0.863701           0.110899           0.863701
        8.008007           0.110229           0.874593           0.110229           0.874593
        8.018017           0.109609           0.885428           0.109609           0.885428
        8.028028           0.109038           0.896210           0.109038           0.896210
        8.038037           0.108514           0.906943           0.108514           0.906943
        8.048048           0.108034           0.917632           0.108034           0.917632
        8.058058           0.107598           0.928278           0.107598           0.928278
        8.068068           0.107205           0.938888           0.107205           0.938888
        8.078078           0.106852           0.949466           0.106852           0.949466
        8.088087           0.106538           0.960014           0.106538           0.960014
        8.098097           0.106263           0.970536           0.106263           0.970536
        8.108108           0.106026           0.981037           0.106026           0.981037
        8.118117           0.105824           0.991518           0.105824           0.991518
        8.128128           0.105659           1.001985           0.105659           1.001985
        8.138138           0.105528           1.012439           0.105528           1.012439
        8.148148           0.105430           1.022884           0.105430           1.022884
        8.158158           0.105366           1.033324           0.105366           1.033325
        8.168168           0.105334           1.043761           0.105334           1.043761
        8.178178           0.105334           1.054199           0.105334           1.054199
        8.188188           0.105365           1.064641           0.105365           1.064640
        8.198197           0.105427           1.075088           0.105427           1.075088
        8.208207           0.105520           1.085544           0.105520           1.085544
        8.218218           0.105642           1.096013           0.105642           1.096013
        8.228228           0.105793           1.106496           0.105793           1.106496
        8.238238           0.105974           1.116998           0.105974           1.116998
        8.248248           0.106183           1.127520           0.106183           1.127520
        8.258258           0.106421           1.138065           0.106421           1.138065
        8.268268           0.106687           1.148636           0.106687           1.148636
        8.278277           0.106982           1.159236           0.106982           1.159235
        8.288287           0.107304           1.169866           0.107304           1.169866
        8.298298           0.107654           1.180532           0.107654           1.180532
        8.308308           0.108032           1.191233           0.108032           1.191233
        8.318318           0.108438           1.201974           0.108438           1.201975
        8.328328           0.108872           1.212757           0.108872           1.212757
        8.338338           0.109333           1.223585           0.109333           1.223585
        8.348348           0.109822           1.234460           0.109822           1.234460
        8.358357           0.110339           1.245385           0.110339           1.245385
        8.368367           0.110884           1.256363           0.110884           1.256363
        8.378378           0.111457           1.267397           0.111457           1.267396
        8.388388           0.112058           1.278488           0.112058           1.278487
        8.398398           0.112688           1.289640           0.112688           1.289640
        8.408408           0.113347           1.300856           0.113347           1.300856
        8.418418           0.114035           1.312138           0.114035           1.312138
        8.428429           0.114752           1.323490           0.114752           1.323490
        8.438437           0.115499           1.334913           0.115499           1.334913
        8.448447           0.116275           1.346411           0.116275           1.346411
        8.458458           0.117083           1.357988           0.117083           1.357988
        8.468468           0.117921           1.369645           0.117921           1.369645
        8.478477           0.118790           1.381386           0.118790           1.381386
        8.488488           0.119692           1.393215           0.119692           1.393215
        8.498498           0.120625           1.405132           0.120625           1.405133
        8.508509           0.121592           1.417144           0.121592           1.417144
        8.518518           0.122592           1.429251           0.122592           1.429251
        8.528527           0.123627           1.441458           0.123627           1.441457
        8.538538           0.124697           1.453767           0.124697           1.453768
        8.548548           0.125802           1.466183           0.125802           1.466183
        8.558558           0.126944           1.478708           0.126944           1.478708
        8.568568           0.128123           1.491348           0.128123           1.491348
        8.578578           0.129340           1.504103           0.129340           1.504103
        8.588589           0.130596           1.516981           0.130596           1.516980
        8.598598           0.131893           1.529981           0.131893           1.529981
        8.608608           0.133231           1.543109           0.133231           1.543109
        8.618618           0.134611           1.556371           0.134611           1.556371
        8.628628           0.136034           1.569769           0.136034           1.569768
        8.638638           0.137502           1.583306           0.137502           1.583306
        8.648648           0.139015           1.596989           0.139015           1.596990
        8.658658           0.140576           1.610821           0.140576           1.610821
        8.668669           0.142186           1.624808           0.142186           1.624807
        8.678679           0.143846           1.638951           0.143846           1.638951
        8.688688           0.145557           1.653259           0.145557           1.653258
        8.698698           0.147322           1.667735           0.147322           1.667735
        8.708708           0.149142           1.682383           0.149142           1.682383
        8.718718           0.151018           1.697211           0.151018           1.697211
        8.728728           0.152954           1.712223           0.152954           1.712223
        8.738738           0.154950           1.727424           0.154950           1.727424
        8.748748           0.157009           1.742820           0.157009           1.742821
        8.758759           0.159134           1.758420           0.159134           1.758420
        8.768768           0.161326           1.774226           0.161326           1.774226
        8.778779           0.163588           1.790247           0.163588           1.790247
        8.788788           0.165923           1.806488           0.165922           1.806488
        8.798798           0.168333           1.822956           0.168333           1.822956
        8.808808           0.170821           1.839661           0.170821           1.839661
        8.818818           0.173392           1.856607           0.173392           1.856607
        8.828828           0.176046           1.873803           0.176047           1.873803
        8.838839           0.178790           1.891258           0.178790           1.891258
        8.848848           0.181625           1.908977           0.181625           1.908978
        8.858859           0.184556           1.926974           0.184556           1.926974
        8.868869           0.187587           1.945253           0.187586           1.945253
        8.878878           0.190721           1.963825           0.190721           1.963825
        8.888888           0.193965           1.982702           0.193965           1.982702
        8.898898           0.197322           2.001890           0.197322           2.001890
        8.908908           0.200798           2.021402           0.200798           2.021403
        8.918919           0.204399           2.041250           0.204399           2.041250
        8.928928           0.208129           2.061444           0.208129           2.061444
        8.938939           0.211996           2.081996           0.211996           2.081996
        8.948949           0.216006           2.102918           0.216006           2.102919
        8.958959           0.220165           2.124225           0.220165           2.124224
        8.968968           0.224483           2.145929           0.224483           2.145930
        8.978978           0.228965           2.168045           0.228965           2.168044
        8.988988           0.233621           2.190586           0.233621           2.190587
        8.998999           0.238460           2.213574           0.238460           2.213574
        9.009008           0.243492           2.237018           0.243491           2.237018
        9.019018           0.248726           2.260939           0.248726           2.260939
        9.029029           0.254175           2.285356           0.254175           2.285356
        9.039039           0.259849           2.310285           0.259850           2.310285
        9.049048           0.265763           2.335750           0.265763           2.335750
        9.059058           0.271929           2.361768           0.271929           2.361768
        9.069068           0.278362           2.388363           0.278362           2.388363
        9.079079           0.285079           2.415561           0.285079           2.415561
        9.089088           0.292095           2.443381           0.292095           2.443381
        9.099098           0.299430           2.471853           0.299430           2.471853
        9.109109           0.307104           2.501004           0.307104           2.501005
        9.119119           0.315137           2.530862           0.315137           2.530862
        9.129129           0.323554           2.561460           0.323554           2.561460
        9.139138           0.332378           2.592825           0.332378           2.592825
        9.149148           0.341638           2.624995           0.341638           2.624995
        9.159159           0.351364           2.658007           0.351364           2.658007
        9.169168           0.361587           2.691895           0.361587           2.691896
        9.179178           0.372342           2.726703           0.372342           2.726704
        9.189189           0.383669           2.762476           0.383669           2.762475
        9.199199           0.395607           2.799252           0.395607           2.799252
        9.209209           0.408205           2.837088           0.408205           2.837088
        9.219219           0.421509           2.876027           0.421509           2.876027
        9.229228           0.435577           2.916127           0.435577           2.916128
        9.239239           0.450469           2.957452           0.450469           2.957451
        9.249249           0.466250           3.000051           0.466250           3.000052
        9.259258           0.482993           3.043999           0.482993           3.043999
        9.269269           0.500781           3.089364           0.500781           3.089364
        9.279279           0.519700           3.136215           0.519700           3.136215
        9.289289           0.539851           3.184634           0.539851           3.184634
        9.299299           0.561344           3.234707           0.561344           3.234707
        9.309309           0.584300           3.286514           0.584300           3.286515
        9.319319           0.608857           3.340160           0.608857           3.340160
        9.329329           0.635164           3.395732           0.635164           3.395732
        9.339338           0.663393           3.453343           0.663393           3.453343
        9.349349           0.693738           3.513106           0.693738           3.513105
        9.359359           0.726408           3.575125           0.726408           3.575126
        9.369369           0.761647           3.639533           0.761647           3.639534
        9.379379           0.799732           3.706459           0.799732           3.706459
        9.389389           0.840966           3.776024           0.840965           3.776025
        9.399399           0.885704           3.848374           0.885704           3.848375
        9.409409           0.934339           3.923636           0.934340           3.923637
        9.419418           0.987329           4.001949           0.987329           4.001950
        9.429429           1.045196           4.083452           1.045196           4.083453
        9.439439           1.108523           4.168258           1.108523           4.168259
        9.449449           1.177995           4.256479           1.177995           4.256479
        9.459459           1.254398           4.348208           1.254399           4.348208
        9.469469           1.338619           4.443480           1.338619           4.443479
        9.479479           1.431705           4.542303           1.431705           4.542303
        9.489489           1.534832           4.644583           1.534832           4.644585
        9.499498           1.649380           4.750154           1.649379           4.750154
        9.509509           1.776938           4.858691           1.776938           4.858690
        9.519519           1.919298           4.969655           1.919299           4.969654
        9.529529           2.078548           5.082263           2.078548           5.082262
        9.539539           2.257057           5.195369           2.257057           5.195371
        9.549549           2.457444           5.307317           2.457444           5.307318
        9.559559           2.682657           5.415825           2.682657           5.415825
        9.569570           2.935887           5.517760           2.935887           5.517758
        9.579578           3.220391           5.608853           3.220390           5.608854
        9.589589           3.539438           5.683468           3.539438           5.683470
        9.599599           3.895768           5.734192           3.895768           5.734192
        9.609609           4.291205           5.751568           4.291206           5.751566
        9.619619           4.725754           5.723837           4.725753           5.723839
        9.629629           5.196292           5.637006           5.196292           5.637005
        9.639639           5.695324           5.475347           5.695325           5.475346
        9.649650           6.209265           5.222752           6.209265           5.222753
        9.659659           6.717002           4.865287           6.717004           4.865287
        9.669669           7.189973           4.394626           7.189973           4.394626
        9.679679           7.593591           3.812572           7.593592           3.812572
        9.689689           7.892007           3.134419           7.892007           3.134419
        9.699699           8.054676           2.390091           8.054676           2.390091
        9.709709           8.063560           1.621349           8.063563           1.621348
        9.719719           7.918038           0.874439           7.918036           0.874439
        9.729730           7.634947           0.191556           7.634946           0.191556
        9.739739           7.244232          -0.396212           7.244232          -0.396213
        9.749749           6.781641          -0.872540           6.781638          -0.872539
        9.759759           6.281904          -1.234845           6.281905          -1.234845
        9.769769           5.774288          -1.490759           5.774287          -1.490759
        9.779779           5.280287          -1.654022           5.280290          -1.654022
        9.789789           4.814123          -1.740635           4.814125          -1.740635
        9.799799           4.383677          -1.766410           4.383677          -1.766411
        9.809810           3.992237          -1.745494           3.992237          -1.745495
        9.819819           3.640087          -1.689803           3.640087          -1.689803
        9.829829           3.325502          -1.608951           3.325501          -1.608950
        9.839839           3.045723          -1.510455           3.045724          -1.510455
        9.849849           2.797606          -1.400097           2.797606          -1.400097
        9.859859           2.577811          -1.282185           2.577811          -1.282184
        9.869869           2.383204          -1.159941           2.383204          -1.159940
        9.879879           2.210824          -1.035686           2.210824          -1.035686
        9.889890           2.057998          -0.911080           2.057998          -0.911080
        9.899899           1.922385          -0.787315           1.922385          -0.787316
        9.909909           1.801889          -0.665183           1.801889          -0.665183
        9.919919           1.694682          -0.545196           1.694683          -0.545196
        9.929929           1.599201          -0.427696           1.599201          -0.427696
        9.939939           1.514055          -0.312838           1.514054          -0.312839
        9.949949           1.438067          -0.200708           1.438067          -0.200708
        9.959959           1.370201          -0.091284           1.370201          -0.091284
        9.969970           1.309562           0.015510           1.309561           0.015509
        9.979980           1.255386           0.119759           1.255385           0.119758
        9.989989           1.206997           0.221602           1.206997           0.221601
        10.00000           1.163814           0.321195           1.163814           0.321195
# 
# 11/30/2023 at 13:38 yambo_ph @ unimi-XPS-8930 [start]
# 11/30/2023 at 13:38                           [end]
#  
# Timing   [Min/Max/Average]: 08s/08s/08s
#
# .-Input file  yambo.in
# | optics                           # [R] Linear Response optical properties
# | dipoles                          # [R] Oscillator strenghts (or dipoles)
# | bss                              # [R] BSE solver
# | bse                              # [R][BSE] Bethe Salpeter Equation.
# | BoseTemp= 0.000000         eV    # Bosonic Temperature
# | FFTGvecs=  4653            RL    # [FFT] Plane-waves
# | DIP_Threads= 1                   # [OPENMP/X] Number of threads for dipoles
# | BS_nCPU_LinAlg_INV= 1            # [PARALLEL] CPUs for Linear Algebra (if -1 it is automatically set)
# | BS_nCPU_LinAlg_DIAGO= 1          # [PARALLEL] CPUs for Linear Algebra (if -1 it is automatically set)
# | X_Threads= 1                     # [OPENMP/X] Number of threads for response functions
# | K_Threads= 1                     # [OPENMP/BSK] Number of threads for response functions
# | BSKmod= "HARTREE"                # [BSE] IP/Hartree/HF/ALDA/SEX/BSfxc
# | BSEmod= "resonant"               # [BSE] resonant/retarded/coupling
# | BSSmod= "d"                      # [BSS] (h)aydock/(d)iagonalization/(s)lepc/(i)nversion/(t)ddft`
# | % DipBands
# |   3 |  6 |                           # [DIP] Bands range for dipoles
# | %
# | DipComputed= "R V P"             # [DIP] [default R P V; extra P2 Spin Orb]
# | BSENGexx= 1                RL    # [BSK] Exchange components
# | % BSEQptR
# |   1 |  9 |                           # [BSK] Transferred momenta range
# | %
# | % BSEBands
# |   3 |  6 |                           # [BSK] Bands range
# | %
# | % BEnRange
# |   0.00000 | 10.00000 |         eV    # [BSS] Energy range
# | %
# | % BDmRange
# |  0.100000 | 0.100000 |         eV    # [BSS] Damping range
# | %
# | BEnSteps= 1000                   # [BSS] Energy steps
# | % BLongDir
# |   0.00000    | 0.100000E-4 |  0.00000    # [BSS] [cc] Electric Field
# | %
# | BSEprop= "abs esrt jdos"         # [BSS] Can be any among abs/jdos/kerr/magn/dich/photolum/esrt
# | BSEdips= "none"                  # [BSS] Can be "trace/none" or "xy/xz/yz" to define off-diagonal rotation plane
# | WRbsWF                         # [BSS] Write to disk excitonic the WFs
