#                                                                     
#  __  __   ________   ___ __ __    _______   ______                  
# /_/\/_/\ /_______/\ /__//_//_/\ /_______/\ /_____/\                 
# \ \ \ \ \\::: _  \ \\::\| \| \ \\::: _  \ \\:::_ \ \                
#  \:\_\ \ \\::(_)  \ \\:.      \ \\::(_)  \/_\:\ \ \ \               
#   \::::_\/ \:: __  \ \\:.\-/\  \ \\::  _  \ \\:\ \ \ \              
#     \::\ \  \:.\ \  \ \\. \  \  \ \\::(_)  \ \\:\_\ \ \             
#      \__\/   \__\/\__\/ \__\/ \__\/ \_______\/ \_____\/             
#                                                                     
#                                                                     
# Version 5.2.0 Revision 22184 Hash (prev commit) 2871b0cee           
#                  Branch is devel-excph                              
#         MPI+OpenMP+SLK+SLEPC+HDF5_MPI_IO Build                      
#                http://www.yambo-code.org                            
#
# Electron Energy Loss @ Q(9): -0.333333343     0.500000060      0.00000000    [iku]
#
# [GEN] GF Energies                               : Slater exchange(X)+Perdew & Zunger(C)
# [GEN] Green`s Function                          : Resonant
#
# DIP band range                                  :   3   6
# DIP band range limits                           :   4   5
# DIP e/h energy range                            :  -1.00000000     -1.00000000    [eV]
# RL vectors in the sum                           :   4653
# [r,Vnl] included                                : yes
# Bands ordered                                   : yes
# Direct v evaluation                             : no
# Approach used                                   : G-space v
# Dipoles computed                                : R V P
# Wavefunctions                                   : Slater exchange(X)+Perdew & Zunger(C)
#
#
# [K] Identifier                                  :  1223
# [K] Q-point                                     : -0.333333343     0.500000060      0.00000000   
# [K] Dimension                                   :   36
# [K] Bands                                       :   3   6
# [K] Exchange res                                : yes
# [K] Correlation res                             : yes
# [K] Kernel`s coupling                           : no
# [K] Exchange cpl                                : no
# [K] Correlation cpl                             : no
# [K] W interaction is bare                       : yes
# [K] ALDA kernel in R-space                      : no
# [K] RL vectors exchange                         :  1005
# [K] RL vectors correlation                      :  1005
# [K] E/h energy range                            :  -1.00000000     -1.00000000    [eV]
# [K] Coupling range                              :   100.000000      100.000000    [o/o]
# [K] BSE L kind                                  : BAR
# [W] Interaction is diagonal                     : yes
# [W] Matrix size                                 :  1
# [RIM] RL components col                         : 0
# [RIM] Random points col                         : 0
# [SOC] Perturbative SOC                          : no
# [X] Response Kind                               : BAR
#
#
#    E[1] [eV]          Im(eel)            Re(eel)            Im(eel_o)          Re(eel_o)
#
        0.000000           0.10979E-10       -0.928557           0.47536E-11       -0.997770
        0.010010           0.521549E-3       -0.928786           0.143064E-3       -0.997834
        0.020020           0.532981E-3       -0.929102           0.145705E-3       -0.997922
        0.030030           0.536164E-3       -0.929248           0.146109E-3       -0.997962
        0.040040           0.538946E-3       -0.929351           0.146407E-3       -0.997989
        0.050050           0.541582E-3       -0.929421           0.146667E-3       -0.998010
        0.060060           0.544167E-3       -0.929480           0.146910E-3       -0.998028
        0.070070           0.546732E-3       -0.929531           0.147143E-3       -0.998041
        0.080080           0.549289E-3       -0.929572           0.147371E-3       -0.998054
        0.090090           0.551850E-3       -0.929609           0.147594E-3       -0.998065
        0.100100           0.554415E-3       -0.929638           0.147815E-3       -0.998075
        0.110110           0.556994E-3       -0.929663           0.148035E-3       -0.998083
        0.120120           0.559594E-3       -0.929689           0.148253E-3       -0.998092
        0.130130           0.562207E-3       -0.929709           0.148470E-3       -0.998099
        0.140140           0.564838E-3       -0.929725           0.148686E-3       -0.998106
        0.150150           0.567492E-3       -0.929741           0.148903E-3       -0.998112
        0.160160           0.570171E-3       -0.929757           0.149119E-3       -0.998118
        0.170170           0.572873E-3       -0.929771           0.149335E-3       -0.998123
        0.180180           0.575593E-3       -0.929779           0.149551E-3       -0.998129
        0.190190           0.578346E-3       -0.929791           0.149767E-3       -0.998134
        0.200200           0.581120E-3       -0.929799           0.149983E-3       -0.998139
        0.210210           0.583922E-3       -0.929808           0.150199E-3       -0.998143
        0.220220           0.586749E-3       -0.929813           0.150416E-3       -0.998147
        0.230230           0.589604E-3       -0.929818           0.150632E-3       -0.998151
        0.240240           0.592487E-3       -0.929822           0.150849E-3       -0.998156
        0.250250           0.595404E-3       -0.929828           0.151067E-3       -0.998159
        0.260260           0.598344E-3       -0.929829           0.151284E-3       -0.998163
        0.270270           0.601314E-3       -0.929829           0.151502E-3       -0.998166
        0.280280           0.604317E-3       -0.929830           0.151720E-3       -0.998170
        0.290290           0.607349E-3       -0.929828           0.151939E-3       -0.998173
        0.300300           0.610415E-3       -0.929827           0.152158E-3       -0.998175
        0.310310           0.613502E-3       -0.929817           0.152377E-3       -0.998178
        0.320320           0.616632E-3       -0.929813           0.152597E-3       -0.998181
        0.330330           0.619802E-3       -0.929814           0.152817E-3       -0.998184
        0.340340           0.622988E-3       -0.929800           0.153037E-3       -0.998187
        0.350350           0.626223E-3       -0.929795           0.153258E-3       -0.998189
        0.360360           0.629495E-3       -0.929791           0.153479E-3       -0.998192
        0.370370           0.632794E-3       -0.929778           0.153701E-3       -0.998194
        0.380380           0.636138E-3       -0.929772           0.153923E-3       -0.998196
        0.390390           0.639513E-3       -0.929759           0.154146E-3       -0.998199
        0.400400           0.642930E-3       -0.929748           0.154369E-3       -0.998201
        0.410410           0.646394E-3       -0.929742           0.154592E-3       -0.998203
        0.420420           0.649883E-3       -0.929725           0.154816E-3       -0.998205
        0.430430           0.653421E-3       -0.929712           0.155040E-3       -0.998207
        0.440440           0.657006E-3       -0.929704           0.155265E-3       -0.998209
        0.450450           0.660623E-3       -0.929687           0.155490E-3       -0.998211
        0.460460           0.664287E-3       -0.929671           0.155716E-3       -0.998213
        0.470470           0.667994E-3       -0.929655           0.155942E-3       -0.998215
        0.480480           0.671752E-3       -0.929641           0.156169E-3       -0.998217
        0.490490           0.675553E-3       -0.929624           0.156396E-3       -0.998218
        0.500500           0.679407E-3       -0.929612           0.156624E-3       -0.998220
        0.510511           0.683293E-3       -0.929587           0.156851E-3       -0.998222
        0.520521           0.687238E-3       -0.929570           0.157080E-3       -0.998223
        0.530531           0.691232E-3       -0.929551           0.157309E-3       -0.998225
        0.540541           0.695277E-3       -0.929532           0.157538E-3       -0.998226
        0.550551           0.699370E-3       -0.929509           0.157768E-3       -0.998228
        0.560561           0.703518E-3       -0.929487           0.157999E-3       -0.998230
        0.570571           0.707723E-3       -0.929467           0.158230E-3       -0.998231
        0.580581           0.711985E-3       -0.929447           0.158461E-3       -0.998232
        0.590591           0.716291E-3       -0.929419           0.158693E-3       -0.998234
        0.600601           0.720666E-3       -0.929397           0.158926E-3       -0.998235
        0.610611           0.725103E-3       -0.929377           0.159158E-3       -0.998236
        0.620621           0.729589E-3       -0.929349           0.159392E-3       -0.998238
        0.630631           0.734133E-3       -0.929319           0.159626E-3       -0.998239
        0.640641           0.738756E-3       -0.929298           0.159860E-3       -0.998240
        0.650651           0.743428E-3       -0.929267           0.160095E-3       -0.998241
        0.660661           0.748173E-3       -0.929241           0.160331E-3       -0.998243
        0.670671           0.752988E-3       -0.929216           0.160567E-3       -0.998244
        0.680681           0.757851E-3       -0.929178           0.160803E-3       -0.998245
        0.690691           0.762816E-3       -0.929158           0.161040E-3       -0.998246
        0.700701           0.767825E-3       -0.929122           0.161278E-3       -0.998247
        0.710711           0.772907E-3       -0.929085           0.161516E-3       -0.998248
        0.720721           0.778091E-3       -0.929063           0.161755E-3       -0.998249
        0.730731           0.783321E-3       -0.929023           0.161994E-3       -0.998250
        0.740741           0.788644E-3       -0.928991           0.162233E-3       -0.998251
        0.750751           0.794049E-3       -0.928960           0.162474E-3       -0.998252
        0.760761           0.799520E-3       -0.928919           0.162714E-3       -0.998253
        0.770771           0.805089E-3       -0.928885           0.162955E-3       -0.998254
        0.780781           0.810743E-3       -0.928851           0.163197E-3       -0.998255
        0.790791           0.816475E-3       -0.928809           0.163439E-3       -0.998256
        0.800801           0.822316E-3       -0.928778           0.163682E-3       -0.998257
        0.810811           0.828233E-3       -0.928738           0.163926E-3       -0.998258
        0.820821           0.834244E-3       -0.928696           0.164169E-3       -0.998259
        0.830831           0.840355E-3       -0.928656           0.164414E-3       -0.998260
        0.840841           0.846577E-3       -0.928616           0.164659E-3       -0.998260
        0.850851           0.852888E-3       -0.928574           0.164904E-3       -0.998261
        0.860861           0.859309E-3       -0.928535           0.165151E-3       -0.998262
        0.870871           0.865818E-3       -0.928484           0.165397E-3       -0.998263
        0.880881           0.872458E-3       -0.928445           0.165645E-3       -0.998264
        0.890891           0.879202E-3       -0.928401           0.165892E-3       -0.998264
        0.900901           0.886047E-3       -0.928348           0.166141E-3       -0.998265
        0.910911           0.893029E-3       -0.928306           0.166390E-3       -0.998266
        0.920921           0.900123E-3       -0.928257           0.166639E-3       -0.998267
        0.930931           0.907345E-3       -0.928210           0.166889E-3       -0.998267
        0.940941           0.914695E-3       -0.928161           0.167140E-3       -0.998268
        0.950951           0.922164E-3       -0.928106           0.167391E-3       -0.998269
        0.960961           0.929798E-3       -0.928066           0.167642E-3       -0.998269
        0.970971           0.937532E-3       -0.928006           0.167895E-3       -0.998270
        0.980981           0.945422E-3       -0.927952           0.168148E-3       -0.998270
        0.990991           0.953459E-3       -0.927898           0.168401E-3       -0.998271
        1.001001           0.961644E-3       -0.927842           0.168655E-3       -0.998271
        1.011011           0.969992E-3       -0.927789           0.168910E-3       -0.998272
        1.021021           0.978496E-3       -0.927734           0.169165E-3       -0.998272
        1.031031           0.987151E-3       -0.927673           0.169421E-3       -0.998273
        1.041041           0.995987E-3       -0.927617           0.169677E-3       -0.998273
        1.051051           0.001005          -0.927558           0.169934E-3       -0.998274
        1.061061           0.001014          -0.927499           0.170191E-3       -0.998274
        1.071071           0.001024          -0.927432           0.170450E-3       -0.998275
        1.081081           0.001033          -0.927377           0.170708E-3       -0.998275
        1.091091           0.001043          -0.927311           0.170968E-3       -0.998276
        1.101101           0.001053          -0.927245           0.171228E-3       -0.998277
        1.111111           0.001063          -0.927181           0.171488E-3       -0.998276
        1.121121           0.001073          -0.927114           0.171749E-3       -0.998277
        1.131131           0.001084          -0.927046           0.172011E-3       -0.998278
        1.141141           0.001095          -0.926972           0.172273E-3       -0.998278
        1.151151           0.001106          -0.926899           0.172536E-3       -0.998279
        1.161161           0.001117          -0.926830           0.172800E-3       -0.998279
        1.171171           0.001128          -0.926755           0.173064E-3       -0.998280
        1.181181           0.001140          -0.926679           0.173329E-3       -0.998281
        1.191191           0.001152          -0.926603           0.173594E-3       -0.998280
        1.201201           0.001165          -0.926527           0.173860E-3       -0.998281
        1.211211           0.001177          -0.926449           0.174127E-3       -0.998281
        1.221221           0.001190          -0.926368           0.174394E-3       -0.998282
        1.231231           0.001203          -0.926286           0.174662E-3       -0.998282
        1.241241           0.001217          -0.926203           0.174930E-3       -0.998282
        1.251251           0.001230          -0.926128           0.175199E-3       -0.998283
        1.261261           0.001245          -0.926037           0.175469E-3       -0.998283
        1.271271           0.001259          -0.925948           0.175739E-3       -0.998284
        1.281281           0.001274          -0.925869           0.176010E-3       -0.998284
        1.291291           0.001289          -0.925773           0.176282E-3       -0.998284
        1.301301           0.001305          -0.925683           0.176554E-3       -0.998285
        1.311311           0.001321          -0.925589           0.176827E-3       -0.998285
        1.321321           0.001337          -0.925491           0.177101E-3       -0.998285
        1.331331           0.001354          -0.925402           0.177375E-3       -0.998285
        1.341341           0.001371          -0.925299           0.177650E-3       -0.998285
        1.351351           0.001389          -0.925198           0.177925E-3       -0.998285
        1.361361           0.001407          -0.925093           0.178201E-3       -0.998285
        1.371371           0.001425          -0.924994           0.178478E-3       -0.998286
        1.381381           0.001445          -0.924889           0.178756E-3       -0.998286
        1.391391           0.001464          -0.924780           0.179034E-3       -0.998287
        1.401401           0.001485          -0.924667           0.179313E-3       -0.998286
        1.411411           0.001505          -0.924561           0.179592E-3       -0.998286
        1.421421           0.001527          -0.924442           0.179872E-3       -0.998287
        1.431431           0.001549          -0.924324           0.180153E-3       -0.998287
        1.441441           0.001571          -0.924207           0.180435E-3       -0.998287
        1.451451           0.001595          -0.924085           0.180717E-3       -0.998287
        1.461461           0.001619          -0.923962           0.181000E-3       -0.998287
        1.471471           0.001644          -0.923836           0.181283E-3       -0.998287
        1.481481           0.001669          -0.923707           0.181567E-3       -0.998287
        1.491491           0.001695          -0.923576           0.181852E-3       -0.998288
        1.501501           0.001722          -0.923448           0.182137E-3       -0.998288
        1.511511           0.001750          -0.923307           0.182424E-3       -0.998288
        1.521521           0.001779          -0.923166           0.182711E-3       -0.998288
        1.531531           0.001809          -0.923029           0.182998E-3       -0.998288
        1.541541           0.001840          -0.922880           0.183286E-3       -0.998288
        1.551551           0.001872          -0.922736           0.183575E-3       -0.998289
        1.561561           0.001905          -0.922586           0.183865E-3       -0.998288
        1.571571           0.001939          -0.922427           0.184155E-3       -0.998288
        1.581581           0.001974          -0.922269           0.184446E-3       -0.998288
        1.591591           0.002010          -0.922113           0.184738E-3       -0.998289
        1.601601           0.002048          -0.921947           0.185030E-3       -0.998289
        1.611611           0.002087          -0.921779           0.185324E-3       -0.998289
        1.621622           0.002128          -0.921607           0.185618E-3       -0.998289
        1.631632           0.002170          -0.921432           0.185912E-3       -0.998289
        1.641642           0.002213          -0.921252           0.186208E-3       -0.998289
        1.651652           0.002259          -0.921062           0.186504E-3       -0.998289
        1.661662           0.002306          -0.920877           0.186800E-3       -0.998288
        1.671672           0.002355          -0.920685           0.187098E-3       -0.998288
        1.681682           0.002405          -0.920481           0.187396E-3       -0.998289
        1.691692           0.002458          -0.920281           0.187695E-3       -0.998288
        1.701702           0.002513          -0.920072           0.187995E-3       -0.998288
        1.711712           0.002571          -0.919859           0.188295E-3       -0.998289
        1.721722           0.002630          -0.919641           0.188596E-3       -0.998288
        1.731732           0.002693          -0.919412           0.188898E-3       -0.998288
        1.741742           0.002758          -0.919185           0.189201E-3       -0.998288
        1.751752           0.002825          -0.918949           0.189504E-3       -0.998288
        1.761762           0.002896          -0.918702           0.189808E-3       -0.998288
        1.771772           0.002970          -0.918456           0.190113E-3       -0.998288
        1.781782           0.003048          -0.918194           0.190419E-3       -0.998288
        1.791792           0.003129          -0.917935           0.190725E-3       -0.998288
        1.801802           0.003214          -0.917668           0.191033E-3       -0.998288
        1.811812           0.003304          -0.917383           0.191341E-3       -0.998288
        1.821822           0.003397          -0.917094           0.191649E-3       -0.998288
        1.831832           0.003496          -0.916798           0.191959E-3       -0.998288
        1.841842           0.003599          -0.916492           0.192269E-3       -0.998288
        1.851852           0.003708          -0.916183           0.192580E-3       -0.998288
        1.861862           0.003822          -0.915848           0.192892E-3       -0.998288
        1.871872           0.003943          -0.915516           0.193204E-3       -0.998287
        1.881882           0.004070          -0.915180           0.193518E-3       -0.998287
        1.891892           0.004205          -0.914814           0.193831E-3       -0.998287
        1.901902           0.004347          -0.914438           0.194146E-3       -0.998287
        1.911912           0.004497          -0.914066           0.194462E-3       -0.998287
        1.921922           0.004656          -0.913668           0.194778E-3       -0.998286
        1.931932           0.004825          -0.913266           0.195095E-3       -0.998287
        1.941942           0.005005          -0.912836           0.195413E-3       -0.998287
        1.951952           0.005195          -0.912401           0.195732E-3       -0.998286
        1.961962           0.005398          -0.911949           0.196051E-3       -0.998286
        1.971972           0.005614          -0.911475           0.196372E-3       -0.998286
        1.981982           0.005845          -0.910987           0.196692E-3       -0.998285
        1.991992           0.006091          -0.910478           0.197014E-3       -0.998285
        2.002002           0.006355          -0.909950           0.197337E-3       -0.998285
        2.012012           0.006637          -0.909407           0.197661E-3       -0.998285
        2.022022           0.006940          -0.908832           0.197985E-3       -0.998284
        2.032032           0.007265          -0.908238           0.198310E-3       -0.998284
        2.042042           0.007616          -0.907621           0.198636E-3       -0.998284
        2.052052           0.007994          -0.906975           0.198963E-3       -0.998283
        2.062062           0.008402          -0.906308           0.199291E-3       -0.998284
        2.072072           0.008844          -0.905600           0.199619E-3       -0.998283
        2.082082           0.009322          -0.904869           0.199948E-3       -0.998283
        2.092092           0.009843          -0.904110           0.200279E-3       -0.998283
        2.102102           0.010409          -0.903311           0.200610E-3       -0.998282
        2.112112           0.011026          -0.902478           0.200941E-3       -0.998282
        2.122122           0.011701          -0.901600           0.201274E-3       -0.998282
        2.132132           0.012440          -0.900697           0.201607E-3       -0.998281
        2.142142           0.013253          -0.899760           0.201942E-3       -0.998281
        2.152152           0.014145          -0.898751           0.202277E-3       -0.998281
        2.162162           0.015131          -0.897730           0.202613E-3       -0.998281
        2.172172           0.016222          -0.896663           0.202950E-3       -0.998280
        2.182182           0.017430          -0.895544           0.203288E-3       -0.998280
        2.192192           0.018773          -0.894396           0.203626E-3       -0.998279
        2.202202           0.020269          -0.893203           0.203966E-3       -0.998279
        2.212212           0.021940          -0.891986           0.204306E-3       -0.998279
        2.222222           0.023810          -0.890757           0.204647E-3       -0.998278
        2.232232           0.025906          -0.889505           0.204990E-3       -0.998278
        2.242242           0.028262          -0.888276           0.205333E-3       -0.998278
        2.252252           0.030909          -0.887075           0.205677E-3       -0.998277
        2.262262           0.033889          -0.885952           0.206021E-3       -0.998277
        2.272272           0.037240          -0.884953           0.206367E-3       -0.998277
        2.282282           0.041002          -0.884130           0.206714E-3       -0.998277
        2.292292           0.045212          -0.883578           0.207061E-3       -0.998276
        2.302302           0.049896          -0.883415           0.207410E-3       -0.998275
        2.312312           0.055059          -0.883752           0.207759E-3       -0.998276
        2.322322           0.060678          -0.884780           0.208109E-3       -0.998275
        2.332332           0.066675          -0.886657           0.208460E-3       -0.998274
        2.342342           0.072907          -0.889600           0.208812E-3       -0.998274
        2.352352           0.079142          -0.893779           0.209165E-3       -0.998273
        2.362362           0.085054          -0.899315           0.209519E-3       -0.998273
        2.372372           0.090236          -0.906217           0.209874E-3       -0.998272
        2.382382           0.094248          -0.914359           0.210230E-3       -0.998272
        2.392392           0.096692          -0.923419           0.210586E-3       -0.998271
        2.402402           0.097300          -0.932943           0.210944E-3       -0.998271
        2.412412           0.096000          -0.942359           0.211302E-3       -0.998271
        2.422422           0.092947          -0.951157           0.211662E-3       -0.998270
        2.432432           0.088464          -0.958898           0.212022E-3       -0.998270
        2.442442           0.082977          -0.965340           0.212384E-3       -0.998269
        2.452452           0.076919          -0.970394           0.212746E-3       -0.998269
        2.462462           0.070666          -0.974113           0.213109E-3       -0.998268
        2.472472           0.064511          -0.976647           0.213473E-3       -0.998267
        2.482482           0.058652          -0.978207           0.213838E-3       -0.998267
        2.492492           0.053204          -0.978956           0.214205E-3       -0.998267
        2.502502           0.048223          -0.979084           0.214572E-3       -0.998266
        2.512512           0.043722          -0.978761           0.214940E-3       -0.998266
        2.522522           0.039686          -0.978104           0.215309E-3       -0.998265
        2.532532           0.036084          -0.977200           0.215679E-3       -0.998265
        2.542542           0.032878          -0.976139           0.216050E-3       -0.998264
        2.552552           0.030028          -0.974972           0.216422E-3       -0.998264
        2.562562           0.027496          -0.973755           0.216795E-3       -0.998263
        2.572572           0.025243          -0.972509           0.217169E-3       -0.998263
        2.582582           0.023236          -0.971250           0.217544E-3       -0.998262
        2.592592           0.021446          -0.970013           0.217919E-3       -0.998261
        2.602602           0.019846          -0.968802           0.218297E-3       -0.998261
        2.612612           0.018411          -0.967613           0.218675E-3       -0.998260
        2.622622           0.017123          -0.966462           0.219054E-3       -0.998260
        2.632632           0.015963          -0.965353           0.219434E-3       -0.998259
        2.642642           0.014916          -0.964282           0.219815E-3       -0.998259
        2.652653           0.013969          -0.963255           0.220197E-3       -0.998258
        2.662663           0.013111          -0.962268           0.220580E-3       -0.998257
        2.672673           0.012330          -0.961318           0.220964E-3       -0.998257
        2.682683           0.011619          -0.960405           0.221349E-3       -0.998257
        2.692693           0.010970          -0.959543           0.221735E-3       -0.998255
        2.702703           0.010375          -0.958695           0.222123E-3       -0.998255
        2.712713           0.009831          -0.957892           0.222511E-3       -0.998255
        2.722723           0.009330          -0.957124           0.222900E-3       -0.998254
        2.732733           0.008869          -0.956382           0.223291E-3       -0.998253
        2.742743           0.008445          -0.955686           0.223682E-3       -0.998252
        2.752753           0.008052          -0.954991           0.224075E-3       -0.998252
        2.762763           0.007688          -0.954335           0.224468E-3       -0.998251
        2.772773           0.007352          -0.953723           0.224863E-3       -0.998251
        2.782783           0.007039          -0.953096           0.225259E-3       -0.998250
        2.792793           0.006748          -0.952519           0.225656E-3       -0.998249
        2.802803           0.006477          -0.951946           0.226054E-3       -0.998249
        2.812813           0.006224          -0.951408           0.226452E-3       -0.998248
        2.822823           0.005988          -0.950887           0.226852E-3       -0.998247
        2.832833           0.005767          -0.950373           0.227254E-3       -0.998247
        2.842843           0.005561          -0.949890           0.227656E-3       -0.998245
        2.852853           0.005367          -0.949414           0.228059E-3       -0.998245
        2.862863           0.005185          -0.948951           0.228464E-3       -0.998244
        2.872873           0.005014          -0.948514           0.228869E-3       -0.998243
        2.882883           0.004853          -0.948071           0.229276E-3       -0.998243
        2.892893           0.004702          -0.947656           0.229684E-3       -0.998242
        2.902903           0.004559          -0.947255           0.230093E-3       -0.998242
        2.912913           0.004424          -0.946856           0.230503E-3       -0.998241
        2.922923           0.004297          -0.946476           0.230914E-3       -0.998240
        2.932933           0.004177          -0.946093           0.231327E-3       -0.998239
        2.942943           0.004063          -0.945735           0.231740E-3       -0.998238
        2.952953           0.003955          -0.945386           0.232155E-3       -0.998238
        2.962963           0.003853          -0.945033           0.232571E-3       -0.998237
        2.972973           0.003756          -0.944703           0.232988E-3       -0.998236
        2.982983           0.003664          -0.944377           0.233406E-3       -0.998235
        2.992993           0.003577          -0.944052           0.233825E-3       -0.998234
        3.003003           0.003494          -0.943750           0.234246E-3       -0.998233
        3.013013           0.003415          -0.943433           0.234668E-3       -0.998233
        3.023023           0.003340          -0.943133           0.235090E-3       -0.998232
        3.033033           0.003269          -0.942856           0.235515E-3       -0.998231
        3.043043           0.003200          -0.942556           0.235940E-3       -0.998231
        3.053053           0.003135          -0.942281           0.236366E-3       -0.998229
        3.063063           0.003074          -0.942015           0.236794E-3       -0.998229
        3.073073           0.003014          -0.941735           0.237223E-3       -0.998228
        3.083083           0.002958          -0.941477           0.237653E-3       -0.998227
        3.093093           0.002904          -0.941228           0.238084E-3       -0.998226
        3.103103           0.002852          -0.940962           0.238517E-3       -0.998226
        3.113113           0.002803          -0.940720           0.238950E-3       -0.998224
        3.123123           0.002756          -0.940468           0.239385E-3       -0.998223
        3.133133           0.002711          -0.940240           0.239821E-3       -0.998223
        3.143143           0.002668          -0.939997           0.240259E-3       -0.998222
        3.153153           0.002626          -0.939761           0.240697E-3       -0.998221
        3.163163           0.002587          -0.939540           0.241137E-3       -0.998220
        3.173173           0.002549          -0.939312           0.241578E-3       -0.998219
        3.183183           0.002512          -0.939089           0.242021E-3       -0.998218
        3.193193           0.002477          -0.938878           0.242465E-3       -0.998217
        3.203203           0.002444          -0.938655           0.242910E-3       -0.998216
        3.213213           0.002412          -0.938448           0.243356E-3       -0.998215
        3.223223           0.002381          -0.938235           0.243803E-3       -0.998214
        3.233233           0.002351          -0.938026           0.244252E-3       -0.998213
        3.243243           0.002323          -0.937824           0.244703E-3       -0.998213
        3.253253           0.002295          -0.937619           0.245154E-3       -0.998211
        3.263263           0.002269          -0.937422           0.245607E-3       -0.998210
        3.273273           0.002244          -0.937230           0.246061E-3       -0.998210
        3.283283           0.002220          -0.937031           0.246516E-3       -0.998209
        3.293293           0.002197          -0.936846           0.246973E-3       -0.998207
        3.303303           0.002174          -0.936643           0.247431E-3       -0.998206
        3.313313           0.002153          -0.936460           0.247890E-3       -0.998206
        3.323323           0.002132          -0.936275           0.248351E-3       -0.998204
        3.333333           0.002112          -0.936083           0.248813E-3       -0.998203
        3.343343           0.002093          -0.935906           0.249277E-3       -0.998203
        3.353353           0.002075          -0.935728           0.249741E-3       -0.998201
        3.363363           0.002057          -0.935539           0.250207E-3       -0.998200
        3.373373           0.002040          -0.935370           0.250675E-3       -0.998199
        3.383383           0.002023          -0.935194           0.251143E-3       -0.998198
        3.393393           0.002008          -0.935023           0.251614E-3       -0.998198
        3.403403           0.001993          -0.934840           0.252085E-3       -0.998196
        3.413413           0.001978          -0.934677           0.252558E-3       -0.998195
        3.423423           0.001964          -0.934507           0.253033E-3       -0.998195
        3.433433           0.001951          -0.934330           0.253508E-3       -0.998193
        3.443443           0.001938          -0.934167           0.253986E-3       -0.998192
        3.453453           0.001925          -0.934003           0.254465E-3       -0.998191
        3.463463           0.001913          -0.933832           0.254945E-3       -0.998190
        3.473473           0.001902          -0.933670           0.255427E-3       -0.998189
        3.483483           0.001891          -0.933508           0.255910E-3       -0.998188
        3.493493           0.001880          -0.933341           0.256394E-3       -0.998187
        3.503503           0.001870          -0.933184           0.256879E-3       -0.998186
        3.513513           0.001860          -0.933017           0.257366E-3       -0.998185
        3.523524           0.001851          -0.932864           0.257855E-3       -0.998183
        3.533533           0.001842          -0.932706           0.258345E-3       -0.998182
        3.543543           0.001834          -0.932540           0.258836E-3       -0.998181
        3.553553           0.001825          -0.932390           0.259329E-3       -0.998180
        3.563564           0.001817          -0.932227           0.259823E-3       -0.998179
        3.573573           0.001810          -0.932072           0.260319E-3       -0.998178
        3.583583           0.001803          -0.931927           0.260816E-3       -0.998176
        3.593593           0.001796          -0.931755           0.261315E-3       -0.998176
        3.603603           0.001789          -0.931611           0.261815E-3       -0.998175
        3.613613           0.001783          -0.931465           0.262317E-3       -0.998173
        3.623623           0.001777          -0.931300           0.262820E-3       -0.998172
        3.633634           0.001771          -0.931157           0.263325E-3       -0.998170
        3.643643           0.001766          -0.931007           0.263831E-3       -0.998169
        3.653653           0.001761          -0.930846           0.264339E-3       -0.998168
        3.663663           0.001756          -0.930704           0.264849E-3       -0.998167
        3.673674           0.001751          -0.930540           0.265360E-3       -0.998166
        3.683683           0.001747          -0.930391           0.265872E-3       -0.998165
        3.693693           0.001743          -0.930243           0.266386E-3       -0.998163
        3.703704           0.001739          -0.930095           0.266902E-3       -0.998162
        3.713714           0.001735          -0.929945           0.267419E-3       -0.998161
        3.723723           0.001732          -0.929792           0.267938E-3       -0.998159
        3.733733           0.001728          -0.929648           0.268458E-3       -0.998158
        3.743744           0.001725          -0.929496           0.268980E-3       -0.998157
        3.753754           0.001722          -0.929351           0.269504E-3       -0.998156
        3.763763           0.001720          -0.929199           0.270029E-3       -0.998154
        3.773773           0.001717          -0.929052           0.270555E-3       -0.998153
        3.783784           0.001715          -0.928908           0.271084E-3       -0.998151
        3.793794           0.001713          -0.928759           0.271614E-3       -0.998150
        3.803803           0.001711          -0.928616           0.272146E-3       -0.998149
        3.813814           0.001710          -0.928464           0.272679E-3       -0.998148
        3.823824           0.001708          -0.928322           0.273214E-3       -0.998146
        3.833834           0.001707          -0.928172           0.273751E-3       -0.998145
        3.843843           0.001706          -0.928022           0.274289E-3       -0.998144
        3.853854           0.001705          -0.927884           0.274829E-3       -0.998142
        3.863864           0.001704          -0.927730           0.275370E-3       -0.998141
        3.873873           0.001703          -0.927580           0.275914E-3       -0.998140
        3.883883           0.001703          -0.927439           0.276459E-3       -0.998138
        3.893894           0.001702          -0.927294           0.277005E-3       -0.998137
        3.903904           0.001702          -0.927145           0.277554E-3       -0.998136
        3.913913           0.001702          -0.926994           0.278104E-3       -0.998134
        3.923924           0.001702          -0.926854           0.278656E-3       -0.998133
        3.933934           0.001702          -0.926700           0.279210E-3       -0.998131
        3.943944           0.001703          -0.926557           0.279765E-3       -0.998130
        3.953954           0.001703          -0.926413           0.280322E-3       -0.998128
        3.963964           0.001704          -0.926256           0.280881E-3       -0.998127
        3.973974           0.001705          -0.926124           0.281442E-3       -0.998126
        3.983984           0.001706          -0.925961           0.282004E-3       -0.998124
        3.993994           0.001707          -0.925820           0.282568E-3       -0.998123
        4.004004           0.001708          -0.925687           0.283134E-3       -0.998121
        4.014014           0.001709          -0.925522           0.283702E-3       -0.998120
        4.024024           0.001711          -0.925385           0.284272E-3       -0.998118
        4.034034           0.001712          -0.925248           0.284843E-3       -0.998117
        4.044044           0.001714          -0.925080           0.285416E-3       -0.998115
        4.054054           0.001716          -0.924941           0.285991E-3       -0.998114
        4.064064           0.001718          -0.924787           0.286568E-3       -0.998112
        4.074074           0.001720          -0.924642           0.287147E-3       -0.998111
        4.084084           0.001722          -0.924500           0.287727E-3       -0.998109
        4.094094           0.001724          -0.924341           0.288310E-3       -0.998108
        4.104104           0.001727          -0.924196           0.288894E-3       -0.998106
        4.114114           0.001729          -0.924046           0.289481E-3       -0.998105
        4.124124           0.001732          -0.923892           0.290069E-3       -0.998103
        4.134134           0.001735          -0.923744           0.290659E-3       -0.998102
        4.144144           0.001738          -0.923596           0.291251E-3       -0.998100
        4.154154           0.001740          -0.923441           0.291844E-3       -0.998098
        4.164164           0.001744          -0.923292           0.292440E-3       -0.998097
        4.174174           0.001747          -0.923136           0.293038E-3       -0.998095
        4.184184           0.001750          -0.922984           0.293638E-3       -0.998093
        4.194194           0.001753          -0.922830           0.294239E-3       -0.998092
        4.204204           0.001757          -0.922678           0.294843E-3       -0.998090
        4.214214           0.001760          -0.922526           0.295448E-3       -0.998088
        4.224224           0.001764          -0.922379           0.296056E-3       -0.998087
        4.234234           0.001768          -0.922220           0.296665E-3       -0.998085
        4.244244           0.001772          -0.922061           0.297277E-3       -0.998083
        4.254254           0.001776          -0.921911           0.297890E-3       -0.998081
        4.264264           0.001780          -0.921760           0.298506E-3       -0.998080
        4.274274           0.001784          -0.921597           0.299124E-3       -0.998078
        4.284284           0.001788          -0.921447           0.299743E-3       -0.998076
        4.294294           0.001793          -0.921285           0.300365E-3       -0.998075
        4.304304           0.001797          -0.921135           0.300989E-3       -0.998073
        4.314314           0.001802          -0.920978           0.301615E-3       -0.998071
        4.324324           0.001806          -0.920811           0.302243E-3       -0.998070
        4.334334           0.001811          -0.920660           0.302873E-3       -0.998068
        4.344344           0.001816          -0.920506           0.303505E-3       -0.998066
        4.354354           0.001821          -0.920336           0.304139E-3       -0.998064
        4.364364           0.001826          -0.920184           0.304775E-3       -0.998062
        4.374374           0.001831          -0.920024           0.305414E-3       -0.998061
        4.384384           0.001837          -0.919852           0.306054E-3       -0.998059
        4.394394           0.001842          -0.919703           0.306697E-3       -0.998057
        4.404404           0.001847          -0.919532           0.307342E-3       -0.998055
        4.414414           0.001853          -0.919367           0.307989E-3       -0.998053
        4.424424           0.001859          -0.919212           0.308639E-3       -0.998051
        4.434434           0.001864          -0.919044           0.309290E-3       -0.998049
        4.444444           0.001870          -0.918881           0.309944E-3       -0.998048
        4.454454           0.001876          -0.918712           0.310600E-3       -0.998046
        4.464464           0.001882          -0.918549           0.311258E-3       -0.998044
        4.474474           0.001888          -0.918382           0.311918E-3       -0.998042
        4.484484           0.001894          -0.918212           0.312581E-3       -0.998040
        4.494494           0.001901          -0.918053           0.313246E-3       -0.998038
        4.504504           0.001907          -0.917876           0.313913E-3       -0.998036
        4.514514           0.001914          -0.917712           0.314583E-3       -0.998035
        4.524524           0.001920          -0.917541           0.315255E-3       -0.998033
        4.534534           0.001927          -0.917368           0.315929E-3       -0.998031
        4.544544           0.001934          -0.917201           0.316605E-3       -0.998029
        4.554554           0.001941          -0.917029           0.317284E-3       -0.998027
        4.564565           0.001947          -0.916852           0.317965E-3       -0.998025
        4.574574           0.001955          -0.916685           0.318648E-3       -0.998023
        4.584584           0.001962          -0.916511           0.319334E-3       -0.998021
        4.594594           0.001969          -0.916340           0.320023E-3       -0.998019
        4.604605           0.001976          -0.916162           0.320713E-3       -0.998017
        4.614614           0.001984          -0.915988           0.321406E-3       -0.998015
        4.624624           0.001991          -0.915809           0.322102E-3       -0.998013
        4.634634           0.001999          -0.915630           0.322800E-3       -0.998011
        4.644644           0.002007          -0.915450           0.323500E-3       -0.998009
        4.654655           0.002015          -0.915269           0.324203E-3       -0.998007
        4.664664           0.002023          -0.915093           0.324908E-3       -0.998004
        4.674675           0.002031          -0.914908           0.325616E-3       -0.998002
        4.684684           0.002039          -0.914722           0.326326E-3       -0.998000
        4.694695           0.002047          -0.914547           0.327039E-3       -0.997998
        4.704704           0.002055          -0.914356           0.327754E-3       -0.997996
        4.714715           0.002064          -0.914180           0.328472E-3       -0.997994
        4.724724           0.002072          -0.913993           0.329192E-3       -0.997991
        4.734735           0.002081          -0.913797           0.329915E-3       -0.997989
        4.744744           0.002090          -0.913620           0.330641E-3       -0.997987
        4.754755           0.002099          -0.913422           0.331369E-3       -0.997985
        4.764764           0.002108          -0.913232           0.332099E-3       -0.997983
        4.774775           0.002117          -0.913051           0.332833E-3       -0.997981
        4.784785           0.002126          -0.912859           0.333569E-3       -0.997978
        4.794795           0.002135          -0.912669           0.334307E-3       -0.997976
        4.804804           0.002145          -0.912476           0.335048E-3       -0.997974
        4.814815           0.002154          -0.912282           0.335792E-3       -0.997971
        4.824825           0.002164          -0.912090           0.336539E-3       -0.997969
        4.834835           0.002173          -0.911895           0.337289E-3       -0.997967
        4.844844           0.002183          -0.911697           0.338040E-3       -0.997965
        4.854855           0.002193          -0.911500           0.338795E-3       -0.997962
        4.864865           0.002203          -0.911304           0.339552E-3       -0.997960
        4.874875           0.002213          -0.911101           0.340313E-3       -0.997957
        4.884884           0.002224          -0.910901           0.341076E-3       -0.997955
        4.894895           0.002234          -0.910702           0.341841E-3       -0.997952
        4.904905           0.002245          -0.910496           0.342610E-3       -0.997950
        4.914915           0.002255          -0.910292           0.343382E-3       -0.997948
        4.924924           0.002266          -0.910096           0.344156E-3       -0.997945
        4.934935           0.002277          -0.909881           0.344933E-3       -0.997943
        4.944945           0.002288          -0.909679           0.345713E-3       -0.997940
        4.954955           0.002299          -0.909473           0.346497E-3       -0.997938
        4.964964           0.002310          -0.909256           0.347282E-3       -0.997936
        4.974975           0.002322          -0.909054           0.348071E-3       -0.997933
        4.984985           0.002333          -0.908835           0.348863E-3       -0.997931
        4.994995           0.002345          -0.908624           0.349658E-3       -0.997929
        5.005005           0.002357          -0.908418           0.350455E-3       -0.997926
        5.015015           0.002368          -0.908195           0.351256E-3       -0.997924
        5.025025           0.002380          -0.907985           0.352060E-3       -0.997921
        5.035035           0.002393          -0.907767           0.352867E-3       -0.997919
        5.045045           0.002405          -0.907541           0.353677E-3       -0.997917
        5.055055           0.002417          -0.907330           0.354490E-3       -0.997914
        5.065065           0.002430          -0.907099           0.355306E-3       -0.997912
        5.075075           0.002442          -0.906879           0.356125E-3       -0.997910
        5.085085           0.002455          -0.906664           0.356947E-3       -0.997907
        5.095095           0.002468          -0.906430           0.357772E-3       -0.997905
        5.105105           0.002481          -0.906208           0.358601E-3       -0.997902
        5.115115           0.002495          -0.905985           0.359432E-3       -0.997900
        5.125125           0.002508          -0.905746           0.360267E-3       -0.997897
        5.135135           0.002521          -0.905519           0.361105E-3       -0.997894
        5.145144           0.002535          -0.905291           0.361946E-3       -0.997892
        5.155155           0.002549          -0.905053           0.362790E-3       -0.997889
        5.165165           0.002563          -0.904822           0.363638E-3       -0.997886
        5.175175           0.002577          -0.904586           0.364489E-3       -0.997883
        5.185184           0.002591          -0.904347           0.365343E-3       -0.997880
        5.195195           0.002606          -0.904112           0.366200E-3       -0.997877
        5.205205           0.002620          -0.903871           0.367061E-3       -0.997875
        5.215215           0.002635          -0.903628           0.367925E-3       -0.997872
        5.225225           0.002650          -0.903387           0.368792E-3       -0.997869
        5.235235           0.002665          -0.903140           0.369663E-3       -0.997866
        5.245245           0.002680          -0.902890           0.370538E-3       -0.997863
        5.255255           0.002696          -0.902648           0.371415E-3       -0.997860
        5.265265           0.002711          -0.902395           0.372297E-3       -0.997857
        5.275275           0.002727          -0.902141           0.373181E-3       -0.997854
        5.285285           0.002743          -0.901894           0.374070E-3       -0.997851
        5.295295           0.002759          -0.901637           0.374962E-3       -0.997849
        5.305305           0.002775          -0.901379           0.375857E-3       -0.997845
        5.315315           0.002792          -0.901124           0.376756E-3       -0.997842
        5.325325           0.002808          -0.900865           0.377659E-3       -0.997840
        5.335335           0.002825          -0.900609           0.378565E-3       -0.997837
        5.345345           0.002842          -0.900342           0.379475E-3       -0.997833
        5.355355           0.002859          -0.900082           0.380389E-3       -0.997831
        5.365365           0.002877          -0.899816           0.381306E-3       -0.997828
        5.375375           0.002894          -0.899542           0.382227E-3       -0.997825
        5.385385           0.002912          -0.899278           0.383151E-3       -0.997822
        5.395395           0.002930          -0.899008           0.384079E-3       -0.997818
        5.405405           0.002948          -0.898735           0.385011E-3       -0.997815
        5.415415           0.002966          -0.898460           0.385947E-3       -0.997813
        5.425425           0.002985          -0.898187           0.386887E-3       -0.997809
        5.435435           0.003004          -0.897909           0.387830E-3       -0.997806
        5.445445           0.003023          -0.897627           0.388777E-3       -0.997803
        5.455455           0.003042          -0.897348           0.389728E-3       -0.997799
        5.465465           0.003061          -0.897061           0.390683E-3       -0.997797
        5.475475           0.003081          -0.896776           0.391642E-3       -0.997793
        5.485485           0.003101          -0.896493           0.392605E-3       -0.997790
        5.495495           0.003121          -0.896197           0.393572E-3       -0.997787
        5.505505           0.003142          -0.895910           0.394543E-3       -0.997783
        5.515515           0.003162          -0.895619           0.395518E-3       -0.997780
        5.525526           0.003183          -0.895320           0.396497E-3       -0.997777
        5.535535           0.003204          -0.895022           0.397480E-3       -0.997773
        5.545545           0.003225          -0.894724           0.398468E-3       -0.997770
        5.555555           0.003247          -0.894421           0.399459E-3       -0.997767
        5.565566           0.003269          -0.894118           0.400455E-3       -0.997764
        5.575575           0.003291          -0.893812           0.401455E-3       -0.997760
        5.585585           0.003313          -0.893503           0.402459E-3       -0.997757
        5.595595           0.003336          -0.893194           0.403467E-3       -0.997753
        5.605606           0.003359          -0.892878           0.404480E-3       -0.997750
        5.615615           0.003382          -0.892564           0.405497E-3       -0.997746
        5.625625           0.003406          -0.892250           0.406518E-3       -0.997743
        5.635635           0.003429          -0.891923           0.407544E-3       -0.997740
        5.645645           0.003453          -0.891603           0.408574E-3       -0.997736
        5.655655           0.003478          -0.891277           0.409608E-3       -0.997732
        5.665665           0.003502          -0.890946           0.410648E-3       -0.997729
        5.675675           0.003527          -0.890620           0.411691E-3       -0.997725
        5.685685           0.003552          -0.890281           0.412739E-3       -0.997721
        5.695695           0.003578          -0.889945           0.413792E-3       -0.997718
        5.705705           0.003604          -0.889610           0.414849E-3       -0.997714
        5.715715           0.003630          -0.889262           0.415911E-3       -0.997711
        5.725725           0.003657          -0.888922           0.416977E-3       -0.997707
        5.735735           0.003683          -0.888574           0.418048E-3       -0.997703
        5.745746           0.003711          -0.888225           0.419124E-3       -0.997699
        5.755755           0.003738          -0.887876           0.420205E-3       -0.997695
        5.765765           0.003766          -0.887519           0.421290E-3       -0.997692
        5.775775           0.003794          -0.887163           0.422380E-3       -0.997688
        5.785786           0.003823          -0.886806           0.423476E-3       -0.997684
        5.795795           0.003852          -0.886440           0.424576E-3       -0.997680
        5.805805           0.003882          -0.886078           0.425681E-3       -0.997676
        5.815815           0.003911          -0.885711           0.426791E-3       -0.997672
        5.825826           0.003942          -0.885340           0.427905E-3       -0.997668
        5.835835           0.003972          -0.884967           0.429026E-3       -0.997665
        5.845845           0.004003          -0.884591           0.430151E-3       -0.997661
        5.855855           0.004035          -0.884210           0.431281E-3       -0.997657
        5.865866           0.004067          -0.883829           0.432416E-3       -0.997653
        5.875876           0.004099          -0.883440           0.433556E-3       -0.997649
        5.885885           0.004132          -0.883052           0.434702E-3       -0.997645
        5.895895           0.004165          -0.882659           0.435853E-3       -0.997640
        5.905906           0.004199          -0.882263           0.437009E-3       -0.997636
        5.915915           0.004233          -0.881860           0.438171E-3       -0.997633
        5.925925           0.004268          -0.881461           0.439338E-3       -0.997628
        5.935935           0.004303          -0.881052           0.440510E-3       -0.997624
        5.945946           0.004339          -0.880644           0.441689E-3       -0.997620
        5.955956           0.004375          -0.880229           0.442872E-3       -0.997616
        5.965966           0.004412          -0.879811           0.444061E-3       -0.997612
        5.975976           0.004449          -0.879390           0.445256E-3       -0.997607
        5.985986           0.004487          -0.878966           0.446455E-3       -0.997603
        5.995996           0.004526          -0.878534           0.447662E-3       -0.997598
        6.006006           0.004565          -0.878105           0.448873E-3       -0.997594
        6.016016           0.004604          -0.877667           0.450091E-3       -0.997590
        6.026026           0.004645          -0.877228           0.451314E-3       -0.997585
        6.036036           0.004686          -0.876780           0.452543E-3       -0.997581
        6.046046           0.004727          -0.876331           0.453777E-3       -0.997576
        6.056056           0.004770          -0.875881           0.455018E-3       -0.997572
        6.066066           0.004812          -0.875421           0.456265E-3       -0.997567
        6.076076           0.004856          -0.874960           0.457517E-3       -0.997562
        6.086086           0.004901          -0.874496           0.458776E-3       -0.997558
        6.096096           0.004946          -0.874024           0.460041E-3       -0.997553
        6.106106           0.004992          -0.873552           0.461312E-3       -0.997548
        6.116116           0.005038          -0.873067           0.462589E-3       -0.997543
        6.126126           0.005086          -0.872587           0.463872E-3       -0.997539
        6.136136           0.005134          -0.872100           0.465162E-3       -0.997534
        6.146146           0.005184          -0.871604           0.466458E-3       -0.997529
        6.156156           0.005234          -0.871107           0.467761E-3       -0.997524
        6.166166           0.005285          -0.870603           0.469070E-3       -0.997520
        6.176176           0.005337          -0.870098           0.470386E-3       -0.997515
        6.186186           0.005390          -0.869584           0.471709E-3       -0.997510
        6.196196           0.005444          -0.869061           0.473038E-3       -0.997505
        6.206206           0.005499          -0.868540           0.474373E-3       -0.997500
        6.216216           0.005556          -0.868005           0.475716E-3       -0.997495
        6.226226           0.005613          -0.867469           0.477065E-3       -0.997490
        6.236236           0.005672          -0.866930           0.478421E-3       -0.997485
        6.246246           0.005732          -0.866379           0.479784E-3       -0.997480
        6.256256           0.005793          -0.865831           0.481154E-3       -0.997474
        6.266266           0.005856          -0.865271           0.482531E-3       -0.997470
        6.276276           0.005920          -0.864707           0.483916E-3       -0.997465
        6.286286           0.005985          -0.864140           0.485307E-3       -0.997459
        6.296296           0.006052          -0.863562           0.486708E-3       -0.997454
        6.306306           0.006121          -0.862983           0.488114E-3       -0.997449
        6.316316           0.006191          -0.862392           0.489527E-3       -0.997444
        6.326326           0.006263          -0.861800           0.490948E-3       -0.997438
        6.336336           0.006338          -0.861199           0.492376E-3       -0.997432
        6.346346           0.006414          -0.860590           0.493812E-3       -0.997428
        6.356356           0.006492          -0.859974           0.495255E-3       -0.997422
        6.366366           0.006572          -0.859351           0.496706E-3       -0.997416
        6.376376           0.006655          -0.858722           0.498165E-3       -0.997411
        6.386386           0.006740          -0.858082           0.499632E-3       -0.997406
        6.396396           0.006828          -0.857437           0.501105E-3       -0.997399
        6.406406           0.006919          -0.856779           0.502588E-3       -0.997394
        6.416416           0.007013          -0.856118           0.504078E-3       -0.997389
        6.426426           0.007110          -0.855446           0.505577E-3       -0.997382
        6.436436           0.007211          -0.854761           0.507084E-3       -0.997377
        6.446446           0.007315          -0.854071           0.508599E-3       -0.997371
        6.456456           0.007424          -0.853371           0.510122E-3       -0.997365
        6.466466           0.007536          -0.852656           0.511654E-3       -0.997359
        6.476476           0.007654          -0.851937           0.513195E-3       -0.997354
        6.486486           0.007777          -0.851201           0.514743E-3       -0.997347
        6.496496           0.007905          -0.850461           0.516301E-3       -0.997341
        6.506506           0.008040          -0.849709           0.517867E-3       -0.997335
        6.516516           0.008181          -0.848941           0.519442E-3       -0.997329
        6.526526           0.008330          -0.848163           0.521027E-3       -0.997323
        6.536536           0.008487          -0.847379           0.522619E-3       -0.997317
        6.546546           0.008653          -0.846571           0.524221E-3       -0.997311
        6.556556           0.008829          -0.845764           0.525833E-3       -0.997305
        6.566566           0.009017          -0.844935           0.527453E-3       -0.997298
        6.576576           0.009217          -0.844097           0.529083E-3       -0.997292
        6.586586           0.009431          -0.843250           0.530722E-3       -0.997285
        6.596596           0.009661          -0.842385           0.532371E-3       -0.997279
        6.606606           0.009909          -0.841506           0.534030E-3       -0.997273
        6.616616           0.010177          -0.840624           0.535698E-3       -0.997265
        6.626626           0.010468          -0.839718           0.537376E-3       -0.997259
        6.636636           0.010785          -0.838807           0.539064E-3       -0.997253
        6.646646           0.011131          -0.837891           0.540762E-3       -0.997246
        6.656656           0.011510          -0.836958           0.542471E-3       -0.997239
        6.666666           0.011926          -0.836024           0.544190E-3       -0.997232
        6.676676           0.012385          -0.835097           0.545919E-3       -0.997226
        6.686686           0.012890          -0.834168           0.547658E-3       -0.997219
        6.696696           0.013447          -0.833252           0.549407E-3       -0.997212
        6.706707           0.014059          -0.832366           0.551168E-3       -0.997205
        6.716716           0.014731          -0.831511           0.552940E-3       -0.997198
        6.726726           0.015461          -0.830710           0.554723E-3       -0.997191
        6.736736           0.016246          -0.829990           0.556516E-3       -0.997184
        6.746747           0.017077          -0.829360           0.558320E-3       -0.997176
        6.756756           0.017933          -0.828852           0.560136E-3       -0.997169
        6.766766           0.018787          -0.828485           0.561962E-3       -0.997162
        6.776776           0.019596          -0.828265           0.563800E-3       -0.997154
        6.786787           0.020313          -0.828198           0.565650E-3       -0.997147
        6.796796           0.020884          -0.828258           0.567511E-3       -0.997139
        6.806807           0.021264          -0.828416           0.569385E-3       -0.997132
        6.816816           0.021425          -0.828597           0.571270E-3       -0.997124
        6.826826           0.021362          -0.828745           0.573167E-3       -0.997116
        6.836837           0.021098          -0.828796           0.575077E-3       -0.997108
        6.846846           0.020674          -0.828700           0.576999E-3       -0.997100
        6.856857           0.020142          -0.828435           0.578934E-3       -0.997092
        6.866867           0.019552          -0.827992           0.580882E-3       -0.997084
        6.876876           0.018950          -0.827374           0.582842E-3       -0.997077
        6.886887           0.018366          -0.826609           0.584815E-3       -0.997069
        6.896896           0.017825          -0.825719           0.586802E-3       -0.997060
        6.906906           0.017337          -0.824718           0.588801E-3       -0.997052
        6.916917           0.016909          -0.823632           0.590815E-3       -0.997044
        6.926927           0.016541          -0.822483           0.592841E-3       -0.997036
        6.936936           0.016232          -0.821277           0.594883E-3       -0.997028
        6.946947           0.015977          -0.820026           0.596937E-3       -0.997019
        6.956956           0.015773          -0.818747           0.599005E-3       -0.997010
        6.966967           0.015614          -0.817433           0.601089E-3       -0.997002
        6.976976           0.015496          -0.816096           0.603186E-3       -0.996993
        6.986986           0.015415          -0.814748           0.605298E-3       -0.996985
        6.996997           0.015367          -0.813370           0.607426E-3       -0.996976
        7.007007           0.015349          -0.811980           0.609568E-3       -0.996967
        7.017016           0.015357          -0.810582           0.611725E-3       -0.996958
        7.027027           0.015389          -0.809153           0.613897E-3       -0.996949
        7.037036           0.015444          -0.807717           0.616084E-3       -0.996940
        7.047047           0.015518          -0.806270           0.618288E-3       -0.996931
        7.057057           0.015611          -0.804797           0.620508E-3       -0.996922
        7.067066           0.015721          -0.803319           0.622743E-3       -0.996912
        7.077077           0.015846          -0.801815           0.624995E-3       -0.996903
        7.087087           0.015987          -0.800298           0.627263E-3       -0.996893
        7.097096           0.016142          -0.798766           0.629548E-3       -0.996884
        7.107107           0.016310          -0.797206           0.631850E-3       -0.996874
        7.117116           0.016491          -0.795633           0.634169E-3       -0.996864
        7.127127           0.016685          -0.794040           0.636506E-3       -0.996855
        7.137137           0.016891          -0.792423           0.638861E-3       -0.996845
        7.147147           0.017109          -0.790787           0.641234E-3       -0.996835
        7.157157           0.017338          -0.789123           0.643624E-3       -0.996825
        7.167167           0.017579          -0.787438           0.646034E-3       -0.996815
        7.177176           0.017831          -0.785726           0.648461E-3       -0.996805
        7.187187           0.018095          -0.783991           0.650908E-3       -0.996794
        7.197196           0.018370          -0.782225           0.653375E-3       -0.996784
        7.207206           0.018658          -0.780434           0.655860E-3       -0.996773
        7.217217           0.018956          -0.778612           0.658365E-3       -0.996763
        7.227227           0.019267          -0.776762           0.660889E-3       -0.996752
        7.237237           0.019590          -0.774881           0.663433E-3       -0.996741
        7.247247           0.019926          -0.772965           0.665998E-3       -0.996730
        7.257257           0.020274          -0.771020           0.668584E-3       -0.996719
        7.267267           0.020636          -0.769041           0.671192E-3       -0.996708
        7.277277           0.021011          -0.767025           0.673821E-3       -0.996696
        7.287286           0.021400          -0.764972           0.676472E-3       -0.996685
        7.297297           0.021803          -0.762878           0.679144E-3       -0.996673
        7.307307           0.022222          -0.760750           0.681839E-3       -0.996662
        7.317317           0.022655          -0.758574           0.684557E-3       -0.996650
        7.327327           0.023106          -0.756365           0.687298E-3       -0.996638
        7.337337           0.023573          -0.754110           0.690063E-3       -0.996626
        7.347347           0.024057          -0.751800           0.692851E-3       -0.996614
        7.357357           0.024560          -0.749456           0.695663E-3       -0.996602
        7.367367           0.025082          -0.747058           0.698500E-3       -0.996590
        7.377377           0.025624          -0.744608           0.701362E-3       -0.996578
        7.387387           0.026187          -0.742113           0.704249E-3       -0.996566
        7.397398           0.026772          -0.739553           0.707162E-3       -0.996553
        7.407407           0.027380          -0.736948           0.710101E-3       -0.996541
        7.417417           0.028012          -0.734282           0.713067E-3       -0.996528
        7.427427           0.028670          -0.731551           0.716059E-3       -0.996515
        7.437437           0.029355          -0.728765           0.719079E-3       -0.996502
        7.447447           0.030069          -0.725910           0.722127E-3       -0.996489
        7.457457           0.030812          -0.722992           0.725203E-3       -0.996476
        7.467467           0.031587          -0.720002           0.728306E-3       -0.996462
        7.477477           0.032396          -0.716940           0.731439E-3       -0.996448
        7.487487           0.033241          -0.713805           0.734603E-3       -0.996434
        7.497497           0.034123          -0.710586           0.737795E-3       -0.996420
        7.507507           0.035046          -0.707289           0.741019E-3       -0.996406
        7.517517           0.036012          -0.703911           0.744274E-3       -0.996392
        7.527527           0.037023          -0.700438           0.747561E-3       -0.996378
        7.537537           0.038083          -0.696875           0.750881E-3       -0.996363
        7.547547           0.039195          -0.693216           0.754233E-3       -0.996349
        7.557557           0.040362          -0.689456           0.757619E-3       -0.996334
        7.567567           0.041589          -0.685590           0.761037E-3       -0.996318
        7.577577           0.042880          -0.681619           0.764492E-3       -0.996304
        7.587587           0.044241          -0.677532           0.767981E-3       -0.996288
        7.597597           0.045674          -0.673323           0.771506E-3       -0.996272
        7.607607           0.047189          -0.668992           0.775068E-3       -0.996257
        7.617618           0.048789          -0.664532           0.778667E-3       -0.996241
        7.627627           0.050483          -0.659931           0.782303E-3       -0.996225
        7.637637           0.052279          -0.655193           0.785978E-3       -0.996209
        7.647647           0.054186          -0.650301           0.789693E-3       -0.996193
        7.657657           0.056212          -0.645254           0.793447E-3       -0.996176
        7.667667           0.058370          -0.640046           0.797243E-3       -0.996159
        7.677677           0.060672          -0.634665           0.801080E-3       -0.996142
        7.687687           0.063131          -0.629104           0.804959E-3       -0.996125
        7.697698           0.065764          -0.623360           0.808880E-3       -0.996108
        7.707707           0.068588          -0.617419           0.812847E-3       -0.996090
        7.717717           0.071622          -0.611276           0.816858E-3       -0.996073
        7.727727           0.074892          -0.604924           0.820915E-3       -0.996055
        7.737737           0.078420          -0.598352           0.825019E-3       -0.996037
        7.747747           0.082238          -0.591558           0.829170E-3       -0.996018
        7.757757           0.086380          -0.584536           0.833369E-3       -0.996000
        7.767767           0.090883          -0.577282           0.837620E-3       -0.995981
        7.777778           0.095791          -0.569794           0.841920E-3       -0.995962
        7.787787           0.101155          -0.562080           0.846271E-3       -0.995943
        7.797797           0.107031          -0.554149           0.850676E-3       -0.995924
        7.807807           0.113482          -0.546012           0.855133E-3       -0.995904
        7.817817           0.120584          -0.537707           0.859647E-3       -0.995884
        7.827827           0.128415          -0.529269           0.864216E-3       -0.995864
        7.837838           0.137060          -0.520754           0.868843E-3       -0.995843
        7.847847           0.146614          -0.512256           0.873527E-3       -0.995823
        7.857858           0.157166          -0.503882           0.878273E-3       -0.995802
        7.867867           0.168801          -0.495789           0.883079E-3       -0.995781
        7.877877           0.181580          -0.488175           0.887947E-3       -0.995759
        7.887887           0.195524          -0.481284           0.892880E-3       -0.995738
        7.897897           0.210592          -0.475421           0.897879E-3       -0.995716
        7.907907           0.226633          -0.470923           0.902943E-3       -0.995693
        7.917918           0.243374          -0.468143           0.908077E-3       -0.995671
        7.927927           0.260372          -0.467398           0.913280E-3       -0.995648
        7.937938           0.277030          -0.468879           0.918554E-3       -0.995625
        7.947948           0.292616          -0.472556           0.923903E-3       -0.995602
        7.957957           0.306373          -0.478089           0.929325E-3       -0.995577
        7.967968           0.317649          -0.484793           0.934826E-3       -0.995554
        7.977977           0.326083          -0.491707           0.940405E-3       -0.995529
        7.987987           0.331693          -0.497742           0.946062E-3       -0.995504
        7.997998           0.334913          -0.501883           0.951805E-3       -0.995479
        8.008007           0.336514          -0.503372           0.957631E-3       -0.995453
        8.018017           0.337415          -0.501779           0.963543E-3       -0.995428
        8.028028           0.338560          -0.497008           0.969545E-3       -0.995401
        8.038037           0.340792          -0.489217           0.975638E-3       -0.995375
        8.048048           0.344795          -0.478715           0.981825E-3       -0.995348
        8.058058           0.351118          -0.465896           0.988106E-3       -0.995320
        8.068068           0.360189          -0.451167           0.994486E-3       -0.995293
        8.078078           0.372354          -0.434927           0.001001          -0.995265
        8.088087           0.387918          -0.417570           0.001008          -0.995236
        8.098097           0.407182          -0.399486           0.001014          -0.995207
        8.108108           0.430461          -0.381099           0.001021          -0.995178
        8.118117           0.458102          -0.362891           0.001028          -0.995148
        8.128128           0.490503          -0.345438           0.001035          -0.995118
        8.138138           0.528101          -0.329443           0.001042          -0.995087
        8.148148           0.571352          -0.315777           0.001049          -0.995057
        8.158158           0.620665          -0.305528           0.001057          -0.995024
        8.168168           0.676305          -0.300061           0.001064          -0.994992
        8.178178           0.738271          -0.301080           0.001072          -0.994960
        8.188188           0.806155          -0.310621           0.001080          -0.994926
        8.198197           0.878893          -0.331007           0.001088          -0.994893
        8.208207           0.954553          -0.364671           0.001096          -0.994859
        8.218218           1.030155          -0.413801           0.001104          -0.994824
        8.228228           1.101509          -0.479841           0.001112          -0.994789
        8.238238           1.163570          -0.562791           0.001121          -0.994753
        8.248248           1.210870          -0.660738           0.001130          -0.994717
        8.258258           1.238658          -0.769508           0.001138          -0.994679
        8.268268           1.243814          -0.883116           0.001147          -0.994642
        8.278277           1.225771          -0.994618           0.001157          -0.994603
        8.288287           1.186711          -1.097475           0.001166          -0.994564
        8.298298           1.130760          -1.186725           0.001176          -0.994525
        8.308308           1.063303          -1.259490           0.001185          -0.994484
        8.318318           0.989606          -1.315053           0.001195          -0.994443
        8.328328           0.914274          -1.354348           0.001206          -0.994402
        8.338338           0.840737          -1.379311           0.001216          -0.994359
        8.348348           0.771334          -1.392319           0.001227          -0.994316
        8.358357           0.707440          -1.395780           0.001238          -0.994272
        8.368367           0.649638          -1.391852           0.001249          -0.994227
        8.378378           0.598110          -1.382440           0.001260          -0.994182
        8.388388           0.552653          -1.369056           0.001272          -0.994135
        8.398398           0.512888          -1.352899           0.001283          -0.994088
        8.408408           0.478401          -1.334957           0.001296          -0.994040
        8.418418           0.448680          -1.315932           0.001308          -0.993991
        8.428429           0.423271          -1.296420           0.001321          -0.993941
        8.438437           0.401690          -1.276824           0.001334          -0.993890
        8.448447           0.383499          -1.257454           0.001347          -0.993838
        8.458458           0.368313          -1.238561           0.001361          -0.993785
        8.468468           0.355751          -1.220243           0.001375          -0.993731
        8.478477           0.345517          -1.202567           0.001389          -0.993676
        8.488488           0.337394          -1.185554           0.001404          -0.993620
        8.498498           0.331235          -1.169188           0.001419          -0.993562
        8.508509           0.326999          -1.153520           0.001434          -0.993504
        8.518518           0.324667          -1.138616           0.001450          -0.993444
        8.528527           0.324259          -1.124668           0.001467          -0.993383
        8.538538           0.325754          -1.111945           0.001483          -0.993321
        8.548548           0.329034          -1.100780           0.001501          -0.993257
        8.558558           0.333877          -1.091585           0.001518          -0.993192
        8.568568           0.339867          -1.084740           0.001537          -0.993125
        8.578578           0.346422          -1.080585           0.001555          -0.993057
        8.588589           0.352771          -1.079265           0.001575          -0.992988
        8.598598           0.358028          -1.080661           0.001595          -0.992917
        8.608608           0.361350          -1.084328           0.001615          -0.992845
        8.618618           0.362062          -1.089458           0.001636          -0.992770
        8.628628           0.359865          -1.095033           0.001658          -0.992694
        8.638638           0.354875          -1.099958           0.001680          -0.992617
        8.648648           0.347609          -1.103306           0.001704          -0.992537
        8.658658           0.338863          -1.104475           0.001727          -0.992456
        8.668669           0.329509          -1.103212           0.001752          -0.992372
        8.678679           0.320358          -1.099595           0.001778          -0.992287
        8.688688           0.312056          -1.093944           0.001804          -0.992199
        8.698698           0.305053          -1.086723           0.001831          -0.992110
        8.708708           0.299589          -1.078449           0.001860          -0.992017
        8.718718           0.295713          -1.069622           0.001889          -0.991923
        8.728728           0.293320          -1.060706           0.001919          -0.991826
        8.738738           0.292153          -1.052051           0.001950          -0.991727
        8.748748           0.291863          -1.043887           0.001983          -0.991625
        8.758759           0.292049          -1.036278           0.002017          -0.991520
        8.768768           0.292317          -1.029075           0.002052          -0.991413
        8.778779           0.292396          -1.021999           0.002088          -0.991302
        8.788788           0.292177          -1.014642           0.002126          -0.991189
        8.798798           0.291741          -1.006563           0.002166          -0.991072
        8.808808           0.291368          -0.997424           0.002207          -0.990951
        8.818818           0.291426          -0.986973           0.002249          -0.990828
        8.828828           0.292347          -0.975134           0.002294          -0.990700
        8.838839           0.294542          -0.961946           0.002340          -0.990569
        8.848848           0.298376          -0.947537           0.002389          -0.990434
        8.858859           0.304164          -0.932079           0.002440          -0.990295
        8.868869           0.312188          -0.915789           0.002493          -0.990151
        8.878878           0.322698          -0.898873           0.002548          -0.990004
        8.888888           0.335950          -0.881567           0.002606          -0.989851
        8.898898           0.352219          -0.864134           0.002667          -0.989693
        8.908908           0.371783          -0.846850           0.002731          -0.989530
        8.918919           0.394964          -0.830073           0.002798          -0.989362
        8.928928           0.422096          -0.814248           0.002868          -0.989189
        8.938939           0.453532          -0.799940           0.002942          -0.989008
        8.948949           0.489592          -0.787894           0.003020          -0.988823
        8.958959           0.530543          -0.779066           0.003102          -0.988630
        8.968968           0.576529          -0.774681           0.003188          -0.988431
        8.978978           0.627442          -0.776245           0.003280          -0.988224
        8.988988           0.682847          -0.785538           0.003376          -0.988010
        8.998999           0.741732          -0.804521           0.003478          -0.987788
        9.009008           0.802318          -0.835142           0.003586          -0.987557
        9.019018           0.861946          -0.879039           0.003701          -0.987318
        9.029029           0.916997          -0.937068           0.003823          -0.987070
        9.039039           0.963156          -1.008798           0.003953          -0.986811
        9.049048           0.996029          -1.092121           0.004091          -0.986542
        9.059058           1.012010          -1.183142           0.004238          -0.986263
        9.069068           1.009084          -1.276632           0.004395          -0.985971
        9.079079           0.987384          -1.366932           0.004562          -0.985668
        9.089088           0.949229          -1.448968           0.004742          -0.985351
        9.099098           0.898408          -1.519158           0.004935          -0.985021
        9.109109           0.839244          -1.575668           0.005142          -0.984677
        9.119119           0.776040          -1.618383           0.005364          -0.984317
        9.129129           0.712161          -1.648273           0.005604          -0.983942
        9.139138           0.650250          -1.667139           0.005864          -0.983549
        9.149148           0.591918          -1.676942           0.006144          -0.983138
        9.159159           0.538018          -1.679548           0.006448          -0.982710
        9.169168           0.488965          -1.676715           0.006778          -0.982260
        9.179178           0.444749          -1.669873           0.007137          -0.981790
        9.189189           0.405114          -1.660135           0.007528          -0.981298
        9.199199           0.369747          -1.648445           0.007956          -0.980783
        9.209209           0.338225          -1.635444           0.008425          -0.980245
        9.219219           0.310166          -1.621695           0.008939          -0.979681
        9.229228           0.285166          -1.607547           0.009505          -0.979093
        9.239239           0.262869          -1.593293           0.010130          -0.978479
        9.249249           0.242952          -1.579124           0.010821          -0.977839
        9.259258           0.225120          -1.565169           0.011588          -0.977175
        9.269269           0.209128          -1.551567           0.012439          -0.976487
        9.279279           0.194746          -1.538339           0.013388          -0.975777
        9.289289           0.181777          -1.525521           0.014448          -0.975051
        9.299299           0.170063          -1.513184           0.015635          -0.974313
        9.309309           0.159442          -1.501263           0.016965          -0.973572
        9.319319           0.149800          -1.489826           0.018460          -0.972841
        9.329329           0.141020          -1.478825           0.020141          -0.972135
        9.339338           0.133005          -1.468257           0.022032          -0.971480
        9.349349           0.125675          -1.458125           0.024158          -0.970906
        9.359359           0.118955          -1.448408           0.026543          -0.970456
        9.369369           0.112779          -1.439073           0.029210          -0.970184
        9.379379           0.107090          -1.430103           0.032174          -0.970162
        9.389389           0.101844          -1.421514           0.035434          -0.970476
        9.399399           0.096992          -1.413247           0.038971          -0.971230
        9.409409           0.092497          -1.405302           0.042731          -0.972544
        9.419418           0.088328          -1.397684           0.046615          -0.974536
        9.429429           0.084452          -1.390351           0.050469          -0.977314
        9.439439           0.080844          -1.383305           0.054081          -0.980940
        9.449449           0.077475          -1.376489           0.057192          -0.985411
        9.459459           0.074330          -1.369951           0.059531          -0.990620
        9.469469           0.071388          -1.363648           0.060859          -0.996353
        9.479479           0.068630          -1.357550           0.061031          -1.002308
        9.489489           0.066045          -1.351695           0.060029          -1.008141
        9.499498           0.063615          -1.346018           0.057967          -1.013530
        9.509509           0.061329          -1.340553           0.055064          -1.018231
        9.519519           0.059178          -1.335276           0.051588          -1.022110
        9.529529           0.057147          -1.330145           0.047803          -1.025130
        9.539539           0.055232          -1.325218           0.043936          -1.027344
        9.549549           0.053420          -1.320416           0.040155          -1.028847
        9.559559           0.051708          -1.315794           0.036572          -1.029759
        9.569570           0.050088          -1.311327           0.033254          -1.030199
        9.579578           0.048549          -1.306957           0.030227          -1.030277
        9.589589           0.047093          -1.302773           0.027497          -1.030083
        9.599599           0.045709          -1.298694           0.025052          -1.029694
        9.609609           0.044392          -1.294719           0.022871          -1.029169
        9.619619           0.043142          -1.290904           0.020932          -1.028552
        9.629629           0.041950          -1.287163           0.019208          -1.027877
        9.639639           0.040816          -1.283543           0.017677          -1.027172
        9.649650           0.039736          -1.280046           0.016315          -1.026453
        9.659659           0.038703          -1.276625           0.015102          -1.025734
        9.669669           0.037719          -1.273312           0.014020          -1.025025
        9.679679           0.036780          -1.270108           0.013053          -1.024333
        9.689689           0.035881          -1.266969           0.012186          -1.023662
        9.699699           0.035021          -1.263920           0.011408          -1.023015
        9.709709           0.034200          -1.260974           0.010708          -1.022394
        9.719719           0.033413          -1.258095           0.010077          -1.021799
        9.729730           0.032659          -1.255290           0.009506          -1.021232
        9.739739           0.031938          -1.252578           0.008989          -1.020690
        9.749749           0.031246          -1.249941           0.008520          -1.020176
        9.759759           0.030583          -1.247374           0.008092          -1.019686
        9.769769           0.029947          -1.244874           0.007703          -1.019222
        9.779779           0.029338          -1.242460           0.007347          -1.018782
        9.789789           0.028752          -1.240103           0.007021          -1.018366
        9.799799           0.028191          -1.237831           0.006723          -1.017972
        9.809810           0.027652          -1.235617           0.006448          -1.017600
        9.819819           0.027134          -1.233471           0.006196          -1.017250
        9.829829           0.026638          -1.231405           0.005963          -1.016920
        9.839839           0.026161          -1.229408           0.005749          -1.016611
        9.849849           0.025703          -1.227470           0.005551          -1.016321
        9.859859           0.025264          -1.225620           0.005368          -1.016052
        9.869869           0.024844          -1.223846           0.005198          -1.015803
        9.879879           0.024440          -1.222151           0.005041          -1.015574
        9.889890           0.024054          -1.220548           0.004895          -1.015365
        9.899899           0.023684          -1.219028           0.004760          -1.015179
        9.909909           0.023331          -1.217626           0.004634          -1.015017
        9.919919           0.022994          -1.216349           0.004517          -1.014881
        9.929929           0.022674          -1.215217           0.004408          -1.014776
        9.939939           0.022373          -1.214283           0.004307          -1.014709
        9.949949           0.022089          -1.213591           0.004213          -1.014689
        9.959959           0.021828          -1.213255           0.004126          -1.014739
        9.969970           0.021594          -1.213539           0.004045          -1.014900
        9.979980           0.021401          -1.215027           0.003968          -1.015288
        9.989989           0.021103          -1.222263           0.003849          -1.016714
        10.00000           0.401223E-3       -1.220544           0.721738E-4       -1.016458
# 
# 11/30/2023 at 13:38 yambo_ph @ unimi-XPS-8930 [start]
# 11/30/2023 at 13:38                           [end]
#  
# Timing   [Min/Max/Average]: 10s/10s/10s
#
# .-Input file  yambo.in
# | optics                           # [R] Linear Response optical properties
# | dipoles                          # [R] Oscillator strenghts (or dipoles)
# | bss                              # [R] BSE solver
# | bse                              # [R][BSE] Bethe Salpeter Equation.
# | BoseTemp= 0.000000         eV    # Bosonic Temperature
# | FFTGvecs=  4653            RL    # [FFT] Plane-waves
# | DIP_Threads= 1                   # [OPENMP/X] Number of threads for dipoles
# | BS_nCPU_LinAlg_INV= 1            # [PARALLEL] CPUs for Linear Algebra (if -1 it is automatically set)
# | BS_nCPU_LinAlg_DIAGO= 1          # [PARALLEL] CPUs for Linear Algebra (if -1 it is automatically set)
# | X_Threads= 1                     # [OPENMP/X] Number of threads for response functions
# | K_Threads= 1                     # [OPENMP/BSK] Number of threads for response functions
# | BSKmod= "HF"                     # [BSE] IP/Hartree/HF/ALDA/SEX/BSfxc
# | BSEmod= "resonant"               # [BSE] resonant/retarded/coupling
# | BSSmod= "d"                      # [BSS] (h)aydock/(d)iagonalization/(s)lepc/(i)nversion/(t)ddft`
# | % DipBands
# |   3 |  6 |                           # [DIP] Bands range for dipoles
# | %
# | DipComputed= "R V P"             # [DIP] [default R P V; extra P2 Spin Orb]
# | BSENGexx= 1005             RL    # [BSK] Exchange components
# | BSENGBlk= 1005             RL    # [BSK] Screened interaction block size [if -1 uses all the G-vectors of W(q,G,Gp)]
# | % KfnQP_E
# |  5.000000 | 1.000000 | 1.000000 |        # [EXTQP BSK BSS] E parameters  (c/v) eV|adim|adim
# | %
# | % BSEQptR
# |   1 |  9 |                           # [BSK] Transferred momenta range
# | %
# | % BSEBands
# |   3 |  6 |                           # [BSK] Bands range
# | %
# | % BEnRange
# |   0.00000 | 10.00000 |         eV    # [BSS] Energy range
# | %
# | % BDmRange
# |  0.100000 | 0.100000 |         eV    # [BSS] Damping range
# | %
# | BEnSteps= 1000                   # [BSS] Energy steps
# | % BLongDir
# |   0.00000    | 0.100000E-4 |  0.00000    # [BSS] [cc] Electric Field
# | %
# | BSEprop= "abs esrt jdos"         # [BSS] Can be any among abs/jdos/kerr/magn/dich/photolum/esrt
# | BSEdips= "none"                  # [BSS] Can be "trace/none" or "xy/xz/yz" to define off-diagonal rotation plane
# | WRbsWF                         # [BSS] Write to disk excitonic the WFs
