#                                                                     
#                                                                     
# Y88b    /   e           e    e      888~~\    ,88~-_                
#  Y88b  /   d8b         d8b  d8b     888   |  d888   \               
#   Y88b/   /Y88b       d888bdY88b    888 _/  88888    |              
#    Y8Y   /  Y88b     / Y88Y Y888b   888  \  88888    |              
#     Y   /____Y88b   /   YY   Y888b  888   |  Y888   /               
#    /   /      Y88b /          Y888b 888__/    `88_-~                
#                                                                     
#                                                                     
# Version 5.2.0 Revision 22184 Hash (prev commit) 2871b0cee           
#                 Branch is devel-excph                               
#         MPI+OpenMP+SLK+SLEPC+HDF5_MPI_IO Build                      
#               http://www.yambo-code.org                             
#
# Joint Density of states @ Q(9): -0.333333343     0.500000060      0.00000000    [iku]
#
# [GEN] GF Energies                               : Slater exchange(X)+Perdew & Zunger(C)
# [GEN] Green`s Function                          : Resonant
#
# DIP band range                                  :   3   6
# DIP band range limits                           :   4   5
# DIP e/h energy range                            :  -1.00000000     -1.00000000    [eV]
# RL vectors in the sum                           :   4653
# [r,Vnl] included                                : yes
# Bands ordered                                   : yes
# Direct v evaluation                             : no
# Approach used                                   : G-space v
# Dipoles computed                                : R V P
# Wavefunctions                                   : Slater exchange(X)+Perdew & Zunger(C)
#
#
# [K] Identifier                                  :   5698
# [K] Q-point                                     : -0.333333343     0.500000060      0.00000000   
# [K] Dimension                                   :   36
# [K] Bands                                       :   3   6
# [K] Exchange res                                : yes
# [K] Correlation res                             : no
# [K] Kernel`s coupling                           : no
# [K] Exchange cpl                                : no
# [K] Correlation cpl                             : no
# [K] W interaction is bare                       : no
# [K] ALDA kernel in R-space                      : no
# [K] RL vectors exchange                         :  1
# [K] E/h energy range                            :  -1.00000000     -1.00000000    [eV]
# [K] Coupling range                              :   100.000000      100.000000    [o/o]
# [K] BSE L kind                                  : BAR
# [X] Response Kind                               : BAR
#
#
#    E[1] [eV]          Im(jdos)           Re(jdos)           Im(jdos_o)         Re(jdos_o)
#
        0.000000           0.005733           0.490337           0.005733           0.490337
        0.010010           0.005749           0.490911           0.005749           0.490911
        0.020020           0.005764           0.491487           0.005764           0.491487
        0.030030           0.005780           0.492065           0.005780           0.492065
        0.040040           0.005796           0.492644           0.005796           0.492644
        0.050050           0.005812           0.493225           0.005812           0.493225
        0.060060           0.005828           0.493807           0.005828           0.493807
        0.070070           0.005844           0.494391           0.005844           0.494391
        0.080080           0.005860           0.494976           0.005860           0.494976
        0.090090           0.005876           0.495564           0.005876           0.495564
        0.100100           0.005893           0.496152           0.005893           0.496152
        0.110110           0.005909           0.496743           0.005909           0.496743
        0.120120           0.005925           0.497335           0.005925           0.497335
        0.130130           0.005942           0.497929           0.005942           0.497929
        0.140140           0.005959           0.498524           0.005959           0.498524
        0.150150           0.005975           0.499121           0.005975           0.499121
        0.160160           0.005992           0.499720           0.005992           0.499720
        0.170170           0.006009           0.500320           0.006009           0.500320
        0.180180           0.006026           0.500922           0.006026           0.500922
        0.190190           0.006043           0.501526           0.006043           0.501526
        0.200200           0.006060           0.502131           0.006060           0.502131
        0.210210           0.006077           0.502739           0.006077           0.502739
        0.220220           0.006094           0.503347           0.006094           0.503347
        0.230230           0.006112           0.503958           0.006112           0.503958
        0.240240           0.006129           0.504570           0.006129           0.504570
        0.250250           0.006147           0.505184           0.006147           0.505185
        0.260260           0.006164           0.505800           0.006164           0.505800
        0.270270           0.006182           0.506418           0.006182           0.506418
        0.280280           0.006200           0.507038           0.006200           0.507038
        0.290290           0.006218           0.507659           0.006218           0.507659
        0.300300           0.006236           0.508282           0.006236           0.508282
        0.310310           0.006254           0.508907           0.006254           0.508907
        0.320320           0.006272           0.509533           0.006272           0.509533
        0.330330           0.006290           0.510162           0.006290           0.510162
        0.340340           0.006309           0.510792           0.006309           0.510792
        0.350350           0.006327           0.511424           0.006327           0.511424
        0.360360           0.006346           0.512058           0.006346           0.512058
        0.370370           0.006364           0.512694           0.006364           0.512694
        0.380380           0.006383           0.513332           0.006383           0.513332
        0.390390           0.006402           0.513971           0.006402           0.513971
        0.400400           0.006421           0.514613           0.006421           0.514613
        0.410410           0.006440           0.515256           0.006440           0.515256
        0.420420           0.006459           0.515901           0.006459           0.515901
        0.430430           0.006478           0.516548           0.006478           0.516548
        0.440440           0.006498           0.517198           0.006498           0.517197
        0.450450           0.006517           0.517849           0.006517           0.517849
        0.460460           0.006537           0.518502           0.006537           0.518502
        0.470470           0.006556           0.519156           0.006556           0.519157
        0.480480           0.006576           0.519813           0.006576           0.519813
        0.490490           0.006596           0.520472           0.006596           0.520472
        0.500500           0.006616           0.521133           0.006616           0.521133
        0.510511           0.006636           0.521796           0.006636           0.521796
        0.520521           0.006656           0.522461           0.006656           0.522461
        0.530531           0.006676           0.523128           0.006676           0.523128
        0.540541           0.006697           0.523797           0.006697           0.523797
        0.550551           0.006717           0.524468           0.006717           0.524468
        0.560561           0.006738           0.525141           0.006738           0.525141
        0.570571           0.006759           0.525816           0.006759           0.525816
        0.580581           0.006780           0.526493           0.006780           0.526493
        0.590591           0.006801           0.527173           0.006801           0.527173
        0.600601           0.006822           0.527854           0.006822           0.527854
        0.610611           0.006843           0.528538           0.006843           0.528537
        0.620621           0.006864           0.529223           0.006864           0.529223
        0.630631           0.006886           0.529911           0.006886           0.529911
        0.640641           0.006907           0.530601           0.006907           0.530601
        0.650651           0.006929           0.531293           0.006929           0.531293
        0.660661           0.006951           0.531987           0.006951           0.531987
        0.670671           0.006972           0.532684           0.006972           0.532684
        0.680681           0.006994           0.533382           0.006994           0.533382
        0.690691           0.007017           0.534083           0.007017           0.534083
        0.700701           0.007039           0.534786           0.007039           0.534786
        0.710711           0.007061           0.535491           0.007061           0.535491
        0.720721           0.007084           0.536199           0.007084           0.536199
        0.730731           0.007107           0.536909           0.007107           0.536909
        0.740741           0.007129           0.537621           0.007129           0.537621
        0.750751           0.007152           0.538335           0.007152           0.538335
        0.760761           0.007175           0.539052           0.007175           0.539052
        0.770771           0.007199           0.539771           0.007199           0.539771
        0.780781           0.007222           0.540492           0.007222           0.540492
        0.790791           0.007245           0.541216           0.007245           0.541216
        0.800801           0.007269           0.541942           0.007269           0.541942
        0.810811           0.007293           0.542670           0.007293           0.542670
        0.820821           0.007317           0.543401           0.007317           0.543401
        0.830831           0.007341           0.544134           0.007341           0.544134
        0.840841           0.007365           0.544869           0.007365           0.544869
        0.850851           0.007389           0.545607           0.007389           0.545607
        0.860861           0.007414           0.546348           0.007414           0.546348
        0.870871           0.007438           0.547091           0.007438           0.547091
        0.880881           0.007463           0.547836           0.007463           0.547836
        0.890891           0.007488           0.548584           0.007488           0.548584
        0.900901           0.007513           0.549334           0.007513           0.549334
        0.910911           0.007538           0.550087           0.007538           0.550087
        0.920921           0.007563           0.550842           0.007563           0.550842
        0.930931           0.007589           0.551600           0.007589           0.551600
        0.940941           0.007614           0.552360           0.007614           0.552360
        0.950951           0.007640           0.553123           0.007640           0.553123
        0.960961           0.007666           0.553889           0.007666           0.553889
        0.970971           0.007692           0.554657           0.007692           0.554657
        0.980981           0.007719           0.555428           0.007719           0.555428
        0.990991           0.007745           0.556201           0.007745           0.556201
        1.001001           0.007772           0.556977           0.007772           0.556977
        1.011011           0.007799           0.557756           0.007799           0.557756
        1.021021           0.007825           0.558537           0.007825           0.558538
        1.031031           0.007853           0.559322           0.007853           0.559322
        1.041041           0.007880           0.560109           0.007880           0.560109
        1.051051           0.007907           0.560898           0.007907           0.560898
        1.061061           0.007935           0.561690           0.007935           0.561690
        1.071071           0.007963           0.562485           0.007963           0.562485
        1.081081           0.007991           0.563283           0.007991           0.563283
        1.091091           0.008019           0.564084           0.008019           0.564084
        1.101101           0.008047           0.564888           0.008047           0.564888
        1.111111           0.008076           0.565694           0.008076           0.565694
        1.121121           0.008105           0.566503           0.008105           0.566503
        1.131131           0.008133           0.567315           0.008133           0.567315
        1.141141           0.008163           0.568130           0.008163           0.568130
        1.151151           0.008192           0.568948           0.008192           0.568948
        1.161161           0.008221           0.569769           0.008221           0.569769
        1.171171           0.008251           0.570593           0.008251           0.570593
        1.181181           0.008281           0.571419           0.008281           0.571420
        1.191191           0.008311           0.572249           0.008311           0.572249
        1.201201           0.008341           0.573082           0.008341           0.573082
        1.211211           0.008372           0.573918           0.008372           0.573918
        1.221221           0.008402           0.574756           0.008402           0.574757
        1.231231           0.008433           0.575598           0.008433           0.575598
        1.241241           0.008464           0.576443           0.008464           0.576443
        1.251251           0.008495           0.577292           0.008495           0.577292
        1.261261           0.008527           0.578143           0.008527           0.578143
        1.271271           0.008559           0.578997           0.008559           0.578997
        1.281281           0.008591           0.579855           0.008591           0.579855
        1.291291           0.008623           0.580716           0.008623           0.580716
        1.301301           0.008655           0.581580           0.008655           0.581580
        1.311311           0.008688           0.582447           0.008688           0.582447
        1.321321           0.008720           0.583317           0.008720           0.583317
        1.331331           0.008753           0.584191           0.008753           0.584191
        1.341341           0.008787           0.585068           0.008787           0.585068
        1.351351           0.008820           0.585949           0.008820           0.585949
        1.361361           0.008854           0.586833           0.008854           0.586833
        1.371371           0.008888           0.587720           0.008888           0.587720
        1.381381           0.008922           0.588610           0.008922           0.588610
        1.391391           0.008957           0.589504           0.008957           0.589504
        1.401401           0.008991           0.590402           0.008991           0.590402
        1.411411           0.009026           0.591303           0.009026           0.591303
        1.421421           0.009061           0.592207           0.009061           0.592207
        1.431431           0.009097           0.593115           0.009097           0.593115
        1.441441           0.009133           0.594027           0.009133           0.594027
        1.451451           0.009169           0.594942           0.009169           0.594942
        1.461461           0.009205           0.595860           0.009205           0.595861
        1.471471           0.009241           0.596783           0.009241           0.596783
        1.481481           0.009278           0.597709           0.009278           0.597709
        1.491491           0.009315           0.598639           0.009315           0.598639
        1.501501           0.009352           0.599572           0.009352           0.599572
        1.511511           0.009390           0.600509           0.009390           0.600509
        1.521521           0.009428           0.601450           0.009428           0.601450
        1.531531           0.009466           0.602395           0.009466           0.602395
        1.541541           0.009504           0.603343           0.009504           0.603343
        1.551551           0.009543           0.604296           0.009543           0.604296
        1.561561           0.009582           0.605252           0.009582           0.605252
        1.571571           0.009621           0.606212           0.009621           0.606212
        1.581581           0.009661           0.607176           0.009661           0.607176
        1.591591           0.009701           0.608144           0.009701           0.608144
        1.601601           0.009741           0.609116           0.009741           0.609116
        1.611611           0.009782           0.610092           0.009782           0.610092
        1.621622           0.009822           0.611072           0.009822           0.611072
        1.631632           0.009864           0.612056           0.009864           0.612056
        1.641642           0.009905           0.613045           0.009905           0.613045
        1.651652           0.009947           0.614037           0.009947           0.614037
        1.661662           0.009989           0.615034           0.009989           0.615034
        1.671672           0.010031           0.616035           0.010031           0.616035
        1.681682           0.010074           0.617040           0.010074           0.617040
        1.691692           0.010117           0.618050           0.010117           0.618049
        1.701702           0.010161           0.619063           0.010161           0.619063
        1.711712           0.010205           0.620081           0.010205           0.620081
        1.721722           0.010249           0.621104           0.010249           0.621104
        1.731732           0.010293           0.622131           0.010293           0.622131
        1.741742           0.010338           0.623162           0.010338           0.623162
        1.751752           0.010383           0.624198           0.010383           0.624198
        1.761762           0.010429           0.625238           0.010429           0.625238
        1.771772           0.010475           0.626283           0.010475           0.626283
        1.781782           0.010521           0.627333           0.010521           0.627333
        1.791792           0.010568           0.628387           0.010568           0.628387
        1.801802           0.010615           0.629446           0.010615           0.629446
        1.811812           0.010663           0.630510           0.010663           0.630510
        1.821822           0.010711           0.631578           0.010711           0.631578
        1.831832           0.010759           0.632652           0.010759           0.632652
        1.841842           0.010808           0.633729           0.010808           0.633729
        1.851852           0.010857           0.634813           0.010857           0.634812
        1.861862           0.010907           0.635900           0.010907           0.635900
        1.871872           0.010957           0.636993           0.010957           0.636993
        1.881882           0.011007           0.638091           0.011007           0.638091
        1.891892           0.011058           0.639194           0.011058           0.639194
        1.901902           0.011110           0.640302           0.011110           0.640302
        1.911912           0.011161           0.641415           0.011161           0.641415
        1.921922           0.011214           0.642533           0.011214           0.642534
        1.931932           0.011266           0.643657           0.011266           0.643657
        1.941942           0.011319           0.644786           0.011319           0.644786
        1.951952           0.011373           0.645920           0.011373           0.645920
        1.961962           0.011427           0.647060           0.011427           0.647060
        1.971972           0.011482           0.648205           0.011482           0.648205
        1.981982           0.011537           0.649355           0.011537           0.649355
        1.991992           0.011592           0.650511           0.011592           0.650511
        2.002002           0.011649           0.651672           0.011649           0.651672
        2.012012           0.011705           0.652840           0.011705           0.652840
        2.022022           0.011762           0.654012           0.011762           0.654012
        2.032032           0.011820           0.655191           0.011820           0.655191
        2.042042           0.011878           0.656375           0.011878           0.656375
        2.052052           0.011937           0.657565           0.011937           0.657565
        2.062062           0.011996           0.658761           0.011996           0.658761
        2.072072           0.012056           0.659963           0.012056           0.659963
        2.082082           0.012116           0.661171           0.012116           0.661171
        2.092092           0.012177           0.662385           0.012177           0.662385
        2.102102           0.012239           0.663605           0.012239           0.663605
        2.112112           0.012301           0.664831           0.012301           0.664831
        2.122122           0.012364           0.666064           0.012364           0.666064
        2.132132           0.012427           0.667303           0.012427           0.667303
        2.142142           0.012491           0.668548           0.012491           0.668548
        2.152152           0.012556           0.669799           0.012556           0.669799
        2.162162           0.012621           0.671057           0.012621           0.671057
        2.172172           0.012687           0.672322           0.012687           0.672322
        2.182182           0.012753           0.673593           0.012753           0.673593
        2.192192           0.012821           0.674870           0.012821           0.674870
        2.202202           0.012889           0.676155           0.012889           0.676155
        2.212212           0.012957           0.677446           0.012957           0.677446
        2.222222           0.013026           0.678745           0.013026           0.678745
        2.232232           0.013096           0.680049           0.013096           0.680049
        2.242242           0.013167           0.681362           0.013167           0.681362
        2.252252           0.013238           0.682680           0.013238           0.682680
        2.262262           0.013310           0.684007           0.013310           0.684007
        2.272272           0.013383           0.685340           0.013383           0.685340
        2.282282           0.013457           0.686681           0.013457           0.686681
        2.292292           0.013531           0.688029           0.013531           0.688029
        2.302302           0.013607           0.689385           0.013607           0.689385
        2.312312           0.013683           0.690748           0.013683           0.690748
        2.322322           0.013759           0.692119           0.013759           0.692119
        2.332332           0.013837           0.693497           0.013837           0.693497
        2.342342           0.013915           0.694883           0.013915           0.694883
        2.352352           0.013995           0.696278           0.013995           0.696278
        2.362362           0.014075           0.697680           0.014075           0.697680
        2.372372           0.014156           0.699090           0.014156           0.699090
        2.382382           0.014238           0.700508           0.014238           0.700508
        2.392392           0.014321           0.701934           0.014321           0.701934
        2.402402           0.014404           0.703368           0.014404           0.703368
        2.412412           0.014489           0.704811           0.014489           0.704811
        2.422422           0.014575           0.706263           0.014575           0.706263
        2.432432           0.014661           0.707723           0.014661           0.707723
        2.442442           0.014749           0.709191           0.014749           0.709191
        2.452452           0.014838           0.710669           0.014838           0.710669
        2.462462           0.014927           0.712155           0.014927           0.712155
        2.472472           0.015018           0.713650           0.015018           0.713650
        2.482482           0.015110           0.715155           0.015110           0.715155
        2.492492           0.015203           0.716668           0.015203           0.716668
        2.502502           0.015296           0.718191           0.015296           0.718191
        2.512512           0.015391           0.719723           0.015391           0.719723
        2.522522           0.015488           0.721265           0.015488           0.721265
        2.532532           0.015585           0.722816           0.015585           0.722816
        2.542542           0.015683           0.724377           0.015683           0.724377
        2.552552           0.015783           0.725948           0.015783           0.725948
        2.562562           0.015884           0.727529           0.015884           0.727529
        2.572572           0.015986           0.729120           0.015986           0.729120
        2.582582           0.016089           0.730721           0.016089           0.730721
        2.592592           0.016194           0.732332           0.016194           0.732332
        2.602602           0.016300           0.733955           0.016300           0.733954
        2.612612           0.016407           0.735587           0.016407           0.735587
        2.622622           0.016516           0.737230           0.016516           0.737230
        2.632632           0.016626           0.738884           0.016626           0.738884
        2.642642           0.016738           0.740549           0.016738           0.740549
        2.652653           0.016850           0.742225           0.016850           0.742225
        2.662663           0.016965           0.743913           0.016965           0.743913
        2.672673           0.017081           0.745612           0.017081           0.745612
        2.682683           0.017198           0.747323           0.017198           0.747322
        2.692693           0.017317           0.749045           0.017317           0.749045
        2.702703           0.017437           0.750779           0.017437           0.750779
        2.712713           0.017560           0.752525           0.017560           0.752525
        2.722723           0.017683           0.754283           0.017683           0.754283
        2.732733           0.017809           0.756054           0.017809           0.756054
        2.742743           0.017936           0.757837           0.017936           0.757837
        2.752753           0.018065           0.759633           0.018065           0.759633
        2.762763           0.018196           0.761442           0.018196           0.761442
        2.772773           0.018328           0.763264           0.018328           0.763264
        2.782783           0.018462           0.765099           0.018462           0.765099
        2.792793           0.018599           0.766947           0.018599           0.766947
        2.802803           0.018737           0.768809           0.018737           0.768809
        2.812813           0.018877           0.770685           0.018877           0.770685
        2.822823           0.019019           0.772575           0.019019           0.772575
        2.832833           0.019164           0.774479           0.019164           0.774479
        2.842843           0.019310           0.776397           0.019310           0.776397
        2.852853           0.019458           0.778331           0.019458           0.778331
        2.862863           0.019609           0.780279           0.019609           0.780279
        2.872873           0.019762           0.782241           0.019762           0.782241
        2.882883           0.019917           0.784220           0.019917           0.784220
        2.892893           0.020075           0.786213           0.020075           0.786213
        2.902903           0.020235           0.788223           0.020235           0.788223
        2.912913           0.020398           0.790248           0.020398           0.790248
        2.922923           0.020563           0.792290           0.020563           0.792290
        2.932933           0.020730           0.794348           0.020730           0.794348
        2.942943           0.020900           0.796422           0.020900           0.796422
        2.952953           0.021073           0.798514           0.021073           0.798514
        2.962963           0.021249           0.800623           0.021249           0.800623
        2.972973           0.021427           0.802749           0.021427           0.802749
        2.982983           0.021609           0.804893           0.021609           0.804893
        2.992993           0.021793           0.807055           0.021793           0.807056
        3.003003           0.021980           0.809236           0.021980           0.809236
        3.013013           0.022171           0.811435           0.022171           0.811435
        3.023023           0.022364           0.813654           0.022364           0.813654
        3.033033           0.022561           0.815891           0.022561           0.815891
        3.043043           0.022762           0.818148           0.022762           0.818148
        3.053053           0.022965           0.820425           0.022965           0.820425
        3.063063           0.023172           0.822722           0.023172           0.822722
        3.073073           0.023383           0.825040           0.023383           0.825040
        3.083083           0.023597           0.827379           0.023597           0.827379
        3.093093           0.023816           0.829739           0.023816           0.829739
        3.103103           0.024038           0.832121           0.024038           0.832121
        3.113113           0.024264           0.834525           0.024264           0.834525
        3.123123           0.024494           0.836952           0.024494           0.836952
        3.133133           0.024728           0.839401           0.024728           0.839401
        3.143143           0.024967           0.841874           0.024967           0.841873
        3.153153           0.025210           0.844370           0.025210           0.844370
        3.163163           0.025458           0.846890           0.025458           0.846890
        3.173173           0.025710           0.849435           0.025710           0.849435
        3.183183           0.025967           0.852005           0.025967           0.852005
        3.193193           0.026229           0.854601           0.026229           0.854601
        3.203203           0.026496           0.857222           0.026496           0.857222
        3.213213           0.026768           0.859870           0.026768           0.859870
        3.223223           0.027046           0.862546           0.027046           0.862546
        3.233233           0.027329           0.865248           0.027329           0.865248
        3.243243           0.027618           0.867979           0.027618           0.867979
        3.253253           0.027913           0.870738           0.027913           0.870738
        3.263263           0.028213           0.873527           0.028213           0.873527
        3.273273           0.028520           0.876345           0.028520           0.876345
        3.283283           0.028833           0.879194           0.028833           0.879194
        3.293293           0.029153           0.882074           0.029153           0.882074
        3.303303           0.029480           0.884986           0.029480           0.884986
        3.313313           0.029814           0.887929           0.029814           0.887929
        3.323323           0.030154           0.890906           0.030154           0.890906
        3.333333           0.030503           0.893917           0.030503           0.893916
        3.343343           0.030859           0.896961           0.030859           0.896961
        3.353353           0.031222           0.900041           0.031222           0.900041
        3.363363           0.031594           0.903157           0.031594           0.903157
        3.373373           0.031975           0.906310           0.031975           0.906310
        3.383383           0.032364           0.909500           0.032364           0.909500
        3.393393           0.032762           0.912729           0.032762           0.912729
        3.403403           0.033170           0.915997           0.033170           0.915997
        3.413413           0.033587           0.919305           0.033587           0.919305
        3.423423           0.034014           0.922655           0.034014           0.922655
        3.433433           0.034451           0.926045           0.034451           0.926046
        3.443443           0.034899           0.929480           0.034899           0.929480
        3.453453           0.035358           0.932959           0.035358           0.932959
        3.463463           0.035829           0.936482           0.035829           0.936483
        3.473473           0.036311           0.940052           0.036311           0.940052
        3.483483           0.036805           0.943670           0.036805           0.943669
        3.493493           0.037313           0.947335           0.037313           0.947335
        3.503503           0.037833           0.951051           0.037833           0.951051
        3.513513           0.038367           0.954818           0.038367           0.954818
        3.523524           0.038916           0.958637           0.038916           0.958637
        3.533533           0.039479           0.962510           0.039479           0.962510
        3.543543           0.040057           0.966437           0.040057           0.966437
        3.553553           0.040652           0.970422           0.040652           0.970422
        3.563564           0.041263           0.974465           0.041263           0.974465
        3.573573           0.041891           0.978567           0.041891           0.978567
        3.583583           0.042537           0.982731           0.042537           0.982731
        3.593593           0.043202           0.986957           0.043202           0.986958
        3.603603           0.043886           0.991249           0.043886           0.991249
        3.613613           0.044590           0.995607           0.044590           0.995607
        3.623623           0.045316           1.000034           0.045316           1.000034
        3.633634           0.046063           1.004531           0.046064           1.004531
        3.643643           0.046834           1.009101           0.046834           1.009101
        3.653653           0.047629           1.013746           0.047629           1.013746
        3.663663           0.048448           1.018467           0.048448           1.018467
        3.673674           0.049294           1.023268           0.049294           1.023268
        3.683683           0.050167           1.028151           0.050167           1.028151
        3.693693           0.051069           1.033118           0.051069           1.033118
        3.703704           0.052001           1.038172           0.052001           1.038172
        3.713714           0.052964           1.043316           0.052964           1.043316
        3.723723           0.053960           1.048553           0.053960           1.048553
        3.733733           0.054991           1.053885           0.054991           1.053885
        3.743744           0.056058           1.059317           0.056058           1.059317
        3.753754           0.057163           1.064850           0.057163           1.064850
        3.763763           0.058308           1.070490           0.058308           1.070490
        3.773773           0.059496           1.076238           0.059496           1.076238
        3.783784           0.060727           1.082100           0.060727           1.082100
        3.793794           0.062005           1.088079           0.062005           1.088079
        3.803803           0.063332           1.094179           0.063332           1.094179
        3.813814           0.064711           1.100406           0.064711           1.100406
        3.823824           0.066145           1.106763           0.066145           1.106762
        3.833834           0.067637           1.113255           0.067637           1.113255
        3.843843           0.069189           1.119887           0.069189           1.119887
        3.853854           0.070806           1.126665           0.070806           1.126665
        3.863864           0.072492           1.133595           0.072492           1.133595
        3.873873           0.074250           1.140681           0.074250           1.140681
        3.883883           0.076085           1.147933           0.076085           1.147933
        3.893894           0.078001           1.155353           0.078001           1.155353
        3.903904           0.080005           1.162952           0.080005           1.162952
        3.913913           0.082100           1.170735           0.082100           1.170735
        3.923924           0.084295           1.178712           0.084295           1.178712
        3.933934           0.086594           1.186888           0.086594           1.186888
        3.943944           0.089005           1.195275           0.089005           1.195275
        3.953954           0.091535           1.203880           0.091535           1.203880
        3.963964           0.094193           1.212714           0.094193           1.212714
        3.973974           0.096989           1.221786           0.096989           1.221786
        3.983984           0.099931           1.231109           0.099931           1.231109
        3.993994           0.103031           1.240693           0.103031           1.240693
        4.004004           0.106301           1.250551           0.106301           1.250551
        4.014014           0.109754           1.260696           0.109754           1.260696
        4.024024           0.113404           1.271142           0.113404           1.271142
        4.034034           0.117265           1.281904           0.117265           1.281904
        4.044044           0.121358           1.292996           0.121358           1.292996
        4.054054           0.125699           1.304436           0.125699           1.304437
        4.064064           0.130310           1.316242           0.130310           1.316242
        4.074074           0.135215           1.328433           0.135215           1.328433
        4.084084           0.140440           1.341027           0.140440           1.341027
        4.094094           0.146013           1.354046           0.146013           1.354046
        4.104104           0.151967           1.367512           0.151967           1.367512
        4.114114           0.158338           1.381448           0.158338           1.381448
        4.124124           0.165167           1.395880           0.165167           1.395881
        4.134134           0.172498           1.410835           0.172498           1.410834
        4.144144           0.180382           1.426335           0.180382           1.426336
        4.154154           0.188877           1.442414           0.188877           1.442414
        4.164164           0.198048           1.459099           0.198048           1.459098
        4.174174           0.207969           1.476419           0.207969           1.476419
        4.184184           0.218721           1.494405           0.218721           1.494405
        4.194194           0.230402           1.513088           0.230402           1.513088
        4.204204           0.243119           1.532497           0.243119           1.532497
        4.214214           0.256995           1.552658           0.256995           1.552658
        4.224224           0.272171           1.573595           0.272171           1.573595
        4.234234           0.288811           1.595328           0.288811           1.595328
        4.244244           0.307100           1.617867           0.307100           1.617867
        4.254254           0.327253           1.641209           0.327253           1.641209
        4.264264           0.349514           1.665337           0.349514           1.665337
        4.274274           0.374167           1.690212           0.374167           1.690212
        4.284284           0.401535           1.715760           0.401535           1.715759
        4.294294           0.431987           1.741861           0.431987           1.741861
        4.304304           0.465942           1.768340           0.465942           1.768340
        4.314314           0.503873           1.794940           0.503873           1.794940
        4.324324           0.546300           1.821298           0.546300           1.821298
        4.334334           0.593791           1.846906           0.593791           1.846906
        4.344344           0.646932           1.871075           0.646932           1.871075
        4.354354           0.706315           1.892882           0.706315           1.892882
        4.364364           0.772454           1.911110           0.772454           1.911110
        4.374374           0.845706           1.924203           0.845706           1.924203
        4.384384           0.926137           1.930222           0.926137           1.930222
        4.394394           1.013313           1.926850           1.013313           1.926850
        4.404404           1.106061           1.911486           1.106061           1.911486
        4.414414           1.202204           1.881471           1.202204           1.881471
        4.424424           1.298354           1.834492           1.298354           1.834492
        4.434434           1.389861           1.769190           1.389861           1.769190
        4.444444           1.471127           1.685872           1.471127           1.685872
        4.454454           1.536351           1.587105           1.536351           1.587106
        4.464464           1.580662           1.477875           1.580663           1.477876
        4.474474           1.601319           1.365098           1.601319           1.365098
        4.484484           1.598504           1.256422           1.598504           1.256422
        4.494494           1.575372           1.158781           1.575372           1.158782
        4.504504           1.537273           1.077161           1.537272           1.077161
        4.514514           1.490581           1.014058           1.490581           1.014058
        4.524524           1.441550           0.969581           1.441550           0.969581
        4.534534           1.395541           0.942007           1.395542           0.942007
        4.544544           1.356678           0.928458           1.356678           0.928458
        4.554554           1.327859           0.925469           1.327859           0.925469
        4.564565           1.310916           0.929362           1.310916           0.929362
        4.574574           1.306815           0.936420           1.306815           0.936420
        4.584584           1.315791           0.942941           1.315791           0.942941
        4.594594           1.337394           0.945217           1.337393           0.945216
        4.604605           1.370402           0.939533           1.370402           0.939533
        4.614614           1.412675           0.922251           1.412675           0.922252
        4.624624           1.460948           0.890040           1.460948           0.890040
        4.634634           1.510696           0.840313           1.510696           0.840313
        4.644644           1.556223           0.771850           1.556223           0.771850
        4.654655           1.591140           0.685452           1.591140           0.685452
        4.664664           1.609257           0.584412           1.609257           0.584413
        4.674675           1.605790           0.474424           1.605790           0.474424
        4.684684           1.578469           0.362799           1.578469           0.362799
        4.694695           1.528063           0.257101           1.528063           0.257101
        4.704704           1.458095           0.163749           1.458095           0.163749
        4.714715           1.373862           0.086998           1.373862           0.086998
        4.724724           1.281215           0.028665           1.281215           0.028665
        4.734735           1.185503          -0.011543           1.185503          -0.011542
        4.744744           1.091002          -0.035350           1.091002          -0.035350
        4.754755           1.000710          -0.045234           1.000710          -0.045234
        4.764764           0.916466          -0.043870           0.916466          -0.043870
        4.774775           0.839176          -0.033786           0.839176          -0.033786
        4.784785           0.769100          -0.017184           0.769099          -0.017184
        4.794795           0.706063           0.004118           0.706063           0.004118
        4.804804           0.649651           0.028677           0.649651           0.028676
        4.814815           0.599310           0.055376           0.599310           0.055376
        4.824825           0.554453           0.083372           0.554453           0.083372
        4.834835           0.514494           0.112039           0.514494           0.112039
        4.844844           0.478884           0.140919           0.478884           0.140919
        4.854855           0.447111           0.169690           0.447111           0.169690
        4.864865           0.418726           0.198121           0.418726           0.198121
        4.874875           0.393326           0.226058           0.393326           0.226058
        4.884884           0.370555           0.253402           0.370555           0.253402
        4.894895           0.350106           0.280093           0.350106           0.280093
        4.904905           0.331709           0.306099           0.331709           0.306099
        4.914915           0.315132           0.331410           0.315132           0.331410
        4.924924           0.300168           0.356034           0.300168           0.356034
        4.934935           0.286642           0.379984           0.286642           0.379984
        4.944945           0.274400           0.403284           0.274400           0.403284
        4.954955           0.263308           0.425960           0.263308           0.425961
        4.964964           0.253248           0.448047           0.253248           0.448047
        4.974975           0.244118           0.469574           0.244118           0.469574
        4.984985           0.235829           0.490575           0.235829           0.490576
        4.994995           0.228304           0.511085           0.228304           0.511084
        5.005005           0.221472           0.531135           0.221472           0.531135
        5.015015           0.215273           0.550760           0.215273           0.550760
        5.025025           0.209655           0.569991           0.209655           0.569991
        5.035035           0.204571           0.588857           0.204571           0.588857
        5.045045           0.199978           0.607390           0.199978           0.607390
        5.055055           0.195842           0.625618           0.195842           0.625618
        5.065065           0.192129           0.643569           0.192129           0.643569
        5.075075           0.188812           0.661268           0.188812           0.661268
        5.085085           0.185866           0.678744           0.185865           0.678744
        5.095095           0.183267           0.696019           0.183267           0.696019
        5.105105           0.180999           0.713118           0.180999           0.713118
        5.115115           0.179042           0.730065           0.179042           0.730065
        5.125125           0.177384           0.746881           0.177384           0.746881
        5.135135           0.176011           0.763590           0.176011           0.763590
        5.145144           0.174912           0.780211           0.174912           0.780211
        5.155155           0.174079           0.796767           0.174079           0.796767
        5.165165           0.173504           0.813278           0.173504           0.813278
        5.175175           0.173180           0.829764           0.173180           0.829764
        5.185184           0.173103           0.846245           0.173103           0.846245
        5.195195           0.173269           0.862741           0.173269           0.862741
        5.205205           0.173677           0.879272           0.173677           0.879272
        5.215215           0.174326           0.895858           0.174326           0.895858
        5.225225           0.175215           0.912517           0.175215           0.912517
        5.235235           0.176346           0.929271           0.176346           0.929271
        5.245245           0.177723           0.946139           0.177723           0.946139
        5.255255           0.179348           0.963142           0.179347           0.963142
        5.265265           0.181226           0.980299           0.181226           0.980299
        5.275275           0.183365           0.997633           0.183365           0.997633
        5.285285           0.185772           1.015164           0.185772           1.015165
        5.295295           0.188456           1.032916           0.188455           1.032916
        5.305305           0.191426           1.050910           0.191426           1.050910
        5.315315           0.194697           1.069170           0.194697           1.069170
        5.325325           0.198280           1.087721           0.198280           1.087722
        5.335335           0.202193           1.106589           0.202193           1.106589
        5.345345           0.206451           1.125797           0.206451           1.125797
        5.355355           0.211075           1.145375           0.211075           1.145375
        5.365365           0.216087           1.165352           0.216087           1.165352
        5.375375           0.221511           1.185757           0.221511           1.185757
        5.385385           0.227374           1.206620           0.227374           1.206621
        5.395395           0.233707           1.227978           0.233707           1.227978
        5.405405           0.240543           1.249863           0.240543           1.249863
        5.415415           0.247921           1.272311           0.247921           1.272311
        5.425425           0.255882           1.295362           0.255882           1.295362
        5.435435           0.264473           1.319058           0.264473           1.319058
        5.445445           0.273747           1.343439           0.273747           1.343439
        5.455455           0.283762           1.368551           0.283762           1.368551
        5.465465           0.294583           1.394445           0.294584           1.394444
        5.475475           0.306285           1.421168           0.306285           1.421168
        5.485485           0.318950           1.448775           0.318950           1.448774
        5.495495           0.332669           1.477319           0.332669           1.477319
        5.505505           0.347548           1.506863           0.347548           1.506863
        5.515515           0.363705           1.537466           0.363705           1.537466
        5.525526           0.381272           1.569192           0.381272           1.569192
        5.535535           0.400400           1.602106           0.400400           1.602106
        5.545545           0.421262           1.636278           0.421262           1.636278
        5.555555           0.444051           1.671774           0.444051           1.671774
        5.565566           0.468990           1.708663           0.468991           1.708663
        5.575575           0.496333           1.747010           0.496333           1.747009
        5.585585           0.526371           1.786879           0.526371           1.786879
        5.595595           0.559437           1.828323           0.559437           1.828323
        5.605606           0.595914           1.871387           0.595915           1.871386
        5.615615           0.636241           1.916093           0.636242           1.916092
        5.625625           0.680929           1.962446           0.680929           1.962445
        5.635635           0.730560           2.010406           0.730560           2.010407
        5.645645           0.785806           2.059891           0.785807           2.059890
        5.655655           0.847448           2.110743           0.847448           2.110743
        5.665665           0.916374           2.162712           0.916374           2.162712
        5.675675           0.993604           2.215416           0.993604           2.215416
        5.685685           1.080293           2.268294           1.080293           2.268294
        5.695695           1.177752           2.320557           1.177751           2.320557
        5.705705           1.287422           2.371093           1.287422           2.371093
        5.715715           1.410871           2.418381           1.410871           2.418381
        5.725725           1.549726           2.460358           1.549727           2.460358
        5.735735           1.705607           2.494280           1.705607           2.494280
        5.745746           1.879915           2.516553           1.879916           2.516552
        5.755755           2.073596           2.522569           2.073596           2.522569
        5.765765           2.286712           2.506604           2.286712           2.506605
        5.775775           2.517918           2.461812           2.517919           2.461813
        5.785786           2.763699           2.380479           2.763698           2.380478
        5.795795           3.017603           2.254637           3.017604           2.254638
        5.805805           3.269596           2.077253           3.269597           2.077253
        5.815815           3.505920           1.843896           3.505919           1.843896
        5.825826           3.709802           1.554851           3.709803           1.554851
        5.835835           3.863540           1.216893           3.863539           1.216893
        5.845845           3.951646           0.843981           3.951648           0.843981
        5.855855           3.964387           0.455970           3.964387           0.455970
        5.865866           3.900256           0.075539           3.900257           0.075539
        5.875876           3.766428          -0.276052           3.766428          -0.276052
        5.885885           3.576847          -0.582602           3.576848          -0.582602
        5.895895           3.348876          -0.834947           3.348875          -0.834947
        5.905906           3.099903          -1.030794           3.099904          -1.030794
        5.915915           2.844875          -1.173230           2.844875          -1.173230
        5.925925           2.595071          -1.268668           2.595073          -1.268669
        5.935935           2.358088          -1.324930           2.358089          -1.324931
        5.945946           2.138316          -1.349920           2.138315          -1.349921
        5.955956           1.937745          -1.350819           1.937746          -1.350819
        5.965966           1.756691          -1.333737           1.756692          -1.333738
        5.975976           1.594447          -1.303645           1.594448          -1.303645
        5.985986           1.449721          -1.264452           1.449722          -1.264453
        5.995996           1.320951          -1.219173           1.320951          -1.219173
        6.006006           1.206484          -1.170071           1.206484          -1.170071
        6.016016           1.104730          -1.118835           1.104730          -1.118834
        6.026026           1.014199          -1.066697           1.014198          -1.066697
        6.036036           0.933540          -1.014550           0.933540          -1.014549
        6.046046           0.861541          -0.963017           0.861541          -0.963016
        6.056056           0.797140          -0.912533           0.797140          -0.912534
        6.066066           0.739403          -0.863393           0.739403          -0.863393
        6.076076           0.687521          -0.815782           0.687521          -0.815781
        6.086086           0.640783          -0.769802           0.640782          -0.769801
        6.096096           0.598576          -0.725507           0.598576          -0.725507
        6.106106           0.560368          -0.682908           0.560368          -0.682909
        6.116116           0.525700          -0.641992           0.525700          -0.641991
        6.126126           0.494166          -0.602715           0.494166          -0.602714
        6.136136           0.465418          -0.565029           0.465418          -0.565029
        6.146146           0.439151          -0.528877           0.439151          -0.528877
        6.156156           0.415101          -0.494195           0.415101          -0.494195
        6.166166           0.393031          -0.460916           0.393031          -0.460916
        6.176176           0.372740          -0.428973           0.372739          -0.428972
        6.186186           0.354046          -0.398300           0.354047          -0.398300
        6.196196           0.336792          -0.368832           0.336792          -0.368832
        6.206206           0.320839          -0.340506           0.320838          -0.340506
        6.216216           0.306060          -0.313261           0.306060          -0.313261
        6.226226           0.292349          -0.287043           0.292350          -0.287043
        6.236236           0.279607          -0.261793           0.279607          -0.261792
        6.246246           0.267746          -0.237460           0.267746          -0.237460
        6.256256           0.256690          -0.213996           0.256690          -0.213996
        6.266266           0.246370          -0.191354           0.246370          -0.191355
        6.276276           0.236721          -0.169491           0.236721          -0.169491
        6.286286           0.227690          -0.148364           0.227690          -0.148364
        6.296296           0.219225          -0.127936           0.219225          -0.127936
        6.306306           0.211282          -0.108171           0.211282          -0.108171
        6.316316           0.203819          -0.089033           0.203819          -0.089033
        6.326326           0.196799          -0.070491           0.196799          -0.070491
        6.336336           0.190188          -0.052514           0.190189          -0.052514
        6.346346           0.183958          -0.035074           0.183958          -0.035074
        6.356356           0.178078          -0.018144           0.178078          -0.018144
        6.366366           0.172524          -0.001700           0.172524          -0.001700
        6.376376           0.167273           0.014283           0.167273           0.014284
        6.386386           0.162304           0.029827           0.162304           0.029827
        6.396396           0.157598           0.044953           0.157598           0.044953
        6.406406           0.153137           0.059680           0.153137           0.059680
        6.416416           0.148904           0.074028           0.148904           0.074028
        6.426426           0.144886           0.088013           0.144886           0.088013
        6.436436           0.141067           0.101653           0.141067           0.101653
        6.446446           0.137436           0.114964           0.137436           0.114963
        6.456456           0.133981           0.127958           0.133981           0.127958
        6.466466           0.130690           0.140652           0.130690           0.140652
        6.476476           0.127555           0.153058           0.127555           0.153058
        6.486486           0.124566           0.165188           0.124566           0.165188
        6.496496           0.121714           0.177055           0.121714           0.177055
        6.506506           0.118992           0.188670           0.118992           0.188670
        6.516516           0.116392           0.200043           0.116392           0.200043
        6.526526           0.113907           0.211184           0.113906           0.211184
        6.536536           0.111530           0.222104           0.111530           0.222104
        6.546546           0.109257           0.232811           0.109257           0.232811
        6.556556           0.107081           0.243314           0.107081           0.243314
        6.566566           0.104998           0.253621           0.104998           0.253621
        6.576576           0.103002           0.263739           0.103002           0.263739
        6.586586           0.101089           0.273678           0.101089           0.273678
        6.596596           0.099254           0.283442           0.099254           0.283443
        6.606606           0.097495           0.293041           0.097495           0.293041
        6.616616           0.095807           0.302479           0.095807           0.302478
        6.626626           0.094186           0.311763           0.094186           0.311763
        6.636636           0.092630           0.320899           0.092630           0.320899
        6.646646           0.091135           0.329892           0.091135           0.329892
        6.656656           0.089698           0.338748           0.089698           0.338748
        6.666666           0.088317           0.347472           0.088317           0.347472
        6.676676           0.086990           0.356070           0.086990           0.356070
        6.686686           0.085713           0.364544           0.085713           0.364544
        6.696696           0.084485           0.372901           0.084485           0.372901
        6.706707           0.083303           0.381145           0.083303           0.381145
        6.716716           0.082166           0.389279           0.082166           0.389279
        6.726726           0.081071           0.397307           0.081071           0.397307
        6.736736           0.080017           0.405235           0.080017           0.405235
        6.746747           0.079002           0.413064           0.079002           0.413064
        6.756756           0.078025           0.420799           0.078024           0.420799
        6.766766           0.077083           0.428443           0.077083           0.428443
        6.776776           0.076176           0.435999           0.076176           0.435999
        6.786787           0.075302           0.443471           0.075302           0.443471
        6.796796           0.074459           0.450861           0.074459           0.450861
        6.806807           0.073648           0.458172           0.073648           0.458172
        6.816816           0.072865           0.465407           0.072865           0.465407
        6.826826           0.072112           0.472569           0.072112           0.472569
        6.836837           0.071385           0.479661           0.071385           0.479661
        6.846846           0.070685           0.486684           0.070685           0.486684
        6.856857           0.070009           0.493642           0.070009           0.493642
        6.866867           0.069359           0.500536           0.069359           0.500536
        6.876876           0.068732           0.507369           0.068732           0.507369
        6.886887           0.068127           0.514144           0.068127           0.514144
        6.896896           0.067545           0.520861           0.067545           0.520861
        6.906906           0.066984           0.527523           0.066984           0.527524
        6.916917           0.066444           0.534134           0.066443           0.534134
        6.926927           0.065923           0.540693           0.065923           0.540693
        6.936936           0.065421           0.547202           0.065421           0.547203
        6.946947           0.064938           0.553666           0.064938           0.553666
        6.956956           0.064473           0.560083           0.064473           0.560083
        6.966967           0.064026           0.566457           0.064026           0.566457
        6.976976           0.063596           0.572788           0.063596           0.572788
        6.986986           0.063181           0.579078           0.063181           0.579078
        6.996997           0.062783           0.585330           0.062783           0.585330
        7.007007           0.062401           0.591544           0.062401           0.591544
        7.017016           0.062033           0.597722           0.062033           0.597722
        7.027027           0.061680           0.603865           0.061680           0.603866
        7.037036           0.061341           0.609976           0.061341           0.609976
        7.047047           0.061016           0.616054           0.061016           0.616054
        7.057057           0.060704           0.622101           0.060704           0.622101
        7.067066           0.060406           0.628119           0.060406           0.628119
        7.077077           0.060120           0.634109           0.060120           0.634110
        7.087087           0.059846           0.640072           0.059846           0.640072
        7.097096           0.059585           0.646010           0.059585           0.646009
        7.107107           0.059335           0.651923           0.059335           0.651923
        7.117116           0.059097           0.657812           0.059097           0.657812
        7.127127           0.058871           0.663679           0.058871           0.663679
        7.137137           0.058655           0.669524           0.058655           0.669524
        7.147147           0.058450           0.675350           0.058450           0.675350
        7.157157           0.058255           0.681156           0.058255           0.681156
        7.167167           0.058071           0.686944           0.058071           0.686944
        7.177176           0.057897           0.692715           0.057897           0.692715
        7.187187           0.057733           0.698470           0.057733           0.698470
        7.197196           0.057578           0.704209           0.057578           0.704209
        7.207206           0.057433           0.709933           0.057433           0.709933
        7.217217           0.057297           0.715645           0.057297           0.715645
        7.227227           0.057170           0.721344           0.057170           0.721344
        7.237237           0.057052           0.727031           0.057052           0.727031
        7.247247           0.056942           0.732707           0.056942           0.732707
        7.257257           0.056842           0.738373           0.056842           0.738373
        7.267267           0.056750           0.744031           0.056750           0.744031
        7.277277           0.056666           0.749679           0.056666           0.749679
        7.287286           0.056590           0.755320           0.056590           0.755320
        7.297297           0.056522           0.760955           0.056522           0.760955
        7.307307           0.056463           0.766583           0.056463           0.766583
        7.317317           0.056411           0.772207           0.056411           0.772207
        7.327327           0.056367           0.777826           0.056367           0.777826
        7.337337           0.056330           0.783441           0.056330           0.783441
        7.347347           0.056301           0.789053           0.056301           0.789053
        7.357357           0.056280           0.794663           0.056280           0.794663
        7.367367           0.056265           0.800271           0.056265           0.800271
        7.377377           0.056258           0.805879           0.056258           0.805879
        7.387387           0.056258           0.811486           0.056258           0.811487
        7.397398           0.056265           0.817095           0.056265           0.817095
        7.407407           0.056280           0.822704           0.056280           0.822704
        7.417417           0.056301           0.828316           0.056301           0.828315
        7.427427           0.056329           0.833930           0.056329           0.833930
        7.437437           0.056364           0.839547           0.056364           0.839547
        7.447447           0.056405           0.845169           0.056405           0.845169
        7.457457           0.056454           0.850795           0.056454           0.850795
        7.467467           0.056509           0.856427           0.056509           0.856427
        7.477477           0.056570           0.862064           0.056570           0.862064
        7.487487           0.056638           0.867708           0.056638           0.867708
        7.497497           0.056713           0.873359           0.056713           0.873359
        7.507507           0.056794           0.879019           0.056794           0.879019
        7.517517           0.056882           0.884687           0.056882           0.884687
        7.527527           0.056976           0.890364           0.056976           0.890363
        7.537537           0.057077           0.896051           0.057077           0.896051
        7.547547           0.057184           0.901748           0.057184           0.901748
        7.557557           0.057298           0.907456           0.057298           0.907456
        7.567567           0.057417           0.913176           0.057417           0.913176
        7.577577           0.057544           0.918909           0.057544           0.918909
        7.587587           0.057676           0.924654           0.057676           0.924654
        7.597597           0.057815           0.930413           0.057815           0.930413
        7.607607           0.057961           0.936186           0.057961           0.936186
        7.617618           0.058112           0.941975           0.058112           0.941975
        7.627627           0.058270           0.947778           0.058270           0.947778
        7.637637           0.058435           0.953598           0.058435           0.953598
        7.647647           0.058606           0.959435           0.058606           0.959435
        7.657657           0.058783           0.965288           0.058783           0.965288
        7.667667           0.058966           0.971161           0.058966           0.971161
        7.677677           0.059157           0.977051           0.059157           0.977051
        7.687687           0.059353           0.982960           0.059353           0.982961
        7.697698           0.059556           0.988890           0.059556           0.988890
        7.707707           0.059766           0.994840           0.059766           0.994840
        7.717717           0.059982           1.000812           0.059982           1.000811
        7.727727           0.060204           1.006805           0.060204           1.006805
        7.737737           0.060434           1.012821           0.060434           1.012821
        7.747747           0.060669           1.018859           0.060669           1.018859
        7.757757           0.060912           1.024922           0.060912           1.024922
        7.767767           0.061161           1.031009           0.061161           1.031009
        7.777778           0.061417           1.037122           0.061417           1.037122
        7.787787           0.061680           1.043260           0.061680           1.043260
        7.797797           0.061950           1.049424           0.061950           1.049424
        7.807807           0.062227           1.055616           0.062227           1.055616
        7.817817           0.062511           1.061836           0.062511           1.061836
        7.827827           0.062802           1.068084           0.062802           1.068083
        7.837838           0.063100           1.074361           0.063100           1.074361
        7.847847           0.063405           1.080668           0.063405           1.080668
        7.857858           0.063718           1.087006           0.063718           1.087007
        7.867867           0.064038           1.093375           0.064038           1.093376
        7.877877           0.064365           1.099777           0.064365           1.099777
        7.887887           0.064700           1.106212           0.064700           1.106212
        7.897897           0.065043           1.112679           0.065043           1.112679
        7.907907           0.065393           1.119182           0.065393           1.119182
        7.917918           0.065751           1.125719           0.065751           1.125719
        7.927927           0.066117           1.132292           0.066117           1.132292
        7.937938           0.066491           1.138902           0.066491           1.138902
        7.947948           0.066873           1.145550           0.066873           1.145550
        7.957957           0.067263           1.152236           0.067263           1.152235
        7.967968           0.067662           1.158961           0.067662           1.158961
        7.977977           0.068069           1.165725           0.068069           1.165725
        7.987987           0.068485           1.172531           0.068485           1.172531
        7.997998           0.068910           1.179378           0.068910           1.179378
        8.008007           0.069343           1.186267           0.069343           1.186268
        8.018017           0.069785           1.193200           0.069785           1.193200
        8.028028           0.070237           1.200178           0.070237           1.200178
        8.038037           0.070698           1.207200           0.070698           1.207200
        8.048048           0.071168           1.214269           0.071168           1.214269
        8.058058           0.071648           1.221384           0.071648           1.221384
        8.068068           0.072137           1.228547           0.072137           1.228547
        8.078078           0.072637           1.235760           0.072637           1.235760
        8.088087           0.073147           1.243022           0.073147           1.243022
        8.098097           0.073666           1.250335           0.073666           1.250335
        8.108108           0.074197           1.257700           0.074197           1.257701
        8.118117           0.074738           1.265118           0.074738           1.265119
        8.128128           0.075290           1.272591           0.075290           1.272591
        8.138138           0.075853           1.280118           0.075853           1.280118
        8.148148           0.076427           1.287701           0.076427           1.287701
        8.158158           0.077013           1.295342           0.077013           1.295342
        8.168168           0.077611           1.303041           0.077611           1.303041
        8.178178           0.078221           1.310799           0.078221           1.310800
        8.188188           0.078843           1.318620           0.078843           1.318620
        8.198197           0.079477           1.326501           0.079477           1.326501
        8.208207           0.080124           1.334445           0.080124           1.334445
        8.218218           0.080784           1.342455           0.080784           1.342455
        8.228228           0.081458           1.350530           0.081458           1.350530
        8.238238           0.082145           1.358673           0.082145           1.358672
        8.248248           0.082846           1.366883           0.082846           1.366883
        8.258258           0.083561           1.375164           0.083561           1.375163
        8.268268           0.084291           1.383515           0.084291           1.383515
        8.278277           0.085035           1.391939           0.085035           1.391939
        8.288287           0.085795           1.400437           0.085795           1.400437
        8.298298           0.086570           1.409011           0.086570           1.409011
        8.308308           0.087361           1.417663           0.087361           1.417663
        8.318318           0.088169           1.426393           0.088169           1.426393
        8.328328           0.088993           1.435203           0.088993           1.435203
        8.338338           0.089835           1.444095           0.089835           1.444095
        8.348348           0.090694           1.453071           0.090694           1.453071
        8.358357           0.091571           1.462132           0.091571           1.462132
        8.368367           0.092466           1.471280           0.092466           1.471280
        8.378378           0.093381           1.480518           0.093380           1.480518
        8.388388           0.094314           1.489846           0.094314           1.489846
        8.398398           0.095268           1.499267           0.095268           1.499267
        8.408408           0.096242           1.508782           0.096242           1.508782
        8.418418           0.097237           1.518394           0.097237           1.518394
        8.428429           0.098254           1.528105           0.098254           1.528105
        8.438437           0.099293           1.537917           0.099293           1.537916
        8.448447           0.100354           1.547831           0.100354           1.547831
        8.458458           0.101439           1.557852           0.101439           1.557851
        8.468468           0.102548           1.567979           0.102548           1.567979
        8.478477           0.103682           1.578215           0.103682           1.578216
        8.488488           0.104842           1.588566           0.104841           1.588566
        8.498498           0.106027           1.599030           0.106027           1.599030
        8.508509           0.107240           1.609613           0.107240           1.609613
        8.518518           0.108480           1.620314           0.108480           1.620314
        8.528527           0.109749           1.631139           0.109749           1.631139
        8.538538           0.111047           1.642089           0.111047           1.642089
        8.548548           0.112376           1.653167           0.112376           1.653167
        8.558558           0.113736           1.664377           0.113736           1.664377
        8.568568           0.115128           1.675720           0.115128           1.675721
        8.578578           0.116554           1.687203           0.116554           1.687203
        8.588589           0.118014           1.698826           0.118014           1.698825
        8.598598           0.119510           1.710591           0.119510           1.710591
        8.608608           0.121043           1.722505           0.121043           1.722505
        8.618618           0.122613           1.734571           0.122613           1.734571
        8.628628           0.124223           1.746790           0.124223           1.746790
        8.638638           0.125873           1.759168           0.125873           1.759168
        8.648648           0.127565           1.771709           0.127565           1.771710
        8.658658           0.129300           1.784416           0.129300           1.784416
        8.668669           0.131080           1.797295           0.131080           1.797295
        8.678679           0.132907           1.810347           0.132907           1.810348
        8.688688           0.134782           1.823579           0.134782           1.823579
        8.698698           0.136707           1.836997           0.136707           1.836996
        8.708708           0.138683           1.850601           0.138683           1.850602
        8.718718           0.140713           1.864401           0.140713           1.864401
        8.728728           0.142799           1.878400           0.142799           1.878400
        8.738738           0.144942           1.892602           0.144942           1.892602
        8.748748           0.147145           1.907013           0.147145           1.907014
        8.758759           0.149411           1.921643           0.149411           1.921642
        8.768768           0.151741           1.936492           0.151741           1.936492
        8.778779           0.154139           1.951569           0.154139           1.951570
        8.788788           0.156606           1.966881           0.156606           1.966881
        8.798798           0.159147           1.982431           0.159147           1.982432
        8.808808           0.161763           1.998232           0.161763           1.998231
        8.818818           0.164458           2.014286           0.164458           2.014286
        8.828828           0.167235           2.030602           0.167235           2.030602
        8.838839           0.170099           2.047189           0.170099           2.047188
        8.848848           0.173051           2.064052           0.173052           2.064052
        8.858859           0.176098           2.081203           0.176098           2.081203
        8.868869           0.179242           2.098649           0.179242           2.098649
        8.878878           0.182488           2.116398           0.182488           2.116398
        8.888888           0.185840           2.134464           0.185840           2.134464
        8.898898           0.189304           2.152851           0.189304           2.152851
        8.908908           0.192885           2.171572           0.192885           2.171573
        8.918919           0.196588           2.190640           0.196588           2.190640
        8.928928           0.200419           2.210063           0.200419           2.210063
        8.938939           0.204385           2.229855           0.204385           2.229855
        8.948949           0.208492           2.250026           0.208492           2.250027
        8.958959           0.212747           2.270591           0.212747           2.270591
        8.968968           0.217157           2.291564           0.217157           2.291564
        8.978978           0.221731           2.312957           0.221731           2.312956
        8.988988           0.226477           2.334785           0.226477           2.334785
        8.998999           0.231405           2.357067           0.231405           2.357066
        9.009008           0.236523           2.379814           0.236523           2.379814
        9.019018           0.241842           2.403047           0.241843           2.403047
        9.029029           0.247375           2.426784           0.247375           2.426784
        9.039039           0.253131           2.451042           0.253132           2.451042
        9.049048           0.259126           2.475843           0.259126           2.475844
        9.059058           0.265371           2.501206           0.265371           2.501206
        9.069068           0.271881           2.527153           0.271881           2.527154
        9.079079           0.278674           2.553711           0.278674           2.553710
        9.089088           0.285765           2.580899           0.285765           2.580899
        9.099098           0.293173           2.608745           0.293173           2.608745
        9.109109           0.300919           2.637278           0.300919           2.637278
        9.119119           0.309023           2.666524           0.309023           2.666524
        9.129129           0.317509           2.696517           0.317509           2.696518
        9.139138           0.326402           2.727286           0.326402           2.727286
        9.149148           0.335729           2.758865           0.335729           2.758865
        9.159159           0.345521           2.791293           0.345521           2.791293
        9.169168           0.355808           2.824604           0.355808           2.824604
        9.179178           0.366626           2.858839           0.366626           2.858840
        9.189189           0.378015           2.894047           0.378015           2.894047
        9.199199           0.390015           2.930265           0.390015           2.930264
        9.209209           0.402672           2.967547           0.402672           2.967546
        9.219219           0.416036           3.005938           0.416036           3.005939
        9.229228           0.430162           3.045497           0.430161           3.045499
        9.239239           0.445110           3.086286           0.445110           3.086286
        9.249249           0.460946           3.128355           0.460946           3.128356
        9.259258           0.477744           3.171778           0.477744           3.171779
        9.269269           0.495586           3.216624           0.495586           3.216625
        9.279279           0.514558           3.262962           0.514558           3.262962
        9.289289           0.534760           3.310871           0.534760           3.310871
        9.299299           0.556304           3.360441           0.556304           3.360440
        9.309309           0.579309           3.411749           0.579310           3.411750
        9.319319           0.603915           3.464900           0.603916           3.464900
        9.329329           0.630270           3.519984           0.630271           3.519984
        9.339338           0.658547           3.577110           0.658547           3.577110
        9.349349           0.688937           3.636392           0.688937           3.636392
        9.359359           0.721653           3.697937           0.721653           3.697938
        9.369369           0.756936           3.761874           0.756936           3.761874
        9.379379           0.795064           3.828334           0.795064           3.828334
        9.389389           0.836341           3.897437           0.836340           3.897438
        9.399399           0.881121           3.969328           0.881121           3.969329
        9.409409           0.929797           4.044137           0.929798           4.044137
        9.419418           0.982828           4.122000           0.982827           4.122000
        9.429429           1.040733           4.203057           1.040733           4.203058
        9.439439           1.104099           4.287421           1.104099           4.287422
        9.449449           1.173608           4.375203           1.173608           4.375204
        9.459459           1.250049           4.466498           1.250049           4.466498
        9.469469           1.334305           4.561338           1.334306           4.561337
        9.479479           1.427427           4.659733           1.427427           4.659733
        9.489489           1.530589           4.761590           1.530589           4.761592
        9.499498           1.645170           4.866741           1.645169           4.866741
        9.509509           1.772762           4.974860           1.772761           4.974860
        9.519519           1.915154           5.085410           1.915154           5.085409
        9.529529           2.074435           5.197608           2.074435           5.197607
        9.539539           2.252975           5.310307           2.252975           5.310308
        9.549549           2.453392           5.421850           2.453392           5.421850
        9.559559           2.678634           5.529957           2.678634           5.529956
        9.569570           2.931893           5.631491           2.931893           5.631491
        9.579578           3.216425           5.722188           3.216424           5.722190
        9.589589           3.535499           5.796411           3.535498           5.796412
        9.599599           3.891856           5.846744           3.891856           5.846744
        9.609609           4.287319           5.863732           4.287319           5.863730
        9.619619           4.721892           5.835616           4.721892           5.835618
        9.629629           5.192455           5.748401           5.192455           5.748401
        9.639639           5.691511           5.586362           5.691511           5.586361
        9.649650           6.205475           5.333390           6.205475           5.333391
        9.659659           6.713235           4.975547           6.713236           4.975548
        9.669669           7.186226           4.504512           7.186226           4.504513
        9.679679           7.589865           3.922088           7.589865           3.922088
        9.689689           7.888301           3.243565           7.888301           3.243566
        9.699699           8.050990           2.498870           8.050991           2.498869
        9.709709           8.059894           1.729761           8.059896           1.729761
        9.719719           7.914389           0.982488           7.914387           0.982488
        9.729730           7.631315           0.299243           7.631315           0.299243
        9.739739           7.240617          -0.288886           7.240617          -0.288886
        9.749749           6.778040          -0.765572           6.778039          -0.765572
        9.759759           6.278321          -1.128235           6.278323          -1.128235
        9.769769           5.770719          -1.384505           5.770718          -1.384504
        9.779779           5.276731          -1.548121           5.276734          -1.548122
        9.789789           4.810581          -1.635088           4.810582          -1.635087
        9.799799           4.380147          -1.661215           4.380147          -1.661215
        9.809810           3.988717          -1.640649           3.988718          -1.640649
        9.819819           3.636579          -1.585307           3.636579          -1.585307
        9.829829           3.322005          -1.504802           3.322003          -1.504802
        9.839839           3.042236          -1.406654           3.042237          -1.406655
        9.849849           2.794126          -1.296643           2.794127          -1.296642
        9.859859           2.574339          -1.179075           2.574340          -1.179075
        9.869869           2.379740          -1.057176           2.379740          -1.057176
        9.879879           2.207367          -0.933265           2.207366          -0.933265
        9.889890           2.054546          -0.809002           2.054546          -0.809003
        9.899899           1.918938          -0.685580           1.918937          -0.685581
        9.909909           1.798446          -0.563790           1.798446          -0.563790
        9.919919           1.691243          -0.444145           1.691243          -0.444145
        9.929929           1.595764          -0.326987           1.595764          -0.326987
        9.939939           1.510620          -0.212470           1.510619          -0.212470
        9.949949           1.434633          -0.100681           1.434633          -0.100681
        9.959959           1.366767           0.008403           1.366767           0.008402
        9.969970           1.306127           0.114855           1.306126           0.114854
        9.979980           1.251949           0.218763           1.251949           0.218762
        9.989989           1.203558           0.320265           1.203558           0.320264
        10.00000           1.160372           0.419517           1.160372           0.419517
# 
# 11/30/2023 at 13:38 yambo_ph @ unimi-XPS-8930 [start]
# 11/30/2023 at 13:38                           [end]
#  
# Timing   [Min/Max/Average]: 08s/08s/08s
#
# .-Input file  yambo.in
# | optics                           # [R] Linear Response optical properties
# | dipoles                          # [R] Oscillator strenghts (or dipoles)
# | bss                              # [R] BSE solver
# | bse                              # [R][BSE] Bethe Salpeter Equation.
# | BoseTemp= 0.000000         eV    # Bosonic Temperature
# | FFTGvecs=  4653            RL    # [FFT] Plane-waves
# | DIP_Threads= 1                   # [OPENMP/X] Number of threads for dipoles
# | BS_nCPU_LinAlg_INV= 1            # [PARALLEL] CPUs for Linear Algebra (if -1 it is automatically set)
# | BS_nCPU_LinAlg_DIAGO= 1          # [PARALLEL] CPUs for Linear Algebra (if -1 it is automatically set)
# | X_Threads= 1                     # [OPENMP/X] Number of threads for response functions
# | K_Threads= 1                     # [OPENMP/BSK] Number of threads for response functions
# | BSKmod= "HARTREE"                # [BSE] IP/Hartree/HF/ALDA/SEX/BSfxc
# | BSEmod= "resonant"               # [BSE] resonant/retarded/coupling
# | BSSmod= "d"                      # [BSS] (h)aydock/(d)iagonalization/(s)lepc/(i)nversion/(t)ddft`
# | % DipBands
# |   3 |  6 |                           # [DIP] Bands range for dipoles
# | %
# | DipComputed= "R V P"             # [DIP] [default R P V; extra P2 Spin Orb]
# | BSENGexx= 1                RL    # [BSK] Exchange components
# | % BSEQptR
# |   1 |  9 |                           # [BSK] Transferred momenta range
# | %
# | % BSEBands
# |   3 |  6 |                           # [BSK] Bands range
# | %
# | % BEnRange
# |   0.00000 | 10.00000 |         eV    # [BSS] Energy range
# | %
# | % BDmRange
# |  0.100000 | 0.100000 |         eV    # [BSS] Damping range
# | %
# | BEnSteps= 1000                   # [BSS] Energy steps
# | % BLongDir
# |   0.00000    | 0.100000E-4 |  0.00000    # [BSS] [cc] Electric Field
# | %
# | BSEprop= "abs esrt jdos"         # [BSS] Can be any among abs/jdos/kerr/magn/dich/photolum/esrt
# | BSEdips= "none"                  # [BSS] Can be "trace/none" or "xy/xz/yz" to define off-diagonal rotation plane
# | WRbsWF                         # [BSS] Write to disk excitonic the WFs
