#                                                                     
#                                                                     
# Y88b    /   e           e    e      888~~\    ,88~-_                
#  Y88b  /   d8b         d8b  d8b     888   |  d888   \               
#   Y88b/   /Y88b       d888bdY88b    888 _/  88888    |              
#    Y8Y   /  Y88b     / Y88Y Y888b   888  \  88888    |              
#     Y   /____Y88b   /   YY   Y888b  888   |  Y888   /               
#    /   /      Y88b /          Y888b 888__/    `88_-~                
#                                                                     
#                                                                     
# Version 5.2.0 Revision 22184 Hash (prev commit) 2871b0cee           
#                 Branch is devel-excph                               
#         MPI+OpenMP+SLK+SLEPC+HDF5_MPI_IO Build                      
#               http://www.yambo-code.org                             
#
# Electron Energy Loss @ Q(8):  0.333333343     0.500000060      0.00000000    [iku]
#
# [GEN] GF Energies                               : Slater exchange(X)+Perdew & Zunger(C)
# [GEN] Green`s Function                          : Resonant
#
# DIP band range                                  :   3   6
# DIP band range limits                           :   4   5
# DIP e/h energy range                            :  -1.00000000     -1.00000000    [eV]
# RL vectors in the sum                           :   4653
# [r,Vnl] included                                : yes
# Bands ordered                                   : yes
# Direct v evaluation                             : no
# Approach used                                   : G-space v
# Dipoles computed                                : R V P
# Wavefunctions                                   : Slater exchange(X)+Perdew & Zunger(C)
#
#
# [K] Identifier                                  :   4492
# [K] Q-point                                     :  0.333333343     0.500000060      0.00000000   
# [K] Dimension                                   :   36
# [K] Bands                                       :   3   6
# [K] Exchange res                                : yes
# [K] Correlation res                             : no
# [K] Kernel`s coupling                           : no
# [K] Exchange cpl                                : no
# [K] Correlation cpl                             : no
# [K] W interaction is bare                       : no
# [K] ALDA kernel in R-space                      : no
# [K] RL vectors exchange                         :  1
# [K] E/h energy range                            :  -1.00000000     -1.00000000    [eV]
# [K] Coupling range                              :   100.000000      100.000000    [o/o]
# [K] BSE L kind                                  : BAR
# [X] Response Kind                               : BAR
#
#
#    E[1] [eV]          Im(eel)            Re(eel)            Im(eel_o)          Re(eel_o)
#
        0.000000           0.14134E-09       -0.945051           0.13971E-09       -0.945051
        0.010010           0.308440E-3       -0.945187           0.308440E-3       -0.945187
        0.020020           0.314483E-3       -0.945378           0.314483E-3       -0.945378
        0.030030           0.315666E-3       -0.945457           0.315666E-3       -0.945457
        0.040040           0.316620E-3       -0.945522           0.316620E-3       -0.945522
        0.050050           0.317490E-3       -0.945572           0.317490E-3       -0.945572
        0.060060           0.318310E-3       -0.945598           0.318310E-3       -0.945597
        0.070070           0.319120E-3       -0.945634           0.319120E-3       -0.945634
        0.080080           0.319915E-3       -0.945663           0.319916E-3       -0.945663
        0.090090           0.320694E-3       -0.945674           0.320693E-3       -0.945674
        0.100100           0.321484E-3       -0.945707           0.321484E-3       -0.945707
        0.110110           0.322256E-3       -0.945715           0.322256E-3       -0.945715
        0.120120           0.323033E-3       -0.945730           0.323033E-3       -0.945730
        0.130130           0.323815E-3       -0.945753           0.323815E-3       -0.945753
        0.140140           0.324577E-3       -0.945744           0.324577E-3       -0.945744
        0.150150           0.325375E-3       -0.945785           0.325375E-3       -0.945785
        0.160160           0.326143E-3       -0.945780           0.326143E-3       -0.945780
        0.170170           0.326916E-3       -0.945780           0.326916E-3       -0.945780
        0.180180           0.327708E-3       -0.945804           0.327708E-3       -0.945804
        0.190190           0.328482E-3       -0.945797           0.328482E-3       -0.945797
        0.200200           0.329270E-3       -0.945809           0.329270E-3       -0.945809
        0.210210           0.330058E-3       -0.945818           0.330058E-3       -0.945817
        0.220220           0.330841E-3       -0.945813           0.330841E-3       -0.945813
        0.230230           0.331644E-3       -0.945836           0.331645E-3       -0.945836
        0.240240           0.332432E-3       -0.945831           0.332432E-3       -0.945831
        0.250250           0.333238E-3       -0.945849           0.333238E-3       -0.945849
        0.260260           0.334034E-3       -0.945848           0.334034E-3       -0.945848
        0.270270           0.334837E-3       -0.945854           0.334837E-3       -0.945854
        0.280280           0.335644E-3       -0.945860           0.335644E-3       -0.945860
        0.290290           0.336448E-3       -0.945858           0.336448E-3       -0.945858
        0.300300           0.337254E-3       -0.945854           0.337254E-3       -0.945854
        0.310310           0.338068E-3       -0.945858           0.338068E-3       -0.945858
        0.320320           0.338872E-3       -0.945844           0.338872E-3       -0.945844
        0.330330           0.339708E-3       -0.945869           0.339708E-3       -0.945869
        0.340340           0.340514E-3       -0.945849           0.340514E-3       -0.945849
        0.350350           0.341353E-3       -0.945869           0.341353E-3       -0.945869
        0.360360           0.342172E-3       -0.945858           0.342172E-3       -0.945858
        0.370370           0.343006E-3       -0.945863           0.343006E-3       -0.945863
        0.380380           0.343846E-3       -0.945870           0.343846E-3       -0.945870
        0.390390           0.344676E-3       -0.945861           0.344676E-3       -0.945861
        0.400400           0.345520E-3       -0.945866           0.345520E-3       -0.945866
        0.410410           0.346367E-3       -0.945871           0.346367E-3       -0.945871
        0.420420           0.347208E-3       -0.945862           0.347208E-3       -0.945862
        0.430430           0.348066E-3       -0.945873           0.348066E-3       -0.945873
        0.440440           0.348910E-3       -0.945859           0.348910E-3       -0.945859
        0.450450           0.349771E-3       -0.945863           0.349771E-3       -0.945863
        0.460460           0.350630E-3       -0.945862           0.350630E-3       -0.945862
        0.470470           0.351500E-3       -0.945868           0.351500E-3       -0.945868
        0.480480           0.352364E-3       -0.945864           0.352364E-3       -0.945864
        0.490490           0.353229E-3       -0.945855           0.353229E-3       -0.945855
        0.500500           0.354108E-3       -0.945860           0.354108E-3       -0.945860
        0.510511           0.354986E-3       -0.945859           0.354986E-3       -0.945859
        0.520521           0.355863E-3       -0.945853           0.355863E-3       -0.945853
        0.530531           0.356741E-3       -0.945842           0.356741E-3       -0.945842
        0.540541           0.357624E-3       -0.945834           0.357624E-3       -0.945834
        0.550551           0.358531E-3       -0.945851           0.358530E-3       -0.945851
        0.560561           0.359419E-3       -0.945840           0.359419E-3       -0.945840
        0.570571           0.360308E-3       -0.945824           0.360308E-3       -0.945824
        0.580581           0.361214E-3       -0.945825           0.361214E-3       -0.945825
        0.590591           0.362113E-3       -0.945814           0.362113E-3       -0.945814
        0.600601           0.363039E-3       -0.945832           0.363039E-3       -0.945832
        0.610611           0.363935E-3       -0.945806           0.363935E-3       -0.945806
        0.620621           0.364853E-3       -0.945802           0.364853E-3       -0.945803
        0.630631           0.365776E-3       -0.945801           0.365776E-3       -0.945801
        0.640641           0.366707E-3       -0.945805           0.366707E-3       -0.945805
        0.650651           0.367631E-3       -0.945795           0.367631E-3       -0.945795
        0.660661           0.368557E-3       -0.945783           0.368557E-3       -0.945783
        0.670671           0.369495E-3       -0.945780           0.369495E-3       -0.945780
        0.680681           0.370437E-3       -0.945777           0.370436E-3       -0.945777
        0.690691           0.371375E-3       -0.945765           0.371375E-3       -0.945765
        0.700701           0.372326E-3       -0.945763           0.372326E-3       -0.945763
        0.710711           0.373260E-3       -0.945735           0.373260E-3       -0.945735
        0.720721           0.374229E-3       -0.945746           0.374229E-3       -0.945746
        0.730731           0.375194E-3       -0.945747           0.375194E-3       -0.945747
        0.740741           0.376142E-3       -0.945720           0.376142E-3       -0.945720
        0.750751           0.377114E-3       -0.945718           0.377114E-3       -0.945718
        0.760761           0.378088E-3       -0.945714           0.378088E-3       -0.945714
        0.770771           0.379060E-3       -0.945702           0.379060E-3       -0.945701
        0.780781           0.380042E-3       -0.945696           0.380042E-3       -0.945696
        0.790791           0.381013E-3       -0.945672           0.381013E-3       -0.945672
        0.800801           0.382014E-3       -0.945680           0.382014E-3       -0.945680
        0.810811           0.382994E-3       -0.945655           0.382994E-3       -0.945655
        0.820821           0.384004E-3       -0.945662           0.384003E-3       -0.945662
        0.830831           0.385001E-3       -0.945649           0.385001E-3       -0.945649
        0.840841           0.386000E-3       -0.945632           0.386000E-3       -0.945632
        0.850851           0.387019E-3       -0.945633           0.387018E-3       -0.945633
        0.860861           0.388032E-3       -0.945623           0.388032E-3       -0.945622
        0.870871           0.389043E-3       -0.945602           0.389043E-3       -0.945602
        0.880881           0.390086E-3       -0.945616           0.390085E-3       -0.945616
        0.890891           0.391096E-3       -0.945584           0.391096E-3       -0.945584
        0.900901           0.392142E-3       -0.945591           0.392142E-3       -0.945591
        0.910911           0.393189E-3       -0.945592           0.393189E-3       -0.945592
        0.920921           0.394222E-3       -0.945570           0.394221E-3       -0.945570
        0.930931           0.395277E-3       -0.945570           0.395277E-3       -0.945570
        0.940941           0.396332E-3       -0.945565           0.396332E-3       -0.945565
        0.950951           0.397373E-3       -0.945536           0.397373E-3       -0.945536
        0.960961           0.398432E-3       -0.945522           0.398432E-3       -0.945521
        0.970971           0.399505E-3       -0.945518           0.399505E-3       -0.945518
        0.980981           0.400583E-3       -0.945517           0.400583E-3       -0.945517
        0.990991           0.401656E-3       -0.945502           0.401656E-3       -0.945501
        1.001001           0.402742E-3       -0.945495           0.402742E-3       -0.945495
        1.011011           0.403819E-3       -0.945473           0.403819E-3       -0.945473
        1.021021           0.404915E-3       -0.945467           0.404915E-3       -0.945467
        1.031031           0.406018E-3       -0.945464           0.406018E-3       -0.945464
        1.041041           0.407101E-3       -0.945430           0.407101E-3       -0.945430
        1.051051           0.408210E-3       -0.945421           0.408210E-3       -0.945421
        1.061061           0.409337E-3       -0.945427           0.409337E-3       -0.945427
        1.071071           0.410435E-3       -0.945393           0.410435E-3       -0.945393
        1.081081           0.411565E-3       -0.945390           0.411565E-3       -0.945390
        1.091091           0.412685E-3       -0.945369           0.412685E-3       -0.945369
        1.101101           0.413815E-3       -0.945353           0.413815E-3       -0.945353
        1.111111           0.414959E-3       -0.945346           0.414959E-3       -0.945346
        1.121121           0.416102E-3       -0.945333           0.416102E-3       -0.945333
        1.131131           0.417242E-3       -0.945308           0.417242E-3       -0.945308
        1.141141           0.418397E-3       -0.945296           0.418397E-3       -0.945296
        1.151151           0.419563E-3       -0.945288           0.419563E-3       -0.945288
        1.161161           0.420713E-3       -0.945256           0.420713E-3       -0.945256
        1.171171           0.421884E-3       -0.945242           0.421884E-3       -0.945242
        1.181181           0.423065E-3       -0.945232           0.423065E-3       -0.945232
        1.191191           0.424252E-3       -0.945222           0.424252E-3       -0.945222
        1.201201           0.425429E-3       -0.945195           0.425429E-3       -0.945195
        1.211211           0.426632E-3       -0.945189           0.426632E-3       -0.945189
        1.221221           0.427833E-3       -0.945174           0.427833E-3       -0.945174
        1.231231           0.429052E-3       -0.945174           0.429052E-3       -0.945174
        1.241241           0.430248E-3       -0.945140           0.430248E-3       -0.945140
        1.251251           0.431474E-3       -0.945132           0.431474E-3       -0.945132
        1.261261           0.432693E-3       -0.945111           0.432693E-3       -0.945111
        1.271271           0.433923E-3       -0.945094           0.433923E-3       -0.945094
        1.281281           0.435171E-3       -0.945091           0.435171E-3       -0.945090
        1.291291           0.436420E-3       -0.945066           0.436420E-3       -0.945066
        1.301301           0.437668E-3       -0.945048           0.437668E-3       -0.945049
        1.311311           0.438904E-3       -0.945011           0.438904E-3       -0.945010
        1.321321           0.440185E-3       -0.945014           0.440185E-3       -0.945014
        1.331331           0.441465E-3       -0.945009           0.441465E-3       -0.945009
        1.341341           0.442736E-3       -0.944988           0.442736E-3       -0.944988
        1.351351           0.444010E-3       -0.944962           0.444010E-3       -0.944962
        1.361361           0.445298E-3       -0.944943           0.445298E-3       -0.944943
        1.371371           0.446603E-3       -0.944936           0.446603E-3       -0.944936
        1.381381           0.447891E-3       -0.944902           0.447890E-3       -0.944902
        1.391391           0.449188E-3       -0.944872           0.449188E-3       -0.944872
        1.401401           0.450512E-3       -0.944862           0.450512E-3       -0.944862
        1.411411           0.451856E-3       -0.944866           0.451856E-3       -0.944866
        1.421421           0.453149E-3       -0.944808           0.453149E-3       -0.944808
        1.431431           0.454507E-3       -0.944812           0.454507E-3       -0.944812
        1.441441           0.455860E-3       -0.944802           0.455860E-3       -0.944802
        1.451451           0.457198E-3       -0.944768           0.457198E-3       -0.944768
        1.461461           0.458577E-3       -0.944770           0.458577E-3       -0.944770
        1.471471           0.459931E-3       -0.944738           0.459931E-3       -0.944738
        1.481481           0.461288E-3       -0.944700           0.461288E-3       -0.944700
        1.491491           0.462700E-3       -0.944712           0.462700E-3       -0.944712
        1.501501           0.464058E-3       -0.944661           0.464058E-3       -0.944661
        1.511511           0.465476E-3       -0.944663           0.465476E-3       -0.944663
        1.521521           0.466875E-3       -0.944638           0.466875E-3       -0.944638
        1.531531           0.468288E-3       -0.944619           0.468288E-3       -0.944619
        1.541541           0.469712E-3       -0.944602           0.469712E-3       -0.944602
        1.551551           0.471137E-3       -0.944578           0.471137E-3       -0.944578
        1.561561           0.472565E-3       -0.944548           0.472565E-3       -0.944548
        1.571571           0.474027E-3       -0.944546           0.474027E-3       -0.944546
        1.581581           0.475471E-3       -0.944516           0.475471E-3       -0.944516
        1.591591           0.476944E-3       -0.944506           0.476944E-3       -0.944506
        1.601601           0.478386E-3       -0.944458           0.478386E-3       -0.944458
        1.611611           0.479874E-3       -0.944446           0.479874E-3       -0.944447
        1.621622           0.481364E-3       -0.944428           0.481364E-3       -0.944428
        1.631632           0.482836E-3       -0.944384           0.482836E-3       -0.944384
        1.641642           0.484369E-3       -0.944391           0.484369E-3       -0.944391
        1.651652           0.485870E-3       -0.944358           0.485869E-3       -0.944358
        1.661662           0.487394E-3       -0.944338           0.487394E-3       -0.944338
        1.671672           0.488935E-3       -0.944326           0.488935E-3       -0.944326
        1.681682           0.490437E-3       -0.944267           0.490437E-3       -0.944267
        1.691692           0.492003E-3       -0.944260           0.492003E-3       -0.944260
        1.701702           0.493569E-3       -0.944245           0.493569E-3       -0.944245
        1.711712           0.495116E-3       -0.944201           0.495116E-3       -0.944201
        1.721722           0.496704E-3       -0.944188           0.496704E-3       -0.944188
        1.731732           0.498292E-3       -0.944166           0.498292E-3       -0.944166
        1.741742           0.499887E-3       -0.944142           0.499887E-3       -0.944142
        1.751752           0.501494E-3       -0.944119           0.501494E-3       -0.944118
        1.761762           0.503085E-3       -0.944071           0.503085E-3       -0.944071
        1.771772           0.504727E-3       -0.944063           0.504727E-3       -0.944063
        1.781782           0.506339E-3       -0.944017           0.506339E-3       -0.944017
        1.791792           0.508008E-3       -0.944013           0.508008E-3       -0.944013
        1.801802           0.509667E-3       -0.943991           0.509667E-3       -0.943991
        1.811812           0.511322E-3       -0.943955           0.511322E-3       -0.943955
        1.821822           0.513005E-3       -0.943935           0.513005E-3       -0.943935
        1.831832           0.514696E-3       -0.943913           0.514696E-3       -0.943913
        1.841842           0.516385E-3       -0.943879           0.516385E-3       -0.943879
        1.851852           0.518101E-3       -0.943858           0.518101E-3       -0.943858
        1.861862           0.519806E-3       -0.943819           0.519806E-3       -0.943819
        1.871872           0.521553E-3       -0.943806           0.521553E-3       -0.943806
        1.881882           0.523291E-3       -0.943776           0.523291E-3       -0.943776
        1.891892           0.525035E-3       -0.943740           0.525035E-3       -0.943740
        1.901902           0.526813E-3       -0.943723           0.526813E-3       -0.943723
        1.911912           0.528574E-3       -0.943681           0.528574E-3       -0.943681
        1.921922           0.530358E-3       -0.943649           0.530358E-3       -0.943649
        1.931932           0.532160E-3       -0.943622           0.532160E-3       -0.943622
        1.941942           0.533975E-3       -0.943597           0.533975E-3       -0.943597
        1.951952           0.535800E-3       -0.943568           0.535800E-3       -0.943568
        1.961962           0.537639E-3       -0.943541           0.537639E-3       -0.943541
        1.971972           0.539487E-3       -0.943511           0.539487E-3       -0.943511
        1.981982           0.541356E-3       -0.943487           0.541356E-3       -0.943487
        1.991992           0.543225E-3       -0.943453           0.543225E-3       -0.943453
        2.002002           0.545101E-3       -0.943412           0.545101E-3       -0.943412
        2.012012           0.547015E-3       -0.943393           0.547015E-3       -0.943393
        2.022022           0.548920E-3       -0.943355           0.548920E-3       -0.943355
        2.032032           0.550859E-3       -0.943334           0.550859E-3       -0.943334
        2.042042           0.552830E-3       -0.943328           0.552829E-3       -0.943328
        2.052052           0.554750E-3       -0.943267           0.554749E-3       -0.943267
        2.062062           0.556721E-3       -0.943237           0.556720E-3       -0.943237
        2.072072           0.558732E-3       -0.943231           0.558732E-3       -0.943231
        2.082082           0.560708E-3       -0.943180           0.560708E-3       -0.943180
        2.092092           0.562727E-3       -0.943154           0.562727E-3       -0.943154
        2.102102           0.564728E-3       -0.943100           0.564729E-3       -0.943100
        2.112112           0.566787E-3       -0.943082           0.566787E-3       -0.943082
        2.122122           0.568860E-3       -0.943063           0.568860E-3       -0.943063
        2.132132           0.570913E-3       -0.943014           0.570913E-3       -0.943014
        2.142142           0.572991E-3       -0.942973           0.572991E-3       -0.942973
        2.152152           0.575094E-3       -0.942939           0.575094E-3       -0.942939
        2.162162           0.577229E-3       -0.942919           0.577229E-3       -0.942919
        2.172172           0.579349E-3       -0.942871           0.579349E-3       -0.942871
        2.182182           0.581504E-3       -0.942840           0.581504E-3       -0.942840
        2.192192           0.583688E-3       -0.942817           0.583688E-3       -0.942817
        2.202202           0.585835E-3       -0.942751           0.585834E-3       -0.942751
        2.212212           0.588070E-3       -0.942743           0.588070E-3       -0.942743
        2.222222           0.590283E-3       -0.942703           0.590283E-3       -0.942703
        2.232232           0.592498E-3       -0.942650           0.592498E-3       -0.942650
        2.242242           0.594776E-3       -0.942633           0.594776E-3       -0.942633
        2.252252           0.597043E-3       -0.942592           0.597043E-3       -0.942592
        2.262262           0.599339E-3       -0.942560           0.599339E-3       -0.942560
        2.272272           0.601653E-3       -0.942527           0.601653E-3       -0.942527
        2.282282           0.603962E-3       -0.942474           0.603962E-3       -0.942474
        2.292292           0.606319E-3       -0.942444           0.606319E-3       -0.942444
        2.302302           0.608692E-3       -0.942411           0.608691E-3       -0.942411
        2.312312           0.611072E-3       -0.942368           0.611072E-3       -0.942368
        2.322322           0.613483E-3       -0.942333           0.613483E-3       -0.942333
        2.332332           0.615907E-3       -0.942293           0.615907E-3       -0.942293
        2.342342           0.618354E-3       -0.942254           0.618354E-3       -0.942254
        2.352352           0.620833E-3       -0.942222           0.620833E-3       -0.942222
        2.362362           0.623327E-3       -0.942187           0.623326E-3       -0.942187
        2.372372           0.625814E-3       -0.942129           0.625814E-3       -0.942129
        2.382382           0.628379E-3       -0.942114           0.628379E-3       -0.942114
        2.392392           0.630907E-3       -0.942053           0.630907E-3       -0.942053
        2.402402           0.633506E-3       -0.942029           0.633506E-3       -0.942029
        2.412412           0.636115E-3       -0.941994           0.636115E-3       -0.941994
        2.422422           0.638717E-3       -0.941937           0.638717E-3       -0.941937
        2.432432           0.641386E-3       -0.941911           0.641386E-3       -0.941911
        2.442442           0.644074E-3       -0.941881           0.644074E-3       -0.941881
        2.452452           0.646741E-3       -0.941818           0.646741E-3       -0.941818
        2.462462           0.649482E-3       -0.941790           0.649482E-3       -0.941790
        2.472472           0.652213E-3       -0.941736           0.652213E-3       -0.941736
        2.482482           0.654996E-3       -0.941701           0.654996E-3       -0.941701
        2.492492           0.657823E-3       -0.941679           0.657823E-3       -0.941679
        2.502502           0.660620E-3       -0.941615           0.660620E-3       -0.941615
        2.512512           0.663467E-3       -0.941567           0.663467E-3       -0.941567
        2.522522           0.666372E-3       -0.941542           0.666372E-3       -0.941542
        2.532532           0.669270E-3       -0.941491           0.669270E-3       -0.941491
        2.542542           0.672202E-3       -0.941443           0.672202E-3       -0.941443
        2.552552           0.675174E-3       -0.941403           0.675174E-3       -0.941403
        2.562562           0.678183E-3       -0.941369           0.678183E-3       -0.941369
        2.572572           0.681172E-3       -0.941298           0.681172E-3       -0.941298
        2.582582           0.684256E-3       -0.941272           0.684255E-3       -0.941272
        2.592592           0.687325E-3       -0.941215           0.687325E-3       -0.941215
        2.602602           0.690417E-3       -0.941150           0.690417E-3       -0.941150
        2.612612           0.693601E-3       -0.941127           0.693601E-3       -0.941127
        2.622622           0.696763E-3       -0.941066           0.696763E-3       -0.941066
        2.632632           0.699989E-3       -0.941025           0.699989E-3       -0.941025
        2.642642           0.703269E-3       -0.940998           0.703269E-3       -0.940998
        2.652653           0.706496E-3       -0.940911           0.706495E-3       -0.940910
        2.662663           0.709847E-3       -0.940883           0.709846E-3       -0.940883
        2.672673           0.713185E-3       -0.940821           0.713185E-3       -0.940822
        2.682683           0.716613E-3       -0.940795           0.716613E-3       -0.940795
        2.692693           0.720035E-3       -0.940741           0.720035E-3       -0.940741
        2.702703           0.723482E-3       -0.940677           0.723481E-3       -0.940677
        2.712713           0.727028E-3       -0.940652           0.727028E-3       -0.940652
        2.722723           0.730545E-3       -0.940582           0.730545E-3       -0.940582
        2.732733           0.734134E-3       -0.940532           0.734134E-3       -0.940532
        2.742743           0.737778E-3       -0.940491           0.737778E-3       -0.940491
        2.752753           0.741417E-3       -0.940419           0.741417E-3       -0.940419
        2.762763           0.745174E-3       -0.940395           0.745174E-3       -0.940395
        2.772773           0.748917E-3       -0.940333           0.748917E-3       -0.940333
        2.782783           0.752709E-3       -0.940274           0.752709E-3       -0.940274
        2.792793           0.756577E-3       -0.940233           0.756577E-3       -0.940233
        2.802803           0.760469E-3       -0.940179           0.760469E-3       -0.940179
        2.812813           0.764400E-3       -0.940118           0.764400E-3       -0.940118
        2.822823           0.768371E-3       -0.940051           0.768371E-3       -0.940051
        2.832833           0.772437E-3       -0.940013           0.772437E-3       -0.940013
        2.842843           0.776524E-3       -0.939955           0.776524E-3       -0.939955
        2.852853           0.780665E-3       -0.939898           0.780665E-3       -0.939898
        2.862863           0.784860E-3       -0.939842           0.784860E-3       -0.939842
        2.872873           0.789119E-3       -0.939790           0.789119E-3       -0.939790
        2.882883           0.793426E-3       -0.939735           0.793426E-3       -0.939735
        2.892893           0.797817E-3       -0.939694           0.797817E-3       -0.939694
        2.902903           0.802180E-3       -0.939603           0.802180E-3       -0.939603
        2.912913           0.806698E-3       -0.939568           0.806698E-3       -0.939568
        2.922923           0.811247E-3       -0.939515           0.811247E-3       -0.939515
        2.932933           0.815830E-3       -0.939445           0.815830E-3       -0.939445
        2.942943           0.820491E-3       -0.939383           0.820491E-3       -0.939383
        2.952953           0.825238E-3       -0.939332           0.825238E-3       -0.939332
        2.962963           0.830017E-3       -0.939262           0.830017E-3       -0.939262
        2.972973           0.834912E-3       -0.939218           0.834912E-3       -0.939218
        2.982983           0.839810E-3       -0.939136           0.839810E-3       -0.939136
        2.992993           0.844808E-3       -0.939069           0.844808E-3       -0.939069
        3.003003           0.849918E-3       -0.939024           0.849918E-3       -0.939024
        3.013013           0.855073E-3       -0.938962           0.855073E-3       -0.938962
        3.023023           0.860298E-3       -0.938895           0.860298E-3       -0.938895
        3.033033           0.865612E-3       -0.938830           0.865612E-3       -0.938830
        3.043043           0.871019E-3       -0.938775           0.871019E-3       -0.938775
        3.053053           0.876493E-3       -0.938710           0.876493E-3       -0.938710
        3.063063           0.882016E-3       -0.938625           0.882016E-3       -0.938625
        3.073073           0.887667E-3       -0.938562           0.887667E-3       -0.938562
        3.083083           0.893410E-3       -0.938499           0.893410E-3       -0.938499
        3.093093           0.899213E-3       -0.938419           0.899212E-3       -0.938419
        3.103103           0.905152E-3       -0.938360           0.905152E-3       -0.938360
        3.113113           0.911156E-3       -0.938284           0.911156E-3       -0.938284
        3.123123           0.917336E-3       -0.938247           0.917336E-3       -0.938247
        3.133133           0.923495E-3       -0.938146           0.923496E-3       -0.938146
        3.143143           0.929819E-3       -0.938074           0.929818E-3       -0.938074
        3.153153           0.936319E-3       -0.938037           0.936319E-3       -0.938037
        3.163163           0.942811E-3       -0.937939           0.942811E-3       -0.937939
        3.173173           0.949477E-3       -0.937870           0.949476E-3       -0.937870
        3.183183           0.956251E-3       -0.937795           0.956251E-3       -0.937795
        3.193193           0.963137E-3       -0.937716           0.963137E-3       -0.937716
        3.203203           0.970191E-3       -0.937657           0.970191E-3       -0.937657
        3.213213           0.977327E-3       -0.937575           0.977327E-3       -0.937575
        3.223223           0.984610E-3       -0.937499           0.984610E-3       -0.937499
        3.233233           0.992014E-3       -0.937416           0.992014E-3       -0.937415
        3.243243           0.999603E-3       -0.937352           0.999603E-3       -0.937352
        3.253253           0.001007          -0.937274           0.001007          -0.937274
        3.263263           0.001015          -0.937199           0.001015          -0.937199
        3.273273           0.001023          -0.937128           0.001023          -0.937128
        3.283283           0.001031          -0.937033           0.001031          -0.937033
        3.293293           0.001040          -0.936956           0.001040          -0.936956
        3.303303           0.001048          -0.936888           0.001048          -0.936888
        3.313313           0.001057          -0.936792           0.001057          -0.936792
        3.323323           0.001066          -0.936712           0.001066          -0.936712
        3.333333           0.001075          -0.936634           0.001075          -0.936634
        3.343343           0.001084          -0.936529           0.001084          -0.936529
        3.353353           0.001093          -0.936467           0.001093          -0.936467
        3.363363           0.001103          -0.936373           0.001103          -0.936373
        3.373373           0.001113          -0.936280           0.001113          -0.936280
        3.383383           0.001123          -0.936206           0.001123          -0.936206
        3.393393           0.001133          -0.936071           0.001133          -0.936071
        3.403403           0.001144          -0.936008           0.001144          -0.936008
        3.413413           0.001155          -0.935923           0.001155          -0.935923
        3.423423           0.001166          -0.935811           0.001166          -0.935811
        3.433433           0.001177          -0.935723           0.001177          -0.935723
        3.443443           0.001188          -0.935619           0.001188          -0.935619
        3.453453           0.001200          -0.935521           0.001200          -0.935521
        3.463463           0.001212          -0.935435           0.001212          -0.935435
        3.473473           0.001225          -0.935323           0.001225          -0.935323
        3.483483           0.001238          -0.935222           0.001238          -0.935222
        3.493493           0.001251          -0.935126           0.001251          -0.935126
        3.503503           0.001264          -0.935021           0.001264          -0.935021
        3.513513           0.001278          -0.934909           0.001278          -0.934909
        3.523524           0.001292          -0.934804           0.001292          -0.934804
        3.533533           0.001306          -0.934695           0.001306          -0.934695
        3.543543           0.001321          -0.934595           0.001321          -0.934595
        3.553553           0.001337          -0.934486           0.001337          -0.934486
        3.563564           0.001352          -0.934369           0.001352          -0.934369
        3.573573           0.001369          -0.934263           0.001369          -0.934262
        3.583583           0.001385          -0.934143           0.001385          -0.934143
        3.593593           0.001403          -0.934024           0.001403          -0.934024
        3.603603           0.001420          -0.933918           0.001420          -0.933918
        3.613613           0.001439          -0.933795           0.001439          -0.933795
        3.623623           0.001457          -0.933680           0.001457          -0.933680
        3.633634           0.001477          -0.933558           0.001477          -0.933558
        3.643643           0.001497          -0.933436           0.001497          -0.933436
        3.653653           0.001517          -0.933295           0.001517          -0.933295
        3.663663           0.001539          -0.933187           0.001539          -0.933187
        3.673674           0.001561          -0.933035           0.001561          -0.933035
        3.683683           0.001584          -0.932911           0.001584          -0.932911
        3.693693           0.001607          -0.932779           0.001607          -0.932779
        3.703704           0.001631          -0.932633           0.001631          -0.932633
        3.713714           0.001657          -0.932504           0.001657          -0.932503
        3.723723           0.001683          -0.932367           0.001683          -0.932367
        3.733733           0.001710          -0.932197           0.001710          -0.932197
        3.743744           0.001738          -0.932074           0.001738          -0.932074
        3.753754           0.001767          -0.931903           0.001767          -0.931903
        3.763763           0.001797          -0.931751           0.001797          -0.931751
        3.773773           0.001829          -0.931603           0.001829          -0.931603
        3.783784           0.001861          -0.931440           0.001861          -0.931440
        3.793794           0.001895          -0.931294           0.001895          -0.931294
        3.803803           0.001930          -0.931118           0.001930          -0.931118
        3.813814           0.001967          -0.930971           0.001967          -0.930971
        3.823824           0.002005          -0.930788           0.002005          -0.930788
        3.833834           0.002045          -0.930596           0.002045          -0.930595
        3.843843           0.002087          -0.930445           0.002087          -0.930445
        3.853854           0.002131          -0.930248           0.002131          -0.930248
        3.863864           0.002176          -0.930082           0.002176          -0.930082
        3.873873           0.002224          -0.929872           0.002224          -0.929872
        3.883883           0.002273          -0.929678           0.002273          -0.929678
        3.893894           0.002325          -0.929497           0.002325          -0.929497
        3.903904           0.002380          -0.929267           0.002380          -0.929267
        3.913913           0.002437          -0.929053           0.002437          -0.929053
        3.923924           0.002498          -0.928852           0.002498          -0.928852
        3.933934           0.002561          -0.928614           0.002561          -0.928614
        3.943944           0.002627          -0.928394           0.002627          -0.928394
        3.953954           0.002697          -0.928163           0.002697          -0.928163
        3.963964           0.002771          -0.927917           0.002771          -0.927917
        3.973974           0.002849          -0.927672           0.002849          -0.927672
        3.983984           0.002932          -0.927424           0.002932          -0.927424
        3.993994           0.003019          -0.927157           0.003019          -0.927156
        4.004004           0.003111          -0.926889           0.003111          -0.926889
        4.014014           0.003209          -0.926620           0.003209          -0.926620
        4.024024           0.003312          -0.926335           0.003312          -0.926335
        4.034034           0.003423          -0.926040           0.003423          -0.926040
        4.044044           0.003540          -0.925731           0.003540          -0.925731
        4.054054           0.003665          -0.925435           0.003665          -0.925435
        4.064064           0.003798          -0.925107           0.003798          -0.925107
        4.074074           0.003940          -0.924774           0.003940          -0.924774
        4.084084           0.004093          -0.924435           0.004093          -0.924435
        4.094094           0.004256          -0.924083           0.004256          -0.924083
        4.104104           0.004431          -0.923717           0.004431          -0.923717
        4.114114           0.004620          -0.923338           0.004620          -0.923338
        4.124124           0.004822          -0.922926           0.004822          -0.922926
        4.134134           0.005041          -0.922538           0.005041          -0.922538
        4.144144           0.005278          -0.922112           0.005278          -0.922112
        4.154154           0.005533          -0.921657           0.005533          -0.921657
        4.164164           0.005811          -0.921206           0.005811          -0.921206
        4.174174           0.006113          -0.920719           0.006113          -0.920719
        4.184184           0.006442          -0.920236           0.006442          -0.920236
        4.194194           0.006801          -0.919718           0.006801          -0.919718
        4.204204           0.007193          -0.919173           0.007193          -0.919173
        4.214214           0.007624          -0.918620           0.007624          -0.918620
        4.224224           0.008098          -0.918034           0.008098          -0.918033
        4.234234           0.008619          -0.917432           0.008619          -0.917432
        4.244244           0.009196          -0.916820           0.009196          -0.916820
        4.254254           0.009834          -0.916159           0.009834          -0.916159
        4.264264           0.010543          -0.915502           0.010543          -0.915502
        4.274274           0.011331          -0.914801           0.011331          -0.914801
        4.284284           0.012211          -0.914089           0.012211          -0.914089
        4.294294           0.013194          -0.913372           0.013194          -0.913371
        4.304304           0.014296          -0.912636           0.014296          -0.912636
        4.314314           0.015533          -0.911914           0.015533          -0.911914
        4.324324           0.016923          -0.911215           0.016923          -0.911215
        4.334334           0.018487          -0.910536           0.018487          -0.910536
        4.344344           0.020245          -0.909915           0.020245          -0.909915
        4.354354           0.022220          -0.909385           0.022220          -0.909385
        4.364364           0.024432          -0.908991           0.024432          -0.908992
        4.374374           0.026897          -0.908772           0.026897          -0.908772
        4.384384           0.029622          -0.908822           0.029622          -0.908822
        4.394394           0.032599          -0.909208           0.032599          -0.909208
        4.404404           0.035795          -0.910031           0.035795          -0.910031
        4.414414           0.039143          -0.911398           0.039143          -0.911398
        4.424424           0.042533          -0.913411           0.042533          -0.913411
        4.434434           0.045801          -0.916144           0.045801          -0.916144
        4.444444           0.048737          -0.919620           0.048737          -0.919620
        4.454454           0.051107          -0.923796           0.051107          -0.923796
        4.464464           0.052683          -0.928528           0.052683          -0.928527
        4.474474           0.053294          -0.933566           0.053294          -0.933566
        4.484484           0.052874          -0.938648           0.052874          -0.938648
        4.494494           0.051470          -0.943454           0.051470          -0.943454
        4.504504           0.049237          -0.947742           0.049237          -0.947742
        4.514514           0.046397          -0.951367           0.046397          -0.951367
        4.524524           0.043185          -0.954233           0.043185          -0.954233
        4.534534           0.039817          -0.956365           0.039817          -0.956365
        4.544544           0.036466          -0.957850           0.036466          -0.957850
        4.554554           0.033249          -0.958749           0.033249          -0.958749
        4.564565           0.030242          -0.959205           0.030242          -0.959205
        4.574574           0.027483          -0.959291           0.027483          -0.959290
        4.584584           0.024983          -0.959112           0.024983          -0.959112
        4.594594           0.022738          -0.958734           0.022737          -0.958734
        4.604605           0.020732          -0.958210           0.020732          -0.958210
        4.614614           0.018947          -0.957597           0.018947          -0.957596
        4.624624           0.017361          -0.956907           0.017361          -0.956907
        4.634634           0.015951          -0.956189           0.015951          -0.956189
        4.644644           0.014699          -0.955449           0.014699          -0.955449
        4.654655           0.013584          -0.954693           0.013584          -0.954693
        4.664664           0.012591          -0.953958           0.012591          -0.953958
        4.674675           0.011703          -0.953220           0.011703          -0.953220
        4.684684           0.010910          -0.952516           0.010910          -0.952516
        4.694695           0.010198          -0.951821           0.010198          -0.951821
        4.704704           0.009558          -0.951126           0.009558          -0.951126
        4.714715           0.008982          -0.950486           0.008982          -0.950486
        4.724724           0.008461          -0.949852           0.008461          -0.949852
        4.734735           0.007990          -0.949249           0.007990          -0.949249
        4.744744           0.007563          -0.948671           0.007563          -0.948671
        4.754755           0.007174          -0.948105           0.007174          -0.948105
        4.764764           0.006821          -0.947567           0.006821          -0.947567
        4.774775           0.006498          -0.947047           0.006498          -0.947047
        4.784785           0.006202          -0.946525           0.006202          -0.946525
        4.794795           0.005931          -0.946039           0.005931          -0.946039
        4.804804           0.005683          -0.945574           0.005683          -0.945574
        4.814815           0.005455          -0.945119           0.005455          -0.945119
        4.824825           0.005244          -0.944677           0.005244          -0.944677
        4.834835           0.005051          -0.944256           0.005051          -0.944256
        4.844844           0.004871          -0.943826           0.004871          -0.943826
        4.854855           0.004706          -0.943427           0.004706          -0.943427
        4.864865           0.004552          -0.943038           0.004552          -0.943037
        4.874875           0.004410          -0.942657           0.004410          -0.942657
        4.884884           0.004278          -0.942288           0.004278          -0.942288
        4.894895           0.004156          -0.941913           0.004156          -0.941913
        4.904905           0.004042          -0.941557           0.004042          -0.941557
        4.914915           0.003936          -0.941214           0.003936          -0.941214
        4.924924           0.003837          -0.940870           0.003837          -0.940869
        4.934935           0.003746          -0.940545           0.003746          -0.940545
        4.944945           0.003660          -0.940196           0.003660          -0.940196
        4.954955           0.003580          -0.939871           0.003580          -0.939871
        4.964964           0.003506          -0.939567           0.003506          -0.939567
        4.974975           0.003436          -0.939253           0.003436          -0.939253
        4.984985           0.003371          -0.938924           0.003371          -0.938924
        4.994995           0.003311          -0.938649           0.003311          -0.938649
        5.005005           0.003255          -0.938341           0.003255          -0.938341
        5.015015           0.003202          -0.938064           0.003202          -0.938064
        5.025025           0.003153          -0.937767           0.003153          -0.937767
        5.035035           0.003108          -0.937485           0.003108          -0.937485
        5.045045           0.003066          -0.937218           0.003066          -0.937218
        5.055055           0.003027          -0.936941           0.003027          -0.936941
        5.065065           0.002990          -0.936668           0.002990          -0.936668
        5.075075           0.002957          -0.936414           0.002957          -0.936414
        5.085085           0.002926          -0.936154           0.002926          -0.936154
        5.095095           0.002897          -0.935888           0.002897          -0.935888
        5.105105           0.002871          -0.935632           0.002871          -0.935632
        5.115115           0.002847          -0.935390           0.002847          -0.935390
        5.125125           0.002825          -0.935118           0.002825          -0.935118
        5.135135           0.002806          -0.934879           0.002806          -0.934879
        5.145144           0.002788          -0.934639           0.002788          -0.934639
        5.155155           0.002772          -0.934376           0.002772          -0.934376
        5.165165           0.002759          -0.934134           0.002759          -0.934133
        5.175175           0.002747          -0.933898           0.002747          -0.933898
        5.185184           0.002737          -0.933623           0.002737          -0.933623
        5.195195           0.002729          -0.933407           0.002729          -0.933407
        5.205205           0.002723          -0.933157           0.002723          -0.933157
        5.215215           0.002718          -0.932904           0.002718          -0.932904
        5.225225           0.002715          -0.932673           0.002715          -0.932673
        5.235235           0.002714          -0.932426           0.002714          -0.932426
        5.245245           0.002715          -0.932176           0.002715          -0.932176
        5.255255           0.002717          -0.931948           0.002717          -0.931948
        5.265265           0.002721          -0.931667           0.002721          -0.931667
        5.275275           0.002727          -0.931451           0.002727          -0.931451
        5.285285           0.002735          -0.931212           0.002735          -0.931212
        5.295295           0.002745          -0.930957           0.002745          -0.930957
        5.305305           0.002757          -0.930720           0.002757          -0.930720
        5.315315           0.002770          -0.930459           0.002770          -0.930459
        5.325325           0.002786          -0.930222           0.002786          -0.930222
        5.335335           0.002804          -0.929983           0.002804          -0.929983
        5.345345           0.002824          -0.929721           0.002824          -0.929721
        5.355355           0.002847          -0.929477           0.002847          -0.929477
        5.365365           0.002871          -0.929218           0.002871          -0.929218
        5.375375           0.002899          -0.928972           0.002899          -0.928972
        5.385385           0.002929          -0.928701           0.002929          -0.928701
        5.395395           0.002962          -0.928458           0.002962          -0.928458
        5.405405           0.002998          -0.928173           0.002998          -0.928172
        5.415415           0.003038          -0.927915           0.003038          -0.927915
        5.425425           0.003081          -0.927665           0.003081          -0.927665
        5.435435           0.003127          -0.927368           0.003127          -0.927368
        5.445445           0.003178          -0.927126           0.003178          -0.927125
        5.455455           0.003233          -0.926831           0.003233          -0.926831
        5.465465           0.003293          -0.926530           0.003293          -0.926530
        5.475475           0.003358          -0.926259           0.003358          -0.926259
        5.485485           0.003428          -0.925947           0.003428          -0.925947
        5.495495           0.003505          -0.925638           0.003505          -0.925638
        5.505505           0.003588          -0.925360           0.003588          -0.925360
        5.515515           0.003679          -0.925024           0.003679          -0.925024
        5.525526           0.003778          -0.924730           0.003778          -0.924730
        5.535535           0.003886          -0.924394           0.003886          -0.924394
        5.545545           0.004003          -0.924066           0.004003          -0.924066
        5.555555           0.004132          -0.923728           0.004132          -0.923728
        5.565566           0.004274          -0.923385           0.004274          -0.923384
        5.575575           0.004429          -0.923033           0.004429          -0.923033
        5.585585           0.004599          -0.922662           0.004599          -0.922662
        5.595595           0.004787          -0.922303           0.004787          -0.922303
        5.605606           0.004994          -0.921933           0.004994          -0.921933
        5.615615           0.005223          -0.921521           0.005223          -0.921521
        5.625625           0.005477          -0.921130           0.005477          -0.921130
        5.635635           0.005760          -0.920727           0.005760          -0.920727
        5.645645           0.006074          -0.920306           0.006074          -0.920306
        5.655655           0.006425          -0.919894           0.006425          -0.919894
        5.665665           0.006818          -0.919459           0.006818          -0.919459
        5.675675           0.007258          -0.919038           0.007258          -0.919038
        5.685685           0.007752          -0.918604           0.007752          -0.918604
        5.695695           0.008308          -0.918178           0.008308          -0.918178
        5.705705           0.008933          -0.917771           0.008933          -0.917771
        5.715715           0.009635          -0.917367           0.009635          -0.917367
        5.725725           0.010426          -0.917029           0.010426          -0.917029
        5.735735           0.011311          -0.916712           0.011311          -0.916712
        5.745746           0.012299          -0.916459           0.012299          -0.916459
        5.755755           0.013394          -0.916332           0.013394          -0.916332
        5.765765           0.014592          -0.916331           0.014592          -0.916331
        5.775775           0.015884          -0.916498           0.015884          -0.916498
        5.785786           0.017245          -0.916876           0.017245          -0.916876
        5.795795           0.018632          -0.917503           0.018632          -0.917503
        5.805805           0.019985          -0.918440           0.019985          -0.918440
        5.815815           0.021220          -0.919662           0.021220          -0.919662
        5.825826           0.022241          -0.921183           0.022241          -0.921183
        5.835835           0.022955          -0.922944           0.022955          -0.922944
        5.845845           0.023285          -0.924858           0.023285          -0.924857
        5.855855           0.023195          -0.926816           0.023195          -0.926816
        5.865866           0.022696          -0.928662           0.022696          -0.928662
        5.875876           0.021843          -0.930322           0.021843          -0.930321
        5.885885           0.020724          -0.931734           0.020724          -0.931734
        5.895895           0.019435          -0.932820           0.019435          -0.932820
        5.905906           0.018066          -0.933602           0.018066          -0.933601
        5.915915           0.016694          -0.934131           0.016694          -0.934131
        5.925925           0.015369          -0.934398           0.015369          -0.934398
        5.935935           0.014125          -0.934471           0.014125          -0.934470
        5.945946           0.012981          -0.934419           0.012981          -0.934419
        5.955956           0.011942          -0.934212           0.011942          -0.934212
        5.965966           0.011008          -0.933927           0.011008          -0.933927
        5.975976           0.010174          -0.933594           0.010174          -0.933594
        5.985986           0.009432          -0.933209           0.009431          -0.933209
        5.995996           0.008772          -0.932794           0.008772          -0.932794
        6.006006           0.008187          -0.932367           0.008187          -0.932367
        6.016016           0.007667          -0.931931           0.007667          -0.931931
        6.026026           0.007205          -0.931491           0.007205          -0.931491
        6.036036           0.006794          -0.931049           0.006794          -0.931049
        6.046046           0.006428          -0.930600           0.006428          -0.930600
        6.056056           0.006101          -0.930181           0.006101          -0.930181
        6.066066           0.005808          -0.929731           0.005808          -0.929731
        6.076076           0.005546          -0.929333           0.005546          -0.929333
        6.086086           0.005310          -0.928908           0.005310          -0.928908
        6.096096           0.005097          -0.928508           0.005097          -0.928508
        6.106106           0.004906          -0.928132           0.004906          -0.928132
        6.116116           0.004732          -0.927741           0.004732          -0.927741
        6.126126           0.004575          -0.927351           0.004575          -0.927351
        6.136136           0.004433          -0.927011           0.004433          -0.927011
        6.146146           0.004303          -0.926619           0.004303          -0.926619
        6.156156           0.004185          -0.926276           0.004185          -0.926276
        6.166166           0.004078          -0.925931           0.004078          -0.925931
        6.176176           0.003979          -0.925591           0.003979          -0.925591
        6.186186           0.003890          -0.925258           0.003890          -0.925258
        6.196196           0.003808          -0.924931           0.003808          -0.924931
        6.206206           0.003732          -0.924594           0.003732          -0.924594
        6.216216           0.003663          -0.924278           0.003663          -0.924278
        6.226226           0.003600          -0.923974           0.003600          -0.923974
        6.236236           0.003541          -0.923652           0.003541          -0.923652
        6.246246           0.003488          -0.923340           0.003488          -0.923340
        6.256256           0.003439          -0.923050           0.003439          -0.923050
        6.266266           0.003393          -0.922728           0.003393          -0.922728
        6.276276           0.003352          -0.922451           0.003352          -0.922451
        6.286286           0.003314          -0.922159           0.003314          -0.922159
        6.296296           0.003278          -0.921849           0.003278          -0.921849
        6.306306           0.003246          -0.921564           0.003246          -0.921564
        6.316316           0.003216          -0.921272           0.003216          -0.921273
        6.326326           0.003189          -0.920980           0.003189          -0.920980
        6.336336           0.003164          -0.920734           0.003164          -0.920734
        6.346346           0.003141          -0.920426           0.003141          -0.920426
        6.356356           0.003120          -0.920153           0.003120          -0.920153
        6.366366           0.003101          -0.919883           0.003101          -0.919883
        6.376376           0.003084          -0.919594           0.003084          -0.919594
        6.386386           0.003068          -0.919323           0.003068          -0.919323
        6.396396           0.003054          -0.919051           0.003054          -0.919051
        6.406406           0.003041          -0.918773           0.003041          -0.918773
        6.416416           0.003029          -0.918531           0.003029          -0.918531
        6.426426           0.003019          -0.918254           0.003019          -0.918254
        6.436436           0.003010          -0.917982           0.003010          -0.917982
        6.446446           0.003002          -0.917727           0.003002          -0.917727
        6.456456           0.002995          -0.917448           0.002995          -0.917448
        6.466466           0.002989          -0.917182           0.002989          -0.917182
        6.476476           0.002984          -0.916914           0.002984          -0.916914
        6.486486           0.002980          -0.916648           0.002980          -0.916648
        6.496496           0.002977          -0.916386           0.002977          -0.916386
        6.506506           0.002974          -0.916126           0.002974          -0.916126
        6.516516           0.002972          -0.915868           0.002972          -0.915867
        6.526526           0.002971          -0.915602           0.002971          -0.915602
        6.536536           0.002971          -0.915329           0.002971          -0.915329
        6.546546           0.002972          -0.915067           0.002972          -0.915067
        6.556556           0.002973          -0.914797           0.002973          -0.914797
        6.566566           0.002974          -0.914528           0.002974          -0.914528
        6.576576           0.002976          -0.914259           0.002976          -0.914259
        6.586586           0.002979          -0.913992           0.002979          -0.913992
        6.596596           0.002983          -0.913722           0.002983          -0.913722
        6.606606           0.002987          -0.913445           0.002987          -0.913445
        6.616616           0.002991          -0.913180           0.002991          -0.913180
        6.626626           0.002996          -0.912908           0.002996          -0.912908
        6.636636           0.003001          -0.912634           0.003001          -0.912634
        6.646646           0.003007          -0.912367           0.003007          -0.912367
        6.656656           0.003014          -0.912093           0.003014          -0.912093
        6.666666           0.003020          -0.911830           0.003020          -0.911830
        6.676676           0.003028          -0.911568           0.003028          -0.911568
        6.686686           0.003035          -0.911295           0.003035          -0.911295
        6.696696           0.003043          -0.911023           0.003043          -0.911023
        6.706707           0.003052          -0.910750           0.003052          -0.910750
        6.716716           0.003061          -0.910481           0.003061          -0.910481
        6.726726           0.003070          -0.910209           0.003070          -0.910209
        6.736736           0.003079          -0.909928           0.003079          -0.909928
        6.746747           0.003089          -0.909656           0.003089          -0.909656
        6.756756           0.003100          -0.909378           0.003100          -0.909378
        6.766766           0.003110          -0.909103           0.003110          -0.909103
        6.776776           0.003122          -0.908838           0.003122          -0.908838
        6.786787           0.003133          -0.908550           0.003133          -0.908550
        6.796796           0.003144          -0.908269           0.003144          -0.908268
        6.806807           0.003156          -0.907989           0.003156          -0.907989
        6.816816           0.003169          -0.907707           0.003169          -0.907707
        6.826826           0.003181          -0.907420           0.003181          -0.907420
        6.836837           0.003194          -0.907118           0.003194          -0.907118
        6.846846           0.003208          -0.906828           0.003208          -0.906828
        6.856857           0.003221          -0.906543           0.003221          -0.906543
        6.866867           0.003235          -0.906251           0.003235          -0.906251
        6.876876           0.003249          -0.905961           0.003249          -0.905961
        6.886887           0.003264          -0.905676           0.003264          -0.905676
        6.896896           0.003279          -0.905383           0.003279          -0.905383
        6.906906           0.003294          -0.905092           0.003294          -0.905092
        6.916917           0.003309          -0.904804           0.003309          -0.904804
        6.926927           0.003325          -0.904510           0.003325          -0.904510
        6.936936           0.003341          -0.904212           0.003341          -0.904211
        6.946947           0.003358          -0.903921           0.003358          -0.903921
        6.956956           0.003374          -0.903622           0.003374          -0.903622
        6.966967           0.003391          -0.903323           0.003391          -0.903323
        6.976976           0.003408          -0.903012           0.003408          -0.903012
        6.986986           0.003426          -0.902708           0.003426          -0.902708
        6.996997           0.003444          -0.902393           0.003444          -0.902393
        7.007007           0.003461          -0.902066           0.003461          -0.902066
        7.017016           0.003480          -0.901754           0.003480          -0.901754
        7.027027           0.003498          -0.901433           0.003498          -0.901433
        7.037036           0.003517          -0.901114           0.003517          -0.901114
        7.047047           0.003537          -0.900800           0.003537          -0.900800
        7.057057           0.003556          -0.900471           0.003556          -0.900471
        7.067066           0.003576          -0.900149           0.003576          -0.900149
        7.077077           0.003596          -0.899822           0.003596          -0.899822
        7.087087           0.003617          -0.899496           0.003617          -0.899496
        7.097096           0.003637          -0.899174           0.003637          -0.899174
        7.107107           0.003658          -0.898829           0.003658          -0.898829
        7.117116           0.003680          -0.898501           0.003680          -0.898501
        7.127127           0.003702          -0.898177           0.003702          -0.898176
        7.137137           0.003724          -0.897850           0.003724          -0.897850
        7.147147           0.003746          -0.897520           0.003746          -0.897520
        7.157157           0.003769          -0.897188           0.003769          -0.897188
        7.167167           0.003792          -0.896860           0.003792          -0.896860
        7.177176           0.003815          -0.896507           0.003815          -0.896507
        7.187187           0.003839          -0.896177           0.003839          -0.896177
        7.197196           0.003862          -0.895827           0.003862          -0.895827
        7.207206           0.003887          -0.895481           0.003887          -0.895481
        7.217217           0.003911          -0.895139           0.003911          -0.895139
        7.227227           0.003936          -0.894780           0.003936          -0.894780
        7.237237           0.003961          -0.894406           0.003961          -0.894406
        7.247247           0.003987          -0.894047           0.003987          -0.894047
        7.257257           0.004013          -0.893684           0.004013          -0.893684
        7.267267           0.004039          -0.893320           0.004039          -0.893320
        7.277277           0.004066          -0.892957           0.004066          -0.892956
        7.287286           0.004093          -0.892588           0.004093          -0.892588
        7.297297           0.004120          -0.892194           0.004120          -0.892194
        7.307307           0.004148          -0.891837           0.004148          -0.891837
        7.317317           0.004176          -0.891443           0.004176          -0.891443
        7.327327           0.004204          -0.891080           0.004204          -0.891080
        7.337337           0.004233          -0.890711           0.004233          -0.890711
        7.347347           0.004262          -0.890293           0.004262          -0.890293
        7.357357           0.004292          -0.889924           0.004292          -0.889924
        7.367367           0.004322          -0.889534           0.004322          -0.889534
        7.377377           0.004352          -0.889133           0.004352          -0.889133
        7.387387           0.004383          -0.888745           0.004383          -0.888745
        7.397398           0.004414          -0.888328           0.004414          -0.888328
        7.407407           0.004445          -0.887929           0.004445          -0.887929
        7.417417           0.004477          -0.887527           0.004477          -0.887527
        7.427427           0.004510          -0.887120           0.004510          -0.887120
        7.437437           0.004542          -0.886692           0.004542          -0.886692
        7.447447           0.004575          -0.886283           0.004575          -0.886283
        7.457457           0.004609          -0.885868           0.004609          -0.885868
        7.467467           0.004643          -0.885447           0.004643          -0.885447
        7.477477           0.004678          -0.885026           0.004678          -0.885026
        7.487487           0.004713          -0.884587           0.004713          -0.884587
        7.497497           0.004748          -0.884164           0.004748          -0.884164
        7.507507           0.004784          -0.883727           0.004784          -0.883727
        7.517517           0.004821          -0.883289           0.004821          -0.883289
        7.527527           0.004857          -0.882849           0.004857          -0.882849
        7.537537           0.004895          -0.882397           0.004895          -0.882397
        7.547547           0.004933          -0.881957           0.004933          -0.881957
        7.557557           0.004971          -0.881496           0.004971          -0.881496
        7.567567           0.005010          -0.881036           0.005010          -0.881036
        7.577577           0.005049          -0.880597           0.005049          -0.880597
        7.587587           0.005089          -0.880123           0.005089          -0.880123
        7.597597           0.005130          -0.879645           0.005130          -0.879645
        7.607607           0.005171          -0.879192           0.005171          -0.879192
        7.617618           0.005212          -0.878712           0.005212          -0.878712
        7.627627           0.005255          -0.878250           0.005255          -0.878250
        7.637637           0.005297          -0.877745           0.005297          -0.877745
        7.647647           0.005341          -0.877273           0.005341          -0.877273
        7.657657           0.005385          -0.876797           0.005385          -0.876797
        7.667667           0.005429          -0.876279           0.005429          -0.876279
        7.677677           0.005474          -0.875800           0.005474          -0.875799
        7.687687           0.005520          -0.875287           0.005520          -0.875287
        7.697698           0.005566          -0.874783           0.005566          -0.874783
        7.707707           0.005613          -0.874281           0.005613          -0.874281
        7.717717           0.005660          -0.873746           0.005660          -0.873746
        7.727727           0.005709          -0.873235           0.005709          -0.873235
        7.737737           0.005758          -0.872710           0.005758          -0.872710
        7.747747           0.005807          -0.872178           0.005807          -0.872178
        7.757757           0.005858          -0.871642           0.005858          -0.871642
        7.767767           0.005908          -0.871085           0.005908          -0.871085
        7.777778           0.005960          -0.870559           0.005960          -0.870559
        7.787787           0.006013          -0.869995           0.006013          -0.869995
        7.797797           0.006066          -0.869427           0.006066          -0.869427
        7.807807           0.006120          -0.868893           0.006120          -0.868893
        7.817817           0.006174          -0.868304           0.006174          -0.868304
        7.827827           0.006230          -0.867747           0.006230          -0.867747
        7.837838           0.006287          -0.867175           0.006287          -0.867175
        7.847847           0.006343          -0.866578           0.006343          -0.866578
        7.857858           0.006402          -0.866007           0.006402          -0.866008
        7.867867           0.006460          -0.865411           0.006460          -0.865411
        7.877877           0.006520          -0.864809           0.006520          -0.864809
        7.887887           0.006581          -0.864214           0.006581          -0.864214
        7.897897           0.006642          -0.863615           0.006642          -0.863615
        7.907907           0.006704          -0.862991           0.006704          -0.862991
        7.917918           0.006768          -0.862365           0.006768          -0.862365
        7.927927           0.006832          -0.861734           0.006832          -0.861734
        7.937938           0.006897          -0.861096           0.006897          -0.861096
        7.947948           0.006963          -0.860469           0.006963          -0.860469
        7.957957           0.007030          -0.859814           0.007030          -0.859813
        7.967968           0.007098          -0.859162           0.007098          -0.859162
        7.977977           0.007168          -0.858504           0.007168          -0.858504
        7.987987           0.007238          -0.857839           0.007238          -0.857839
        7.997998           0.007310          -0.857173           0.007310          -0.857173
        8.008007           0.007382          -0.856477           0.007382          -0.856477
        8.018017           0.007455          -0.855797           0.007455          -0.855797
        8.028028           0.007530          -0.855109           0.007530          -0.855109
        8.038037           0.007606          -0.854402           0.007606          -0.854402
        8.048048           0.007683          -0.853705           0.007683          -0.853705
        8.058058           0.007762          -0.852997           0.007762          -0.852997
        8.068068           0.007841          -0.852264           0.007841          -0.852264
        8.078078           0.007922          -0.851537           0.007922          -0.851537
        8.088087           0.008004          -0.850802           0.008004          -0.850802
        8.098097           0.008087          -0.850042           0.008087          -0.850042
        8.108108           0.008173          -0.849306           0.008173          -0.849306
        8.118117           0.008259          -0.848548           0.008259          -0.848548
        8.128128           0.008346          -0.847772           0.008346          -0.847772
        8.138138           0.008436          -0.847009           0.008436          -0.847008
        8.148148           0.008526          -0.846198           0.008526          -0.846198
        8.158158           0.008618          -0.845421           0.008618          -0.845421
        8.168168           0.008712          -0.844606           0.008712          -0.844606
        8.178178           0.008807          -0.843792           0.008807          -0.843792
        8.188188           0.008903          -0.842963           0.008903          -0.842963
        8.198197           0.009002          -0.842134           0.009002          -0.842134
        8.208207           0.009102          -0.841301           0.009102          -0.841301
        8.218218           0.009204          -0.840444           0.009204          -0.840444
        8.228228           0.009307          -0.839583           0.009307          -0.839583
        8.238238           0.009413          -0.838717           0.009413          -0.838717
        8.248248           0.009520          -0.837827           0.009520          -0.837827
        8.258258           0.009629          -0.836944           0.009629          -0.836944
        8.268268           0.009740          -0.836042           0.009740          -0.836042
        8.278277           0.009853          -0.835115           0.009853          -0.835115
        8.288287           0.009968          -0.834213           0.009968          -0.834213
        8.298298           0.010085          -0.833261           0.010085          -0.833261
        8.308308           0.010204          -0.832320           0.010204          -0.832320
        8.318318           0.010325          -0.831360           0.010325          -0.831360
        8.328328           0.010449          -0.830389           0.010449          -0.830389
        8.338338           0.010574          -0.829405           0.010574          -0.829405
        8.348348           0.010703          -0.828422           0.010703          -0.828422
        8.358357           0.010833          -0.827398           0.010833          -0.827398
        8.368367           0.010966          -0.826395           0.010966          -0.826395
        8.378378           0.011101          -0.825354           0.011101          -0.825354
        8.388388           0.011239          -0.824311           0.011239          -0.824311
        8.398398           0.011380          -0.823258           0.011380          -0.823258
        8.408408           0.011523          -0.822187           0.011523          -0.822187
        8.418418           0.011669          -0.821096           0.011669          -0.821096
        8.428429           0.011818          -0.820012           0.011818          -0.820012
        8.438437           0.011969          -0.818875           0.011969          -0.818875
        8.448447           0.012125          -0.817781           0.012125          -0.817781
        8.458458           0.012282          -0.816616           0.012282          -0.816615
        8.468468           0.012443          -0.815468           0.012443          -0.815468
        8.478477           0.012608          -0.814306           0.012608          -0.814306
        8.488488           0.012775          -0.813113           0.012775          -0.813113
        8.498498           0.012946          -0.811911           0.012946          -0.811911
        8.508509           0.013120          -0.810678           0.013120          -0.810678
        8.518518           0.013298          -0.809445           0.013298          -0.809445
        8.528527           0.013480          -0.808193           0.013480          -0.808193
        8.538538           0.013665          -0.806921           0.013665          -0.806921
        8.548548           0.013855          -0.805632           0.013855          -0.805632
        8.558558           0.014048          -0.804322           0.014048          -0.804322
        8.568568           0.014245          -0.802997           0.014245          -0.802997
        8.578578           0.014447          -0.801660           0.014447          -0.801660
        8.588589           0.014653          -0.800276           0.014653          -0.800275
        8.598598           0.014863          -0.798891           0.014863          -0.798891
        8.608608           0.015079          -0.797500           0.015079          -0.797500
        8.618618           0.015297          -0.796050           0.015297          -0.796051
        8.628628           0.015523          -0.794629           0.015523          -0.794629
        8.638638           0.015752          -0.793142           0.015752          -0.793142
        8.648648           0.015987          -0.791656           0.015987          -0.791656
        8.658658           0.016227          -0.790144           0.016227          -0.790144
        8.668669           0.016472          -0.788583           0.016472          -0.788583
        8.678679           0.016724          -0.787037           0.016724          -0.787037
        8.688688           0.016981          -0.785455           0.016981          -0.785455
        8.698698           0.017244          -0.783832           0.017244          -0.783832
        8.708708           0.017513          -0.782210           0.017513          -0.782210
        8.718718           0.017788          -0.780531           0.017788          -0.780531
        8.728728           0.018071          -0.778848           0.018071          -0.778848
        8.738738           0.018360          -0.777132           0.018360          -0.777132
        8.748748           0.018656          -0.775385           0.018656          -0.775384
        8.758759           0.018959          -0.773614           0.018959          -0.773614
        8.768768           0.019269          -0.771803           0.019269          -0.771803
        8.778779           0.019588          -0.769982           0.019588          -0.769982
        8.788788           0.019914          -0.768117           0.019914          -0.768117
        8.798798           0.020249          -0.766221           0.020249          -0.766222
        8.808808           0.020593          -0.764305           0.020593          -0.764305
        8.818818           0.020943          -0.762324           0.020943          -0.762324
        8.828828           0.021305          -0.760339           0.021305          -0.760340
        8.838839           0.021676          -0.758316           0.021676          -0.758316
        8.848848           0.022055          -0.756236           0.022055          -0.756236
        8.858859           0.022447          -0.754161           0.022447          -0.754161
        8.868869           0.022847          -0.752010           0.022847          -0.752010
        8.878878           0.023259          -0.749830           0.023259          -0.749830
        8.888888           0.023682          -0.747622           0.023682          -0.747622
        8.898898           0.024116          -0.745345           0.024116          -0.745345
        8.908908           0.024563          -0.743060           0.024563          -0.743060
        8.918919           0.025022          -0.740714           0.025022          -0.740714
        8.928928           0.025494          -0.738318           0.025494          -0.738318
        8.938939           0.025981          -0.735905           0.025981          -0.735905
        8.948949           0.026479          -0.733412           0.026479          -0.733412
        8.958959           0.026994          -0.730886           0.026994          -0.730886
        8.968968           0.027523          -0.728313           0.027523          -0.728313
        8.978978           0.028067          -0.725677           0.028067          -0.725677
        8.988988           0.028629          -0.723005           0.028629          -0.723005
        8.998999           0.029207          -0.720266           0.029207          -0.720266
        9.009008           0.029803          -0.717476           0.029803          -0.717476
        9.019018           0.030418          -0.714636           0.030418          -0.714636
        9.029029           0.031050          -0.711721           0.031050          -0.711721
        9.039039           0.031704          -0.708759           0.031704          -0.708759
        9.049048           0.032377          -0.705719           0.032377          -0.705719
        9.059058           0.033074          -0.702629           0.033074          -0.702629
        9.069068           0.033792          -0.699475           0.033792          -0.699475
        9.079079           0.034533          -0.696234           0.034533          -0.696234
        9.089088           0.035301          -0.692941           0.035301          -0.692941
        9.099098           0.036093          -0.689565           0.036093          -0.689565
        9.109109           0.036911          -0.686110           0.036911          -0.686110
        9.119119           0.037759          -0.682587           0.037759          -0.682587
        9.129129           0.038635          -0.678974           0.038635          -0.678974
        9.139138           0.039541          -0.675276           0.039541          -0.675276
        9.149148           0.040480          -0.671492           0.040480          -0.671491
        9.159159           0.041453          -0.667630           0.041454          -0.667630
        9.169168           0.042461          -0.663660           0.042461          -0.663660
        9.179178           0.043504          -0.659594           0.043504          -0.659594
        9.189189           0.044590          -0.655450           0.044590          -0.655450
        9.199199           0.045713          -0.651179           0.045713          -0.651179
        9.209209           0.046879          -0.646803           0.046879          -0.646803
        9.219219           0.048092          -0.642329           0.048092          -0.642329
        9.229228           0.049351          -0.637736           0.049351          -0.637736
        9.239239           0.050660          -0.633020           0.050660          -0.633020
        9.249249           0.052022          -0.628187           0.052022          -0.628187
        9.259258           0.053437          -0.623216           0.053437          -0.623216
        9.269269           0.054912          -0.618122           0.054912          -0.618122
        9.279279           0.056448          -0.612885           0.056448          -0.612885
        9.289289           0.058046          -0.607492           0.058046          -0.607492
        9.299299           0.059717          -0.601971           0.059717          -0.601971
        9.309309           0.061458          -0.596284           0.061458          -0.596284
        9.319319           0.063271          -0.590416           0.063271          -0.590416
        9.329329           0.065170          -0.584399           0.065170          -0.584399
        9.339338           0.067154          -0.578204           0.067154          -0.578204
        9.349349           0.069226          -0.571815           0.069226          -0.571815
        9.359359           0.071397          -0.565241           0.071397          -0.565241
        9.369369           0.073668          -0.558462           0.073668          -0.558462
        9.379379           0.076049          -0.551477           0.076049          -0.551477
        9.389389           0.078546          -0.544271           0.078546          -0.544271
        9.399399           0.081162          -0.536828           0.081162          -0.536828
        9.409409           0.083911          -0.529149           0.083911          -0.529149
        9.419418           0.086803          -0.521231           0.086803          -0.521231
        9.429429           0.089842          -0.513039           0.089842          -0.513039
        9.439439           0.093039          -0.504573           0.093039          -0.504573
        9.449449           0.096409          -0.495823           0.096409          -0.495823
        9.459459           0.099959          -0.486764           0.099959          -0.486764
        9.469469           0.103708          -0.477394           0.103709          -0.477395
        9.479479           0.107665          -0.467684           0.107665          -0.467685
        9.489489           0.111849          -0.457628           0.111849          -0.457628
        9.499498           0.116276          -0.447203           0.116277          -0.447203
        9.509509           0.120968          -0.436393           0.120968          -0.436394
        9.519519           0.125941          -0.425174           0.125940          -0.425175
        9.529529           0.131218          -0.413525           0.131217          -0.413523
        9.539539           0.136827          -0.401423           0.136825          -0.401422
        9.549549           0.142791          -0.388843           0.142791          -0.388843
        9.559559           0.149149          -0.375765           0.149149          -0.375765
        9.569570           0.155931          -0.362157           0.155931          -0.362156
        9.579578           0.163167          -0.347984           0.163167          -0.347983
        9.589589           0.170911          -0.333219           0.170911          -0.333219
        9.599599           0.179196          -0.317826           0.179196          -0.317826
        9.609609           0.188089          -0.301773           0.188089          -0.301773
        9.619619           0.197631          -0.285010           0.197633          -0.285010
        9.629629           0.207881          -0.267497           0.207881          -0.267497
        9.639639           0.218915          -0.249190           0.218915          -0.249190
        9.649650           0.230795          -0.230040           0.230795          -0.230040
        9.659659           0.243591          -0.210006           0.243589          -0.210006
        9.669669           0.257399          -0.189042           0.257398          -0.189044
        9.679679           0.272306          -0.167125           0.272305          -0.167125
        9.689689           0.288454          -0.144211           0.288454          -0.144211
        9.699699           0.305996          -0.120263           0.305996          -0.120263
        9.709709           0.325116          -0.095229           0.325116          -0.095229
        9.719719           0.346024          -0.069025           0.346023          -0.069026
        9.729730           0.368932          -0.041561           0.368931          -0.041561
        9.739739           0.394057          -0.012754           0.394057          -0.012754
        9.749749           0.421642           0.017454           0.421642           0.017454
        9.759759           0.451963           0.049121           0.451964           0.049120
        9.769769           0.485331           0.082264           0.485331           0.082263
        9.779779           0.522122           0.116894           0.522119           0.116898
        9.789789           0.562755           0.152984           0.562754           0.152985
        9.799799           0.607726           0.190493           0.607725           0.190493
        9.809810           0.657590           0.229336           0.657589           0.229336
        9.819819           0.712952           0.269383           0.712953           0.269382
        9.829829           0.774500           0.310449           0.774488           0.310455
        9.839839           0.842981           0.352252           0.842980           0.352253
        9.849849           0.919229           0.394393           0.919226           0.394395
        9.859859           1.004019           0.436444           1.004029           0.436440
        9.869869           1.098352           0.477642           1.098340           0.477647
        9.879879           1.202980           0.517278           1.202979           0.517279
        9.889890           1.318710           0.554412           1.318711           0.554411
        9.899899           1.446112           0.587995           1.446110           0.587997
        9.909909           1.585494           0.617025           1.585493           0.617026
        9.919919           1.736458           0.641011           1.736452           0.641018
        9.929929           1.898152           0.659922           1.898134           0.659935
        9.939939           2.068213           0.675967           2.068229           0.675957
        9.949949           2.242880           0.694289           2.242898           0.694278
        9.959959           2.414311           0.727715           2.414291           0.727728
        9.969970           2.564382           0.804844           2.564380           0.804846
        9.979980           2.633920           0.993826           2.633919           0.993827
        9.989989           2.168113           1.533940           2.168103           1.533943
        10.00000           0.190631           5.677327           0.190628           5.677285
# 
# 11/30/2023 at 13:38 yambo_ph @ unimi-XPS-8930 [start]
# 11/30/2023 at 13:38                           [end]
#  
# Timing   [Min/Max/Average]: 08s/08s/08s
#
# .-Input file  yambo.in
# | optics                           # [R] Linear Response optical properties
# | dipoles                          # [R] Oscillator strenghts (or dipoles)
# | bss                              # [R] BSE solver
# | bse                              # [R][BSE] Bethe Salpeter Equation.
# | BoseTemp= 0.000000         eV    # Bosonic Temperature
# | FFTGvecs=  4653            RL    # [FFT] Plane-waves
# | DIP_Threads= 1                   # [OPENMP/X] Number of threads for dipoles
# | BS_nCPU_LinAlg_INV= 1            # [PARALLEL] CPUs for Linear Algebra (if -1 it is automatically set)
# | BS_nCPU_LinAlg_DIAGO= 1          # [PARALLEL] CPUs for Linear Algebra (if -1 it is automatically set)
# | X_Threads= 1                     # [OPENMP/X] Number of threads for response functions
# | K_Threads= 1                     # [OPENMP/BSK] Number of threads for response functions
# | BSKmod= "HARTREE"                # [BSE] IP/Hartree/HF/ALDA/SEX/BSfxc
# | BSEmod= "resonant"               # [BSE] resonant/retarded/coupling
# | BSSmod= "d"                      # [BSS] (h)aydock/(d)iagonalization/(s)lepc/(i)nversion/(t)ddft`
# | % DipBands
# |   3 |  6 |                           # [DIP] Bands range for dipoles
# | %
# | DipComputed= "R V P"             # [DIP] [default R P V; extra P2 Spin Orb]
# | BSENGexx= 1                RL    # [BSK] Exchange components
# | % BSEQptR
# |   1 |  9 |                           # [BSK] Transferred momenta range
# | %
# | % BSEBands
# |   3 |  6 |                           # [BSK] Bands range
# | %
# | % BEnRange
# |   0.00000 | 10.00000 |         eV    # [BSS] Energy range
# | %
# | % BDmRange
# |  0.100000 | 0.100000 |         eV    # [BSS] Damping range
# | %
# | BEnSteps= 1000                   # [BSS] Energy steps
# | % BLongDir
# |   0.00000    | 0.100000E-4 |  0.00000    # [BSS] [cc] Electric Field
# | %
# | BSEprop= "abs esrt jdos"         # [BSS] Can be any among abs/jdos/kerr/magn/dich/photolum/esrt
# | BSEdips= "none"                  # [BSS] Can be "trace/none" or "xy/xz/yz" to define off-diagonal rotation plane
# | WRbsWF                         # [BSS] Write to disk excitonic the WFs
