#                                                                     
#                                                                     
# Y88b    /   e           e    e      888~~\    ,88~-_                
#  Y88b  /   d8b         d8b  d8b     888   |  d888   \               
#   Y88b/   /Y88b       d888bdY88b    888 _/  88888    |              
#    Y8Y   /  Y88b     / Y88Y Y888b   888  \  88888    |              
#     Y   /____Y88b   /   YY   Y888b  888   |  Y888   /               
#    /   /      Y88b /          Y888b 888__/    `88_-~                
#                                                                     
#                                                                     
# Version 5.2.0 Revision 22184 Hash (prev commit) 2871b0cee           
#                 Branch is devel-excph                               
#         MPI+OpenMP+SLK+SLEPC+HDF5_MPI_IO Build                      
#               http://www.yambo-code.org                             
#
# Absorption @ Q(5):   0.00000000    -0.333333373      0.00000000    [iku]
#
# [GEN] GF Energies                               : Slater exchange(X)+Perdew & Zunger(C)
# [GEN] Green`s Function                          : Resonant
#
# DIP band range                                  :   3   6
# DIP band range limits                           :   4   5
# DIP e/h energy range                            :  -1.00000000     -1.00000000    [eV]
# RL vectors in the sum                           :   4653
# [r,Vnl] included                                : yes
# Bands ordered                                   : yes
# Direct v evaluation                             : no
# Approach used                                   : G-space v
# Dipoles computed                                : R V P
# Wavefunctions                                   : Slater exchange(X)+Perdew & Zunger(C)
#
#
# [K] Identifier                                  :   873
# [K] Q-point                                     :   0.00000000    -0.333333373      0.00000000   
# [K] Dimension                                   :   36
# [K] Bands                                       :   3   6
# [K] Exchange res                                : yes
# [K] Correlation res                             : no
# [K] Kernel`s coupling                           : no
# [K] Exchange cpl                                : no
# [K] Correlation cpl                             : no
# [K] W interaction is bare                       : no
# [K] ALDA kernel in R-space                      : no
# [K] RL vectors exchange                         :  1
# [K] E/h energy range                            :  -1.00000000     -1.00000000    [eV]
# [K] Coupling range                              :   100.000000      100.000000    [o/o]
# [K] BSE L kind                                  : BAR
# [X] Response Kind                               : BAR
#
# Diamagnetic term                                
# Ao                                              :  -7.48481846    [nel]
# A                                               :   0.00000000    [nel]
#
#    E[1] [eV]          Im(eps)            Re(eps)            Im(eps_o)          Re(eps_o)
#
        0.000000           0.001405           1.111962           0.001405           1.111962
        0.010010           0.001409           1.112103           0.001409           1.112103
        0.020020           0.001412           1.112244           0.001412           1.112244
        0.030030           0.001416           1.112385           0.001416           1.112385
        0.040040           0.001420           1.112527           0.001420           1.112527
        0.050050           0.001424           1.112669           0.001424           1.112669
        0.060060           0.001427           1.112812           0.001427           1.112812
        0.070070           0.001431           1.112955           0.001431           1.112955
        0.080080           0.001435           1.113098           0.001435           1.113098
        0.090090           0.001439           1.113242           0.001439           1.113242
        0.100100           0.001442           1.113386           0.001442           1.113386
        0.110110           0.001446           1.113531           0.001446           1.113531
        0.120120           0.001450           1.113676           0.001450           1.113676
        0.130130           0.001454           1.113821           0.001454           1.113821
        0.140140           0.001458           1.113967           0.001458           1.113967
        0.150150           0.001462           1.114113           0.001462           1.114113
        0.160160           0.001465           1.114259           0.001465           1.114259
        0.170170           0.001469           1.114406           0.001469           1.114406
        0.180180           0.001473           1.114553           0.001473           1.114553
        0.190190           0.001477           1.114701           0.001477           1.114701
        0.200200           0.001481           1.114849           0.001481           1.114849
        0.210210           0.001485           1.114997           0.001485           1.114997
        0.220220           0.001489           1.115146           0.001489           1.115146
        0.230230           0.001493           1.115295           0.001493           1.115295
        0.240240           0.001497           1.115445           0.001497           1.115445
        0.250250           0.001501           1.115595           0.001501           1.115595
        0.260260           0.001505           1.115745           0.001505           1.115745
        0.270270           0.001509           1.115896           0.001509           1.115896
        0.280280           0.001513           1.116047           0.001513           1.116047
        0.290290           0.001517           1.116199           0.001517           1.116199
        0.300300           0.001522           1.116351           0.001522           1.116351
        0.310310           0.001526           1.116503           0.001526           1.116503
        0.320320           0.001530           1.116656           0.001530           1.116656
        0.330330           0.001534           1.116810           0.001534           1.116809
        0.340340           0.001538           1.116963           0.001538           1.116963
        0.350350           0.001542           1.117117           0.001542           1.117117
        0.360360           0.001547           1.117272           0.001547           1.117272
        0.370370           0.001551           1.117427           0.001551           1.117427
        0.380380           0.001555           1.117582           0.001555           1.117582
        0.390390           0.001559           1.117738           0.001559           1.117738
        0.400400           0.001564           1.117894           0.001564           1.117894
        0.410410           0.001568           1.118051           0.001568           1.118051
        0.420420           0.001572           1.118208           0.001572           1.118208
        0.430430           0.001577           1.118366           0.001577           1.118366
        0.440440           0.001581           1.118524           0.001581           1.118524
        0.450450           0.001585           1.118682           0.001585           1.118682
        0.460460           0.001590           1.118841           0.001590           1.118841
        0.470470           0.001594           1.119000           0.001594           1.119000
        0.480480           0.001599           1.119160           0.001599           1.119160
        0.490490           0.001603           1.119320           0.001603           1.119320
        0.500500           0.001608           1.119481           0.001608           1.119481
        0.510511           0.001612           1.119642           0.001612           1.119642
        0.520521           0.001617           1.119803           0.001617           1.119803
        0.530531           0.001621           1.119965           0.001621           1.119965
        0.540541           0.001626           1.120128           0.001626           1.120128
        0.550551           0.001630           1.120291           0.001630           1.120291
        0.560561           0.001635           1.120454           0.001635           1.120454
        0.570571           0.001640           1.120618           0.001640           1.120618
        0.580581           0.001644           1.120782           0.001644           1.120782
        0.590591           0.001649           1.120947           0.001649           1.120947
        0.600601           0.001653           1.121112           0.001653           1.121112
        0.610611           0.001658           1.121278           0.001658           1.121278
        0.620621           0.001663           1.121444           0.001663           1.121444
        0.630631           0.001668           1.121611           0.001668           1.121611
        0.640641           0.001672           1.121778           0.001672           1.121778
        0.650651           0.001677           1.121945           0.001677           1.121945
        0.660661           0.001682           1.122113           0.001682           1.122113
        0.670671           0.001687           1.122282           0.001687           1.122282
        0.680681           0.001692           1.122451           0.001692           1.122451
        0.690691           0.001697           1.122620           0.001697           1.122620
        0.700701           0.001701           1.122790           0.001701           1.122790
        0.710711           0.001706           1.122961           0.001706           1.122961
        0.720721           0.001711           1.123132           0.001711           1.123132
        0.730731           0.001716           1.123303           0.001716           1.123303
        0.740741           0.001721           1.123475           0.001721           1.123475
        0.750751           0.001726           1.123648           0.001726           1.123648
        0.760761           0.001731           1.123821           0.001731           1.123821
        0.770771           0.001736           1.123994           0.001736           1.123994
        0.780781           0.001741           1.124168           0.001741           1.124168
        0.790791           0.001746           1.124343           0.001746           1.124343
        0.800801           0.001751           1.124518           0.001751           1.124518
        0.810811           0.001757           1.124693           0.001757           1.124693
        0.820821           0.001762           1.124869           0.001762           1.124869
        0.830831           0.001767           1.125046           0.001767           1.125046
        0.840841           0.001772           1.125223           0.001772           1.125223
        0.850851           0.001777           1.125400           0.001777           1.125400
        0.860861           0.001783           1.125578           0.001783           1.125578
        0.870871           0.001788           1.125757           0.001788           1.125757
        0.880881           0.001793           1.125936           0.001793           1.125936
        0.890891           0.001799           1.126116           0.001799           1.126116
        0.900901           0.001804           1.126296           0.001804           1.126296
        0.910911           0.001809           1.126477           0.001809           1.126477
        0.920921           0.001815           1.126658           0.001815           1.126658
        0.930931           0.001820           1.126840           0.001820           1.126840
        0.940941           0.001826           1.127022           0.001826           1.127022
        0.950951           0.001831           1.127205           0.001831           1.127205
        0.960961           0.001836           1.127389           0.001836           1.127389
        0.970971           0.001842           1.127573           0.001842           1.127573
        0.980981           0.001848           1.127757           0.001848           1.127757
        0.990991           0.001853           1.127942           0.001853           1.127942
        1.001001           0.001859           1.128128           0.001859           1.128128
        1.011011           0.001864           1.128314           0.001864           1.128314
        1.021021           0.001870           1.128501           0.001870           1.128501
        1.031031           0.001876           1.128689           0.001876           1.128689
        1.041041           0.001881           1.128877           0.001881           1.128877
        1.051051           0.001887           1.129065           0.001887           1.129065
        1.061061           0.001893           1.129254           0.001893           1.129254
        1.071071           0.001899           1.129444           0.001899           1.129444
        1.081081           0.001905           1.129634           0.001905           1.129634
        1.091091           0.001910           1.129825           0.001910           1.129825
        1.101101           0.001916           1.130016           0.001916           1.130016
        1.111111           0.001922           1.130208           0.001922           1.130208
        1.121121           0.001928           1.130401           0.001928           1.130401
        1.131131           0.001934           1.130594           0.001934           1.130594
        1.141141           0.001940           1.130788           0.001940           1.130788
        1.151151           0.001946           1.130982           0.001946           1.130982
        1.161161           0.001952           1.131177           0.001952           1.131177
        1.171171           0.001958           1.131373           0.001958           1.131373
        1.181181           0.001964           1.131569           0.001964           1.131569
        1.191191           0.001970           1.131766           0.001970           1.131766
        1.201201           0.001976           1.131963           0.001976           1.131963
        1.211211           0.001983           1.132162           0.001983           1.132162
        1.221221           0.001989           1.132360           0.001989           1.132360
        1.231231           0.001995           1.132560           0.001995           1.132560
        1.241241           0.002001           1.132759           0.002001           1.132759
        1.251251           0.002008           1.132960           0.002008           1.132960
        1.261261           0.002014           1.133161           0.002014           1.133161
        1.271271           0.002020           1.133363           0.002020           1.133363
        1.281281           0.002027           1.133565           0.002027           1.133565
        1.291291           0.002033           1.133769           0.002033           1.133769
        1.301301           0.002040           1.133972           0.002040           1.133972
        1.311311           0.002046           1.134177           0.002046           1.134177
        1.321321           0.002053           1.134382           0.002053           1.134382
        1.331331           0.002059           1.134588           0.002059           1.134588
        1.341341           0.002066           1.134794           0.002066           1.134794
        1.351351           0.002072           1.135001           0.002072           1.135001
        1.361361           0.002079           1.135208           0.002079           1.135208
        1.371371           0.002086           1.135417           0.002086           1.135417
        1.381381           0.002093           1.135626           0.002093           1.135626
        1.391391           0.002099           1.135836           0.002099           1.135836
        1.401401           0.002106           1.136046           0.002106           1.136046
        1.411411           0.002113           1.136257           0.002113           1.136257
        1.421421           0.002120           1.136469           0.002120           1.136469
        1.431431           0.002127           1.136681           0.002127           1.136681
        1.441441           0.002134           1.136894           0.002134           1.136894
        1.451451           0.002141           1.137108           0.002141           1.137108
        1.461461           0.002148           1.137323           0.002148           1.137323
        1.471471           0.002155           1.137538           0.002155           1.137538
        1.481481           0.002162           1.137754           0.002162           1.137754
        1.491491           0.002169           1.137970           0.002169           1.137970
        1.501501           0.002176           1.138188           0.002176           1.138188
        1.511511           0.002183           1.138406           0.002183           1.138406
        1.521521           0.002190           1.138624           0.002190           1.138624
        1.531531           0.002198           1.138844           0.002198           1.138844
        1.541541           0.002205           1.139064           0.002205           1.139064
        1.551551           0.002212           1.139285           0.002212           1.139285
        1.561561           0.002219           1.139507           0.002219           1.139507
        1.571571           0.002227           1.139729           0.002227           1.139729
        1.581581           0.002234           1.139952           0.002234           1.139952
        1.591591           0.002242           1.140176           0.002242           1.140176
        1.601601           0.002249           1.140401           0.002249           1.140401
        1.611611           0.002257           1.140626           0.002257           1.140626
        1.621622           0.002264           1.140852           0.002264           1.140852
        1.631632           0.002272           1.141079           0.002272           1.141079
        1.641642           0.002280           1.141307           0.002280           1.141307
        1.651652           0.002287           1.141536           0.002287           1.141536
        1.661662           0.002295           1.141765           0.002295           1.141765
        1.671672           0.002303           1.141995           0.002303           1.141995
        1.681682           0.002311           1.142226           0.002311           1.142226
        1.691692           0.002319           1.142457           0.002319           1.142457
        1.701702           0.002327           1.142689           0.002327           1.142689
        1.711712           0.002335           1.142923           0.002335           1.142923
        1.721722           0.002343           1.143157           0.002343           1.143157
        1.731732           0.002351           1.143391           0.002351           1.143391
        1.741742           0.002359           1.143627           0.002359           1.143627
        1.751752           0.002367           1.143863           0.002367           1.143863
        1.761762           0.002375           1.144100           0.002375           1.144100
        1.771772           0.002383           1.144338           0.002383           1.144338
        1.781782           0.002392           1.144577           0.002392           1.144577
        1.791792           0.002400           1.144817           0.002400           1.144817
        1.801802           0.002408           1.145057           0.002408           1.145057
        1.811812           0.002417           1.145299           0.002417           1.145299
        1.821822           0.002425           1.145541           0.002425           1.145541
        1.831832           0.002433           1.145784           0.002433           1.145784
        1.841842           0.002442           1.146028           0.002442           1.146028
        1.851852           0.002451           1.146273           0.002451           1.146273
        1.861862           0.002459           1.146518           0.002459           1.146518
        1.871872           0.002468           1.146765           0.002468           1.146765
        1.881882           0.002477           1.147012           0.002477           1.147012
        1.891892           0.002485           1.147260           0.002485           1.147260
        1.901902           0.002494           1.147509           0.002494           1.147509
        1.911912           0.002503           1.147759           0.002503           1.147759
        1.921922           0.002512           1.148010           0.002512           1.148010
        1.931932           0.002521           1.148262           0.002521           1.148262
        1.941942           0.002530           1.148514           0.002530           1.148514
        1.951952           0.002539           1.148768           0.002539           1.148768
        1.961962           0.002548           1.149022           0.002548           1.149022
        1.971972           0.002557           1.149278           0.002557           1.149278
        1.981982           0.002566           1.149534           0.002566           1.149534
        1.991992           0.002576           1.149791           0.002576           1.149791
        2.002002           0.002585           1.150049           0.002585           1.150049
        2.012012           0.002594           1.150308           0.002594           1.150308
        2.022022           0.002604           1.150568           0.002604           1.150568
        2.032032           0.002613           1.150829           0.002613           1.150829
        2.042042           0.002623           1.151091           0.002623           1.151091
        2.052052           0.002632           1.151354           0.002632           1.151354
        2.062062           0.002642           1.151618           0.002642           1.151618
        2.072072           0.002652           1.151882           0.002652           1.151882
        2.082082           0.002661           1.152148           0.002661           1.152148
        2.092092           0.002671           1.152415           0.002671           1.152415
        2.102102           0.002681           1.152683           0.002681           1.152683
        2.112112           0.002691           1.152951           0.002691           1.152951
        2.122122           0.002701           1.153221           0.002701           1.153221
        2.132132           0.002711           1.153492           0.002711           1.153492
        2.142142           0.002721           1.153763           0.002721           1.153763
        2.152152           0.002731           1.154036           0.002731           1.154036
        2.162162           0.002741           1.154310           0.002741           1.154310
        2.172172           0.002752           1.154585           0.002752           1.154584
        2.182182           0.002762           1.154860           0.002762           1.154860
        2.192192           0.002772           1.155137           0.002772           1.155137
        2.202202           0.002783           1.155415           0.002783           1.155415
        2.212212           0.002793           1.155694           0.002793           1.155694
        2.222222           0.002804           1.155974           0.002804           1.155974
        2.232232           0.002815           1.156255           0.002815           1.156255
        2.242242           0.002825           1.156537           0.002825           1.156537
        2.252252           0.002836           1.156820           0.002836           1.156820
        2.262262           0.002847           1.157104           0.002847           1.157104
        2.272272           0.002858           1.157389           0.002858           1.157389
        2.282282           0.002869           1.157676           0.002869           1.157676
        2.292292           0.002880           1.157963           0.002880           1.157963
        2.302302           0.002891           1.158252           0.002891           1.158252
        2.312312           0.002902           1.158541           0.002902           1.158541
        2.322322           0.002913           1.158832           0.002913           1.158832
        2.332332           0.002924           1.159124           0.002924           1.159124
        2.342342           0.002936           1.159417           0.002936           1.159417
        2.352352           0.002947           1.159711           0.002947           1.159711
        2.362362           0.002958           1.160007           0.002958           1.160007
        2.372372           0.002970           1.160303           0.002970           1.160303
        2.382382           0.002982           1.160601           0.002982           1.160601
        2.392392           0.002993           1.160900           0.002993           1.160900
        2.402402           0.003005           1.161200           0.003005           1.161200
        2.412412           0.003017           1.161501           0.003017           1.161501
        2.422422           0.003029           1.161803           0.003029           1.161803
        2.432432           0.003041           1.162107           0.003041           1.162107
        2.442442           0.003053           1.162412           0.003053           1.162412
        2.452452           0.003065           1.162717           0.003065           1.162717
        2.462462           0.003077           1.163025           0.003077           1.163025
        2.472472           0.003089           1.163333           0.003089           1.163333
        2.482482           0.003102           1.163643           0.003102           1.163643
        2.492492           0.003114           1.163953           0.003114           1.163953
        2.502502           0.003127           1.164266           0.003127           1.164266
        2.512512           0.003139           1.164579           0.003139           1.164579
        2.522522           0.003152           1.164894           0.003152           1.164894
        2.532532           0.003165           1.165209           0.003165           1.165209
        2.542542           0.003177           1.165527           0.003177           1.165527
        2.552552           0.003190           1.165845           0.003190           1.165845
        2.562562           0.003203           1.166165           0.003203           1.166165
        2.572572           0.003216           1.166486           0.003216           1.166486
        2.582582           0.003230           1.166808           0.003230           1.166808
        2.592592           0.003243           1.167132           0.003243           1.167132
        2.602602           0.003256           1.167457           0.003256           1.167457
        2.612612           0.003269           1.167783           0.003269           1.167783
        2.622622           0.003283           1.168111           0.003283           1.168111
        2.632632           0.003297           1.168440           0.003297           1.168440
        2.642642           0.003310           1.168770           0.003310           1.168770
        2.652653           0.003324           1.169102           0.003324           1.169102
        2.662663           0.003338           1.169435           0.003338           1.169435
        2.672673           0.003352           1.169770           0.003352           1.169770
        2.682683           0.003366           1.170105           0.003366           1.170105
        2.692693           0.003380           1.170443           0.003380           1.170443
        2.702703           0.003394           1.170781           0.003394           1.170781
        2.712713           0.003408           1.171121           0.003408           1.171121
        2.722723           0.003423           1.171463           0.003423           1.171463
        2.732733           0.003437           1.171806           0.003437           1.171806
        2.742743           0.003452           1.172151           0.003452           1.172151
        2.752753           0.003466           1.172497           0.003466           1.172497
        2.762763           0.003481           1.172844           0.003481           1.172844
        2.772773           0.003496           1.173193           0.003496           1.173193
        2.782783           0.003511           1.173543           0.003511           1.173543
        2.792793           0.003526           1.173895           0.003526           1.173895
        2.802803           0.003541           1.174248           0.003541           1.174248
        2.812813           0.003556           1.174603           0.003556           1.174603
        2.822823           0.003572           1.174960           0.003572           1.174960
        2.832833           0.003587           1.175318           0.003587           1.175318
        2.842843           0.003603           1.175677           0.003603           1.175677
        2.852853           0.003618           1.176038           0.003618           1.176038
        2.862863           0.003634           1.176401           0.003634           1.176401
        2.872873           0.003650           1.176765           0.003650           1.176765
        2.882883           0.003666           1.177131           0.003666           1.177131
        2.892893           0.003682           1.177498           0.003682           1.177498
        2.902903           0.003698           1.177867           0.003698           1.177867
        2.912913           0.003715           1.178238           0.003715           1.178238
        2.922923           0.003731           1.178610           0.003731           1.178610
        2.932933           0.003748           1.178984           0.003748           1.178984
        2.942943           0.003764           1.179360           0.003764           1.179360
        2.952953           0.003781           1.179737           0.003781           1.179737
        2.962963           0.003798           1.180116           0.003798           1.180116
        2.972973           0.003815           1.180497           0.003815           1.180497
        2.982983           0.003832           1.180879           0.003832           1.180879
        2.992993           0.003849           1.181263           0.003849           1.181263
        3.003003           0.003867           1.181649           0.003867           1.181649
        3.013013           0.003884           1.182036           0.003884           1.182036
        3.023023           0.003902           1.182426           0.003902           1.182426
        3.033033           0.003920           1.182817           0.003920           1.182817
        3.043043           0.003938           1.183210           0.003938           1.183210
        3.053053           0.003956           1.183604           0.003956           1.183604
        3.063063           0.003974           1.184000           0.003974           1.184001
        3.073073           0.003992           1.184399           0.003992           1.184399
        3.083083           0.004010           1.184799           0.004010           1.184799
        3.093093           0.004029           1.185201           0.004029           1.185201
        3.103103           0.004047           1.185605           0.004047           1.185605
        3.113113           0.004066           1.186010           0.004066           1.186010
        3.123123           0.004085           1.186418           0.004085           1.186418
        3.133133           0.004104           1.186827           0.004104           1.186827
        3.143143           0.004123           1.187238           0.004123           1.187238
        3.153153           0.004143           1.187652           0.004143           1.187652
        3.163163           0.004162           1.188067           0.004162           1.188067
        3.173173           0.004182           1.188484           0.004182           1.188484
        3.183183           0.004202           1.188903           0.004202           1.188903
        3.193193           0.004221           1.189324           0.004221           1.189324
        3.203203           0.004241           1.189747           0.004241           1.189747
        3.213213           0.004262           1.190172           0.004262           1.190172
        3.223223           0.004282           1.190599           0.004282           1.190599
        3.233233           0.004303           1.191029           0.004303           1.191029
        3.243243           0.004323           1.191460           0.004323           1.191460
        3.253253           0.004344           1.191893           0.004344           1.191893
        3.263263           0.004365           1.192329           0.004365           1.192329
        3.273273           0.004386           1.192766           0.004386           1.192766
        3.283283           0.004407           1.193206           0.004407           1.193206
        3.293293           0.004429           1.193647           0.004429           1.193647
        3.303303           0.004450           1.194091           0.004450           1.194091
        3.313313           0.004472           1.194537           0.004472           1.194537
        3.323323           0.004494           1.194985           0.004494           1.194985
        3.333333           0.004516           1.195436           0.004516           1.195436
        3.343343           0.004538           1.195888           0.004538           1.195888
        3.353353           0.004561           1.196343           0.004561           1.196343
        3.363363           0.004584           1.196800           0.004584           1.196800
        3.373373           0.004606           1.197260           0.004606           1.197260
        3.383383           0.004629           1.197721           0.004629           1.197721
        3.393393           0.004652           1.198185           0.004652           1.198185
        3.403403           0.004676           1.198652           0.004676           1.198652
        3.413413           0.004699           1.199120           0.004699           1.199120
        3.423423           0.004723           1.199591           0.004723           1.199591
        3.433433           0.004747           1.200065           0.004747           1.200065
        3.443443           0.004771           1.200540           0.004771           1.200540
        3.453453           0.004795           1.201018           0.004795           1.201018
        3.463463           0.004820           1.201499           0.004820           1.201499
        3.473473           0.004844           1.201982           0.004844           1.201982
        3.483483           0.004869           1.202467           0.004869           1.202467
        3.493493           0.004894           1.202955           0.004894           1.202955
        3.503503           0.004919           1.203446           0.004919           1.203446
        3.513513           0.004945           1.203939           0.004945           1.203939
        3.523524           0.004971           1.204435           0.004971           1.204435
        3.533533           0.004996           1.204933           0.004996           1.204933
        3.543543           0.005022           1.205433           0.005022           1.205433
        3.553553           0.005049           1.205937           0.005049           1.205937
        3.563564           0.005075           1.206443           0.005075           1.206443
        3.573573           0.005102           1.206951           0.005102           1.206951
        3.583583           0.005129           1.207463           0.005129           1.207463
        3.593593           0.005156           1.207977           0.005156           1.207977
        3.603603           0.005183           1.208493           0.005183           1.208493
        3.613613           0.005211           1.209013           0.005211           1.209013
        3.623623           0.005239           1.209535           0.005239           1.209535
        3.633634           0.005267           1.210060           0.005267           1.210060
        3.643643           0.005295           1.210588           0.005295           1.210588
        3.653653           0.005324           1.211119           0.005324           1.211119
        3.663663           0.005352           1.211652           0.005352           1.211652
        3.673674           0.005381           1.212189           0.005381           1.212189
        3.683683           0.005411           1.212728           0.005411           1.212728
        3.693693           0.005440           1.213270           0.005440           1.213270
        3.703704           0.005470           1.213815           0.005470           1.213815
        3.713714           0.005500           1.214364           0.005500           1.214364
        3.723723           0.005530           1.214915           0.005530           1.214915
        3.733733           0.005561           1.215469           0.005561           1.215469
        3.743744           0.005592           1.216026           0.005592           1.216026
        3.753754           0.005623           1.216587           0.005623           1.216587
        3.763763           0.005654           1.217150           0.005654           1.217150
        3.773773           0.005686           1.217717           0.005686           1.217717
        3.783784           0.005718           1.218287           0.005718           1.218287
        3.793794           0.005750           1.218860           0.005750           1.218860
        3.803803           0.005782           1.219436           0.005782           1.219436
        3.813814           0.005815           1.220016           0.005815           1.220016
        3.823824           0.005848           1.220598           0.005848           1.220598
        3.833834           0.005881           1.221184           0.005881           1.221184
        3.843843           0.005915           1.221774           0.005915           1.221774
        3.853854           0.005949           1.222366           0.005949           1.222366
        3.863864           0.005983           1.222963           0.005983           1.222963
        3.873873           0.006017           1.223562           0.006017           1.223562
        3.883883           0.006052           1.224165           0.006052           1.224165
        3.893894           0.006087           1.224772           0.006087           1.224772
        3.903904           0.006123           1.225382           0.006123           1.225382
        3.913913           0.006159           1.225995           0.006159           1.225995
        3.923924           0.006195           1.226613           0.006195           1.226613
        3.933934           0.006231           1.227233           0.006231           1.227233
        3.943944           0.006268           1.227858           0.006268           1.227858
        3.953954           0.006305           1.228486           0.006305           1.228486
        3.963964           0.006343           1.229118           0.006343           1.229118
        3.973974           0.006380           1.229753           0.006380           1.229753
        3.983984           0.006419           1.230393           0.006419           1.230393
        3.993994           0.006457           1.231036           0.006457           1.231036
        4.004004           0.006496           1.231683           0.006496           1.231683
        4.014014           0.006535           1.232334           0.006535           1.232334
        4.024024           0.006575           1.232989           0.006575           1.232989
        4.034034           0.006615           1.233648           0.006615           1.233648
        4.044044           0.006655           1.234311           0.006655           1.234311
        4.054054           0.006696           1.234978           0.006696           1.234978
        4.064064           0.006737           1.235649           0.006737           1.235649
        4.074074           0.006779           1.236324           0.006779           1.236324
        4.084084           0.006821           1.237003           0.006821           1.237003
        4.094094           0.006863           1.237687           0.006863           1.237687
        4.104104           0.006906           1.238375           0.006906           1.238375
        4.114114           0.006949           1.239067           0.006949           1.239067
        4.124124           0.006993           1.239763           0.006993           1.239763
        4.134134           0.007037           1.240464           0.007037           1.240464
        4.144144           0.007081           1.241169           0.007081           1.241169
        4.154154           0.007126           1.241878           0.007126           1.241878
        4.164164           0.007171           1.242593           0.007171           1.242592
        4.174174           0.007217           1.243311           0.007217           1.243311
        4.184184           0.007263           1.244034           0.007263           1.244034
        4.194194           0.007310           1.244762           0.007310           1.244762
        4.204204           0.007357           1.245495           0.007357           1.245495
        4.214214           0.007405           1.246232           0.007405           1.246232
        4.224224           0.007453           1.246974           0.007453           1.246974
        4.234234           0.007502           1.247721           0.007502           1.247721
        4.244244           0.007551           1.248473           0.007551           1.248473
        4.254254           0.007601           1.249229           0.007601           1.249229
        4.264264           0.007651           1.249991           0.007651           1.249991
        4.274274           0.007701           1.250757           0.007701           1.250757
        4.284284           0.007753           1.251529           0.007753           1.251529
        4.294294           0.007804           1.252306           0.007804           1.252306
        4.304304           0.007857           1.253088           0.007857           1.253088
        4.314314           0.007909           1.253875           0.007909           1.253875
        4.324324           0.007963           1.254668           0.007963           1.254668
        4.334334           0.008017           1.255466           0.008017           1.255466
        4.344344           0.008071           1.256269           0.008071           1.256269
        4.354354           0.008126           1.257078           0.008126           1.257078
        4.364364           0.008182           1.257892           0.008182           1.257892
        4.374374           0.008238           1.258712           0.008238           1.258712
        4.384384           0.008295           1.259537           0.008295           1.259537
        4.394394           0.008353           1.260368           0.008353           1.260368
        4.404404           0.008411           1.261205           0.008411           1.261205
        4.414414           0.008470           1.262048           0.008470           1.262048
        4.424424           0.008529           1.262897           0.008529           1.262897
        4.434434           0.008589           1.263751           0.008589           1.263751
        4.444444           0.008650           1.264612           0.008650           1.264612
        4.454454           0.008711           1.265478           0.008711           1.265478
        4.464464           0.008773           1.266351           0.008773           1.266351
        4.474474           0.008836           1.267230           0.008836           1.267230
        4.484484           0.008899           1.268115           0.008899           1.268115
        4.494494           0.008964           1.269007           0.008964           1.269007
        4.504504           0.009028           1.269905           0.009028           1.269905
        4.514514           0.009094           1.270810           0.009094           1.270810
        4.524524           0.009160           1.271721           0.009160           1.271721
        4.534534           0.009228           1.272639           0.009228           1.272639
        4.544544           0.009295           1.273563           0.009295           1.273563
        4.554554           0.009364           1.274494           0.009364           1.274494
        4.564565           0.009434           1.275432           0.009434           1.275432
        4.574574           0.009504           1.276378           0.009504           1.276378
        4.584584           0.009575           1.277330           0.009575           1.277330
        4.594594           0.009647           1.278289           0.009647           1.278289
        4.604605           0.009720           1.279256           0.009720           1.279255
        4.614614           0.009793           1.280229           0.009793           1.280229
        4.624624           0.009868           1.281210           0.009868           1.281210
        4.634634           0.009943           1.282199           0.009943           1.282199
        4.644644           0.010020           1.283195           0.010020           1.283195
        4.654655           0.010097           1.284199           0.010097           1.284199
        4.664664           0.010175           1.285210           0.010175           1.285210
        4.674675           0.010254           1.286229           0.010254           1.286229
        4.684684           0.010334           1.287257           0.010334           1.287257
        4.694695           0.010415           1.288292           0.010415           1.288292
        4.704704           0.010498           1.289335           0.010498           1.289335
        4.714715           0.010581           1.290387           0.010581           1.290387
        4.724724           0.010665           1.291447           0.010665           1.291447
        4.734735           0.010750           1.292515           0.010750           1.292515
        4.744744           0.010836           1.293592           0.010836           1.293592
        4.754755           0.010923           1.294677           0.010923           1.294677
        4.764764           0.011012           1.295771           0.011012           1.295771
        4.774775           0.011101           1.296874           0.011101           1.296874
        4.784785           0.011192           1.297986           0.011192           1.297986
        4.794795           0.011284           1.299107           0.011284           1.299107
        4.804804           0.011377           1.300237           0.011377           1.300237
        4.814815           0.011471           1.301377           0.011471           1.301377
        4.824825           0.011566           1.302526           0.011566           1.302526
        4.834835           0.011663           1.303684           0.011663           1.303684
        4.844844           0.011761           1.304852           0.011761           1.304852
        4.854855           0.011860           1.306030           0.011860           1.306030
        4.864865           0.011961           1.307218           0.011961           1.307218
        4.874875           0.012063           1.308416           0.012063           1.308416
        4.884884           0.012166           1.309624           0.012166           1.309624
        4.894895           0.012271           1.310842           0.012271           1.310842
        4.904905           0.012377           1.312071           0.012377           1.312071
        4.914915           0.012484           1.313311           0.012484           1.313311
        4.924924           0.012593           1.314561           0.012593           1.314561
        4.934935           0.012703           1.315822           0.012703           1.315822
        4.944945           0.012815           1.317094           0.012815           1.317094
        4.954955           0.012929           1.318377           0.012929           1.318377
        4.964964           0.013044           1.319672           0.013044           1.319672
        4.974975           0.013161           1.320978           0.013161           1.320978
        4.984985           0.013279           1.322296           0.013279           1.322296
        4.994995           0.013399           1.323625           0.013399           1.323625
        5.005005           0.013520           1.324967           0.013520           1.324967
        5.015015           0.013644           1.326320           0.013644           1.326320
        5.025025           0.013769           1.327687           0.013769           1.327687
        5.035035           0.013896           1.329065           0.013896           1.329065
        5.045045           0.014025           1.330456           0.014025           1.330456
        5.055055           0.014155           1.331860           0.014155           1.331860
        5.065065           0.014288           1.333277           0.014288           1.333278
        5.075075           0.014423           1.334708           0.014423           1.334708
        5.085085           0.014559           1.336152           0.014559           1.336152
        5.095095           0.014698           1.337609           0.014698           1.337609
        5.105105           0.014838           1.339080           0.014838           1.339080
        5.115115           0.014981           1.340566           0.014981           1.340566
        5.125125           0.015126           1.342065           0.015126           1.342065
        5.135135           0.015273           1.343579           0.015273           1.343579
        5.145144           0.015422           1.345108           0.015422           1.345108
        5.155155           0.015574           1.346652           0.015574           1.346652
        5.165165           0.015728           1.348210           0.015728           1.348210
        5.175175           0.015884           1.349784           0.015884           1.349784
        5.185184           0.016043           1.351374           0.016043           1.351374
        5.195195           0.016204           1.352980           0.016204           1.352980
        5.205205           0.016368           1.354601           0.016368           1.354601
        5.215215           0.016534           1.356239           0.016534           1.356239
        5.225225           0.016703           1.357894           0.016703           1.357894
        5.235235           0.016875           1.359565           0.016875           1.359565
        5.245245           0.017049           1.361254           0.017049           1.361254
        5.255255           0.017227           1.362960           0.017227           1.362960
        5.265265           0.017407           1.364683           0.017407           1.364683
        5.275275           0.017590           1.366425           0.017590           1.366425
        5.285285           0.017776           1.368185           0.017776           1.368185
        5.295295           0.017965           1.369963           0.017965           1.369963
        5.305305           0.018158           1.371760           0.018158           1.371760
        5.315315           0.018354           1.373577           0.018354           1.373577
        5.325325           0.018553           1.375413           0.018553           1.375413
        5.335335           0.018755           1.377269           0.018755           1.377268
        5.345345           0.018961           1.379144           0.018961           1.379144
        5.355355           0.019170           1.381041           0.019170           1.381041
        5.365365           0.019383           1.382958           0.019383           1.382958
        5.375375           0.019600           1.384897           0.019600           1.384897
        5.385385           0.019820           1.386857           0.019820           1.386857
        5.395395           0.020045           1.388839           0.020045           1.388839
        5.405405           0.020273           1.390843           0.020273           1.390843
        5.415415           0.020505           1.392870           0.020505           1.392870
        5.425425           0.020742           1.394920           0.020742           1.394920
        5.435435           0.020983           1.396994           0.020983           1.396994
        5.445445           0.021228           1.399092           0.021228           1.399092
        5.455455           0.021478           1.401214           0.021478           1.401214
        5.465465           0.021732           1.403361           0.021732           1.403361
        5.475475           0.021991           1.405534           0.021991           1.405534
        5.485485           0.022255           1.407732           0.022255           1.407732
        5.495495           0.022524           1.409956           0.022524           1.409956
        5.505505           0.022798           1.412207           0.022798           1.412207
        5.515515           0.023077           1.414485           0.023077           1.414485
        5.525526           0.023362           1.416791           0.023362           1.416791
        5.535535           0.023652           1.419126           0.023652           1.419126
        5.545545           0.023948           1.421489           0.023948           1.421489
        5.555555           0.024249           1.423881           0.024249           1.423881
        5.565566           0.024557           1.426304           0.024557           1.426304
        5.575575           0.024870           1.428757           0.024870           1.428757
        5.585585           0.025190           1.431241           0.025190           1.431241
        5.595595           0.025516           1.433757           0.025516           1.433757
        5.605606           0.025849           1.436305           0.025849           1.436305
        5.615615           0.026189           1.438887           0.026189           1.438887
        5.625625           0.026535           1.441502           0.026535           1.441502
        5.635635           0.026889           1.444151           0.026889           1.444151
        5.645645           0.027251           1.446835           0.027251           1.446835
        5.655655           0.027619           1.449556           0.027619           1.449556
        5.665665           0.027996           1.452313           0.027996           1.452313
        5.675675           0.028381           1.455107           0.028381           1.455107
        5.685685           0.028774           1.457939           0.028774           1.457939
        5.695695           0.029176           1.460811           0.029176           1.460811
        5.705705           0.029586           1.463722           0.029586           1.463722
        5.715715           0.030005           1.466673           0.030005           1.466673
        5.725725           0.030434           1.469666           0.030434           1.469666
        5.735735           0.030872           1.472702           0.030872           1.472702
        5.745746           0.031320           1.475781           0.031320           1.475781
        5.755755           0.031779           1.478904           0.031779           1.478904
        5.765765           0.032248           1.482073           0.032248           1.482073
        5.775775           0.032727           1.485288           0.032727           1.485288
        5.785786           0.033218           1.488550           0.033218           1.488550
        5.795795           0.033721           1.491861           0.033721           1.491861
        5.805805           0.034235           1.495222           0.034235           1.495222
        5.815815           0.034761           1.498633           0.034761           1.498633
        5.825826           0.035301           1.502096           0.035301           1.502096
        5.835835           0.035853           1.505613           0.035853           1.505613
        5.845845           0.036419           1.509183           0.036419           1.509183
        5.855855           0.036999           1.512810           0.036999           1.512810
        5.865866           0.037593           1.516494           0.037593           1.516494
        5.875876           0.038203           1.520236           0.038203           1.520236
        5.885885           0.038827           1.524039           0.038827           1.524038
        5.895895           0.039468           1.527902           0.039468           1.527902
        5.905906           0.040125           1.531829           0.040125           1.531829
        5.915915           0.040800           1.535820           0.040800           1.535820
        5.925925           0.041492           1.539878           0.041492           1.539878
        5.935935           0.042203           1.544004           0.042203           1.544004
        5.945946           0.042932           1.548200           0.042932           1.548200
        5.955956           0.043682           1.552467           0.043682           1.552467
        5.965966           0.044451           1.556808           0.044451           1.556807
        5.975976           0.045243           1.561224           0.045243           1.561224
        5.985986           0.046056           1.565717           0.046056           1.565717
        5.995996           0.046892           1.570290           0.046892           1.570290
        6.006006           0.047752           1.574945           0.047752           1.574945
        6.016016           0.048636           1.579685           0.048636           1.579685
        6.026026           0.049546           1.584510           0.049546           1.584510
        6.036036           0.050483           1.589425           0.050483           1.589425
        6.046046           0.051447           1.594431           0.051447           1.594431
        6.056056           0.052441           1.599531           0.052441           1.599531
        6.066066           0.053464           1.604728           0.053464           1.604728
        6.076076           0.054519           1.610024           0.054519           1.610024
        6.086086           0.055606           1.615423           0.055606           1.615423
        6.096096           0.056727           1.620928           0.056727           1.620928
        6.106106           0.057883           1.626542           0.057883           1.626542
        6.116116           0.059077           1.632268           0.059077           1.632268
        6.126126           0.060309           1.638109           0.060309           1.638109
        6.136136           0.061581           1.644071           0.061581           1.644071
        6.146146           0.062895           1.650155           0.062895           1.650155
        6.156156           0.064253           1.656366           0.064253           1.656366
        6.166166           0.065657           1.662708           0.065657           1.662709
        6.176176           0.067109           1.669187           0.067109           1.669187
        6.186186           0.068611           1.675804           0.068611           1.675804
        6.196196           0.070165           1.682567           0.070165           1.682567
        6.206206           0.071775           1.689479           0.071775           1.689479
        6.216216           0.073443           1.696545           0.073443           1.696545
        6.226226           0.075172           1.703771           0.075172           1.703771
        6.236236           0.076964           1.711163           0.076964           1.711163
        6.246246           0.078823           1.718726           0.078823           1.718726
        6.256256           0.080752           1.726467           0.080752           1.726467
        6.266266           0.082755           1.734391           0.082755           1.734391
        6.276276           0.084837           1.742507           0.084837           1.742507
        6.286286           0.087000           1.750819           0.087000           1.750819
        6.296296           0.089249           1.759337           0.089249           1.759337
        6.306306           0.091590           1.768067           0.091590           1.768067
        6.316316           0.094026           1.777019           0.094026           1.777019
        6.326326           0.096564           1.786200           0.096564           1.786200
        6.336336           0.099210           1.795619           0.099210           1.795619
        6.346346           0.101969           1.805287           0.101969           1.805287
        6.356356           0.104848           1.815212           0.104848           1.815212
        6.366366           0.107855           1.825406           0.107855           1.825406
        6.376376           0.110996           1.835880           0.110996           1.835880
        6.386386           0.114281           1.846645           0.114281           1.846645
        6.396396           0.117719           1.857714           0.117719           1.857714
        6.406406           0.121318           1.869099           0.121318           1.869100
        6.416416           0.125090           1.880815           0.125090           1.880815
        6.426426           0.129046           1.892876           0.129046           1.892876
        6.436436           0.133198           1.905298           0.133198           1.905298
        6.446446           0.137559           1.918096           0.137559           1.918096
        6.456456           0.142144           1.931288           0.142144           1.931288
        6.466466           0.146968           1.944893           0.146968           1.944893
        6.476476           0.152050           1.958929           0.152050           1.958929
        6.486486           0.157407           1.973418           0.157407           1.973417
        6.496496           0.163059           1.988379           0.163059           1.988379
        6.506506           0.169030           2.003838           0.169030           2.003838
        6.516516           0.175344           2.019819           0.175344           2.019819
        6.526526           0.182028           2.036347           0.182028           2.036347
        6.536536           0.189110           2.053449           0.189110           2.053449
        6.546546           0.196626           2.071157           0.196626           2.071157
        6.556556           0.204609           2.089500           0.204609           2.089500
        6.566566           0.213101           2.108512           0.213101           2.108512
        6.576576           0.222144           2.128227           0.222144           2.128227
        6.586586           0.231789           2.148684           0.231789           2.148684
        6.596596           0.242091           2.169920           0.242091           2.169920
        6.606606           0.253109           2.191979           0.253109           2.191979
        6.616616           0.264911           2.214904           0.264911           2.214904
        6.626626           0.277576           2.238742           0.277576           2.238742
        6.636636           0.291186           2.263542           0.291186           2.263542
        6.646646           0.305840           2.289355           0.305840           2.289354
        6.656656           0.321644           2.316232           0.321644           2.316232
        6.666666           0.338722           2.344231           0.338722           2.344231
        6.676676           0.357212           2.373409           0.357212           2.373409
        6.686686           0.377272           2.403820           0.377272           2.403820
        6.696696           0.399080           2.435524           0.399080           2.435524
        6.706707           0.422842           2.468575           0.422842           2.468575
        6.716716           0.448789           2.503025           0.448789           2.503025
        6.726726           0.477189           2.538919           0.477189           2.538918
        6.736736           0.508348           2.576294           0.508348           2.576294
        6.746747           0.542618           2.615171           0.542618           2.615170
        6.756756           0.580403           2.655548           0.580403           2.655548
        6.766766           0.622165           2.697392           0.622165           2.697392
        6.776776           0.668440           2.740632           0.668440           2.740632
        6.786787           0.719839           2.785133           0.719839           2.785133
        6.796796           0.777060           2.830678           0.777060           2.830678
        6.806807           0.840898           2.876942           0.840898           2.876942
        6.816816           0.912244           2.923445           0.912244           2.923445
        6.826826           0.992094           2.969515           0.992094           2.969515
        6.836837           1.081537           3.014215           1.081537           3.014215
        6.846846           1.181697           3.056254           1.181697           3.056254
        6.856857           1.293726           3.093916           1.293726           3.093916
        6.866867           1.418638           3.124921           1.418637           3.124920
        6.876876           1.557193           3.146344           1.557193           3.146344
        6.886887           1.709628           3.154520           1.709628           3.154520
        6.896896           1.875247           3.145034           1.875247           3.145034
        6.906906           2.052030           3.112867           2.052030           3.112866
        6.916917           2.236080           3.052768           2.236080           3.052768
        6.926927           2.421114           2.960021           2.421113           2.960021
        6.936936           2.598401           2.831528           2.598400           2.831528
        6.946947           2.757164           2.667194           2.757165           2.667194
        6.956956           2.885844           2.471236           2.885844           2.471237
        6.966967           2.974290           2.252621           2.974290           2.252621
        6.976976           3.016078           2.024447           3.016078           2.024447
        6.986986           3.010354           1.801738           3.010353           1.801737
        6.996997           2.962152           1.598646           2.962153           1.598646
        7.007007           2.881196           1.425980           2.881196           1.425980
        7.017016           2.779626           1.289744           2.779626           1.289744
        7.027027           2.669699           1.191224           2.669699           1.191224
        7.037036           2.562159           1.128003           2.562159           1.128003
        7.047047           2.465390           1.095256           2.465390           1.095256
        7.057057           2.385422           1.087003           2.385422           1.087003
        7.067066           2.326219           1.096910           2.326219           1.096910
        7.077077           2.290183           1.118748           2.290183           1.118748
        7.087087           2.278591           1.146505           2.278591           1.146505
        7.097096           2.291852           1.174333           2.291852           1.174333
        7.107107           2.329625           1.196382           2.329625           1.196381
        7.117116           2.390711           1.206623           2.390712           1.206623
        7.127127           2.472798           1.198793           2.472798           1.198794
        7.137137           2.571992           1.166504           2.571991           1.166504
        7.147147           2.682375           1.103662           2.682375           1.103662
        7.157157           2.795624           1.005282           2.795624           1.005282
        7.167167           2.901002           0.868722           2.901003           0.868722
        7.177176           2.986157           0.695013           2.986158           0.695013
        7.187187           3.038718           0.489921           3.038718           0.489922
        7.197196           3.048602           0.264126           3.048602           0.264126
        7.207206           3.010351           0.031830           3.010351           0.031830
        7.217217           2.924446          -0.191696           2.924447          -0.191696
        7.227227           2.797090          -0.392956           2.797090          -0.392955
        7.237237           2.638410          -0.562546           2.638411          -0.562546
        7.247247           2.460123          -0.695878           2.460123          -0.695878
        7.257257           2.273266          -0.792801           2.273266          -0.792801
        7.267267           2.086858          -0.856301           2.086858          -0.856302
        7.277277           1.907440          -0.891098           1.907440          -0.891098
        7.287286           1.739116          -0.902508           1.739116          -0.902508
        7.297297           1.584044          -0.895654           1.584044          -0.895654
        7.307307           1.443009          -0.875063           1.443009          -0.875063
        7.317317           1.315811          -0.844501           1.315811          -0.844501
        7.327327           1.201735          -0.806993           1.201735          -0.806993
        7.337337           1.099740          -0.764881           1.099740          -0.764881
        7.347347           1.008672          -0.719944           1.008672          -0.719944
        7.357357           0.927391          -0.673519           0.927391          -0.673519
        7.367367           0.854788          -0.626577           0.854788          -0.626577
        7.377377           0.789846          -0.579815           0.789846          -0.579815
        7.387387           0.731664          -0.533736           0.731664          -0.533735
        7.397398           0.679420          -0.488672           0.679420          -0.488672
        7.407407           0.632409          -0.444858           0.632409          -0.444858
        7.417417           0.590002          -0.402431           0.590002          -0.402431
        7.427427           0.551651          -0.361467           0.551651          -0.361467
        7.437437           0.516888          -0.322009           0.516888          -0.322009
        7.447447           0.485297          -0.284055           0.485297          -0.284054
        7.457457           0.456517          -0.247583           0.456517          -0.247582
        7.467467           0.430240          -0.212564           0.430240          -0.212564
        7.477477           0.406190          -0.178950           0.406190          -0.178950
        7.487487           0.384128          -0.146686           0.384128          -0.146686
        7.497497           0.363850          -0.115723           0.363850          -0.115723
        7.507507           0.345168          -0.085998           0.345168          -0.085998
        7.517517           0.327925          -0.057458           0.327925          -0.057458
        7.527527           0.311979          -0.030043           0.311979          -0.030043
        7.537537           0.297203          -0.003695           0.297203          -0.003695
        7.547547           0.283490           0.021635           0.283490           0.021635
        7.557557           0.270739           0.046000           0.270739           0.046000
        7.567567           0.258863           0.069453           0.258863           0.069453
        7.577577           0.247787           0.092037           0.247787           0.092037
        7.587587           0.237439           0.113800           0.237439           0.113800
        7.597597           0.227759           0.134781           0.227759           0.134781
        7.607607           0.218690           0.155021           0.218690           0.155021
        7.617618           0.210182           0.174560           0.210182           0.174560
        7.627627           0.202191           0.193431           0.202191           0.193431
        7.637637           0.194676           0.211668           0.194676           0.211668
        7.647647           0.187600           0.229305           0.187600           0.229305
        7.657657           0.180930           0.246368           0.180930           0.246368
        7.667667           0.174636           0.262888           0.174636           0.262888
        7.677677           0.168691           0.278889           0.168691           0.278889
        7.687687           0.163069           0.294398           0.163069           0.294398
        7.697698           0.157748           0.309438           0.157748           0.309439
        7.707707           0.152708           0.324031           0.152708           0.324031
        7.717717           0.147928           0.338196           0.147928           0.338196
        7.727727           0.143392           0.351957           0.143392           0.351957
        7.737737           0.139085           0.365328           0.139085           0.365328
        7.747747           0.134990           0.378328           0.134990           0.378328
        7.757757           0.131094           0.390976           0.131094           0.390976
        7.767767           0.127387           0.403284           0.127387           0.403284
        7.777778           0.123854           0.415270           0.123854           0.415270
        7.787787           0.120487           0.426945           0.120487           0.426945
        7.797797           0.117276           0.438325           0.117276           0.438325
        7.807807           0.114211           0.449421           0.114211           0.449421
        7.817817           0.111283           0.460246           0.111283           0.460246
        7.827827           0.108486           0.470810           0.108486           0.470810
        7.837838           0.105812           0.481125           0.105812           0.481125
        7.847847           0.103254           0.491200           0.103254           0.491200
        7.857858           0.100806           0.501047           0.100806           0.501047
        7.867867           0.098463           0.510673           0.098463           0.510673
        7.877877           0.096218           0.520087           0.096218           0.520087
        7.887887           0.094066           0.529299           0.094066           0.529299
        7.897897           0.092004           0.538315           0.092004           0.538315
        7.907907           0.090026           0.547144           0.090026           0.547144
        7.917918           0.088128           0.555793           0.088128           0.555793
        7.927927           0.086307           0.564269           0.086307           0.564269
        7.937938           0.084558           0.572578           0.084558           0.572578
        7.947948           0.082879           0.580727           0.082879           0.580727
        7.957957           0.081266           0.588722           0.081266           0.588722
        7.967968           0.079717           0.596569           0.079717           0.596569
        7.977977           0.078228           0.604273           0.078228           0.604273
        7.987987           0.076797           0.611839           0.076797           0.611840
        7.997998           0.075421           0.619274           0.075421           0.619274
        8.008007           0.074098           0.626581           0.074098           0.626581
        8.018017           0.072825           0.633766           0.072825           0.633766
        8.028028           0.071602           0.640833           0.071602           0.640833
        8.038037           0.070425           0.647786           0.070425           0.647786
        8.048048           0.069293           0.654629           0.069293           0.654629
        8.058058           0.068204           0.661367           0.068204           0.661367
        8.068068           0.067157           0.668004           0.067157           0.668004
        8.078078           0.066149           0.674543           0.066149           0.674543
        8.088087           0.065180           0.680988           0.065180           0.680988
        8.098097           0.064249           0.687342           0.064249           0.687342
        8.108108           0.063353           0.693609           0.063353           0.693609
        8.118117           0.062492           0.699792           0.062492           0.699792
        8.128128           0.061665           0.705894           0.061665           0.705894
        8.138138           0.060870           0.711919           0.060870           0.711919
        8.148148           0.060107           0.717868           0.060107           0.717868
        8.158158           0.059374           0.723747           0.059374           0.723747
        8.168168           0.058671           0.729555           0.058671           0.729555
        8.178178           0.057996           0.735298           0.057996           0.735298
        8.188188           0.057350           0.740977           0.057350           0.740977
        8.198197           0.056731           0.746595           0.056731           0.746595
        8.208207           0.056140           0.752154           0.056140           0.752154
        8.218218           0.055574           0.757658           0.055574           0.757658
        8.228228           0.055034           0.763107           0.055034           0.763107
        8.238238           0.054519           0.768506           0.054519           0.768506
        8.248248           0.054029           0.773855           0.054029           0.773855
        8.258258           0.053563           0.779157           0.053563           0.779157
        8.268268           0.053121           0.784415           0.053121           0.784415
        8.278277           0.052703           0.789630           0.052703           0.789630
        8.288287           0.052309           0.794805           0.052309           0.794805
        8.298298           0.051938           0.799942           0.051938           0.799942
        8.308308           0.051591           0.805042           0.051591           0.805042
        8.318318           0.051268           0.810108           0.051268           0.810108
        8.328328           0.050968           0.815141           0.050968           0.815141
        8.338338           0.050692           0.820143           0.050692           0.820143
        8.348348           0.050441           0.825117           0.050441           0.825117
        8.358357           0.050215           0.830064           0.050215           0.830064
        8.368367           0.050013           0.834985           0.050013           0.834985
        8.378378           0.049839           0.839882           0.049839           0.839882
        8.388388           0.049691           0.844757           0.049691           0.844757
        8.398398           0.049572           0.849611           0.049572           0.849611
        8.408408           0.049483           0.854444           0.049483           0.854444
        8.418418           0.049425           0.859257           0.049425           0.859257
        8.428429           0.049400           0.864051           0.049400           0.864051
        8.438437           0.049410           0.868824           0.049410           0.868824
        8.448447           0.049458           0.873577           0.049458           0.873577
        8.458458           0.049545           0.878307           0.049545           0.878307
        8.468468           0.049674           0.883011           0.049674           0.883011
        8.478477           0.049846           0.887684           0.049846           0.887684
        8.488488           0.050061           0.892322           0.050061           0.892322
        8.498498           0.050318           0.896915           0.050318           0.896915
        8.508509           0.050613           0.901456           0.050613           0.901456
        8.518518           0.050939           0.905934           0.050939           0.905934
        8.528527           0.051283           0.910340           0.051283           0.910340
        8.538538           0.051626           0.914671           0.051626           0.914671
        8.548548           0.051946           0.918924           0.051946           0.918924
        8.558558           0.052219           0.923110           0.052219           0.923110
        8.568568           0.052422           0.927247           0.052422           0.927247
        8.578578           0.052539           0.931363           0.052539           0.931363
        8.588589           0.052566           0.935491           0.052566           0.935491
        8.598598           0.052512           0.939664           0.052512           0.939664
        8.608608           0.052393           0.943907           0.052393           0.943907
        8.618618           0.052235           0.948236           0.052235           0.948236
        8.628628           0.052061           0.952659           0.052061           0.952659
        8.638638           0.051895           0.957173           0.051895           0.957174
        8.648648           0.051752           0.961773           0.051752           0.961774
        8.658658           0.051645           0.966449           0.051645           0.966449
        8.668669           0.051581           0.971192           0.051581           0.971192
        8.678679           0.051564           0.975994           0.051564           0.975994
        8.688688           0.051593           0.980847           0.051593           0.980847
        8.698698           0.051670           0.985748           0.051670           0.985748
        8.708708           0.051794           0.990691           0.051794           0.990691
        8.718718           0.051961           0.995676           0.051961           0.995676
        8.728728           0.052172           1.000700           0.052172           1.000700
        8.738738           0.052423           1.005763           0.052423           1.005763
        8.748748           0.052715           1.010866           0.052715           1.010866
        8.758759           0.053045           1.016011           0.053045           1.016011
        8.768768           0.053412           1.021197           0.053412           1.021197
        8.778779           0.053817           1.026428           0.053817           1.026428
        8.788788           0.054258           1.031704           0.054258           1.031704
        8.798798           0.054736           1.037029           0.054736           1.037029
        8.808808           0.055250           1.042405           0.055250           1.042405
        8.818818           0.055800           1.047834           0.055800           1.047834
        8.828828           0.056387           1.053319           0.056387           1.053319
        8.838839           0.057012           1.058864           0.057012           1.058864
        8.848848           0.057674           1.064471           0.057674           1.064471
        8.858859           0.058375           1.070145           0.058375           1.070145
        8.868869           0.059116           1.075886           0.059116           1.075886
        8.878878           0.059898           1.081700           0.059898           1.081700
        8.888888           0.060722           1.087590           0.060722           1.087591
        8.898898           0.061590           1.093560           0.061590           1.093560
        8.908908           0.062503           1.099614           0.062503           1.099614
        8.918919           0.063463           1.105755           0.063463           1.105755
        8.928928           0.064471           1.111988           0.064471           1.111988
        8.938939           0.065531           1.118318           0.065531           1.118318
        8.948949           0.066643           1.124748           0.066643           1.124748
        8.958959           0.067810           1.131284           0.067810           1.131284
        8.968968           0.069036           1.137931           0.069036           1.137931
        8.978978           0.070322           1.144693           0.070322           1.144693
        8.988988           0.071671           1.151577           0.071671           1.151577
        8.998999           0.073087           1.158588           0.073087           1.158588
        9.009008           0.074573           1.165732           0.074573           1.165732
        9.019018           0.076133           1.173015           0.076133           1.173015
        9.029029           0.077771           1.180444           0.077771           1.180444
        9.039039           0.079491           1.188025           0.079491           1.188025
        9.049048           0.081297           1.195767           0.081297           1.195767
        9.059058           0.083195           1.203676           0.083195           1.203676
        9.069068           0.085190           1.211760           0.085190           1.211760
        9.079079           0.087287           1.220029           0.087287           1.220029
        9.089088           0.089493           1.228489           0.089493           1.228489
        9.099098           0.091815           1.237152           0.091815           1.237152
        9.109109           0.094259           1.246027           0.094259           1.246027
        9.119119           0.096834           1.255124           0.096834           1.255124
        9.129129           0.099548           1.264456           0.099548           1.264456
        9.139138           0.102410           1.274031           0.102410           1.274031
        9.149148           0.105431           1.283864           0.105431           1.283864
        9.159159           0.108621           1.293967           0.108621           1.293967
        9.169168           0.111992           1.304355           0.111992           1.304355
        9.179178           0.115557           1.315040           0.115557           1.315041
        9.189189           0.119331           1.326042           0.119331           1.326042
        9.199199           0.123327           1.337373           0.123327           1.337373
        9.209209           0.127565           1.349053           0.127565           1.349053
        9.219219           0.132061           1.361099           0.132061           1.361099
        9.229228           0.136837           1.373531           0.136837           1.373531
        9.239239           0.141915           1.386372           0.141915           1.386372
        9.249249           0.147319           1.399642           0.147319           1.399642
        9.259258           0.153076           1.413365           0.153076           1.413365
        9.269269           0.159217           1.427568           0.159217           1.427568
        9.279279           0.165775           1.442276           0.165775           1.442276
        9.289289           0.172786           1.457517           0.172786           1.457517
        9.299299           0.180292           1.473324           0.180292           1.473324
        9.309309           0.188337           1.489725           0.188337           1.489725
        9.319319           0.196973           1.506758           0.196973           1.506758
        9.329329           0.206256           1.524455           0.206256           1.524455
        9.339338           0.216249           1.542857           0.216249           1.542857
        9.349349           0.227025           1.562004           0.227025           1.562004
        9.359359           0.238660           1.581937           0.238660           1.581936
        9.369369           0.251245           1.602699           0.251245           1.602699
        9.379379           0.264883           1.624341           0.264883           1.624341
        9.389389           0.279685           1.646907           0.279685           1.646907
        9.399399           0.295784           1.670450           0.295784           1.670450
        9.409409           0.313325           1.695017           0.313325           1.695018
        9.419418           0.332479           1.720662           0.332479           1.720662
        9.429429           0.353441           1.747435           0.353441           1.747435
        9.439439           0.376429           1.775379           0.376429           1.775379
        9.449449           0.401699           1.804534           0.401699           1.804534
        9.459459           0.429547           1.834935           0.429547           1.834935
        9.469469           0.460304           1.866592           0.460304           1.866592
        9.479479           0.494361           1.899508           0.494361           1.899508
        9.489489           0.532159           1.933647           0.532159           1.933647
        9.499498           0.574213           1.968941           0.574213           1.968941
        9.509509           0.621118           2.005270           0.621118           2.005270
        9.519519           0.673543           2.042430           0.673543           2.042430
        9.529529           0.732267           2.080127           0.732267           2.080127
        9.539539           0.798176           2.117929           0.798176           2.117928
        9.549549           0.872250           2.155214           0.872250           2.155214
        9.559559           0.955590           2.191128           0.955590           2.191128
        9.569570           1.049388           2.224497           1.049388           2.224497
        9.579578           1.154862           2.253724           1.154862           2.253724
        9.589589           1.273234           2.276697           1.273234           2.276697
        9.599599           1.405527           2.290642           1.405527           2.290642
        9.609609           1.552423           2.292022           1.552423           2.292022
        9.619619           1.713921           2.276435           1.713921           2.276435
        9.629629           1.888856           2.238645           1.888855           2.238645
        9.639639           2.074421           2.172770           2.074421           2.172770
        9.649650           2.265535           2.072783           2.265535           2.072783
        9.659659           2.454303           1.933468           2.454303           1.933468
        9.669669           2.630038           1.751711           2.630038           1.751711
        9.679679           2.779808           1.528183           2.779808           1.528183
        9.689689           2.890203           1.268601           2.890203           1.268601
        9.699699           2.949800           0.984152           2.949800           0.984152
        9.709709           2.951852           0.690451           2.951852           0.690452
        9.719719           2.896121           0.404792           2.896121           0.404792
        9.729730           2.788908           0.142949           2.788908           0.142949
        9.739739           2.641408          -0.083454           2.641407          -0.083454
        9.749749           2.466987          -0.268314           2.466987          -0.268314
        9.759759           2.278637          -0.410672           2.278637          -0.410672
        9.769769           2.087295          -0.513382           2.087295          -0.513382
        9.779779           1.901003          -0.581590           1.901003          -0.581590
        9.789789           1.725074          -0.621282           1.725074          -0.621281
        9.799799           1.562454          -0.638376           1.562454          -0.638376
        9.809810           1.414372          -0.638169           1.414372          -0.638169
        9.819819           1.280932          -0.625120           1.280931          -0.625120
        9.829829           1.161485          -0.602830           1.161485          -0.602830
        9.839839           1.054999          -0.574117           1.054999          -0.574117
        9.849849           0.960294          -0.541146           0.960293          -0.541146
        9.859859           0.876118          -0.505536           0.876118          -0.505536
        9.869869           0.801297          -0.468496           0.801297          -0.468496
        9.879879           0.734719          -0.430902           0.734719          -0.430902
        9.889890           0.675383          -0.393380           0.675383          -0.393380
        9.899899           0.622409          -0.356382           0.622409          -0.356381
        9.909909           0.575010          -0.320210           0.575010          -0.320210
        9.919919           0.532499          -0.285067           0.532499          -0.285067
        9.929929           0.494286          -0.251085           0.494286          -0.251085
        9.939939           0.459847          -0.218332           0.459847          -0.218332
        9.949949           0.428737          -0.186845           0.428737          -0.186845
        9.959959           0.400565          -0.156628           0.400565          -0.156628
        9.969970           0.374988          -0.127661           0.374988          -0.127661
        9.979980           0.351718          -0.099921           0.351718          -0.099921
        9.989989           0.330495          -0.073366           0.330495          -0.073366
        10.00000           0.311094          -0.047950           0.311094          -0.047950
# 
# 11/30/2023 at 13:38 yambo_ph @ unimi-XPS-8930 [start]
# 11/30/2023 at 13:38                           [end]
#  
# Timing   [Min/Max/Average]: 08s/08s/08s
#
# .-Input file  yambo.in
# | optics                           # [R] Linear Response optical properties
# | dipoles                          # [R] Oscillator strenghts (or dipoles)
# | bss                              # [R] BSE solver
# | bse                              # [R][BSE] Bethe Salpeter Equation.
# | BoseTemp= 0.000000         eV    # Bosonic Temperature
# | FFTGvecs=  4653            RL    # [FFT] Plane-waves
# | DIP_Threads= 1                   # [OPENMP/X] Number of threads for dipoles
# | BS_nCPU_LinAlg_INV= 1            # [PARALLEL] CPUs for Linear Algebra (if -1 it is automatically set)
# | BS_nCPU_LinAlg_DIAGO= 1          # [PARALLEL] CPUs for Linear Algebra (if -1 it is automatically set)
# | X_Threads= 1                     # [OPENMP/X] Number of threads for response functions
# | K_Threads= 1                     # [OPENMP/BSK] Number of threads for response functions
# | BSKmod= "HARTREE"                # [BSE] IP/Hartree/HF/ALDA/SEX/BSfxc
# | BSEmod= "resonant"               # [BSE] resonant/retarded/coupling
# | BSSmod= "d"                      # [BSS] (h)aydock/(d)iagonalization/(s)lepc/(i)nversion/(t)ddft`
# | % DipBands
# |   3 |  6 |                           # [DIP] Bands range for dipoles
# | %
# | DipComputed= "R V P"             # [DIP] [default R P V; extra P2 Spin Orb]
# | BSENGexx= 1                RL    # [BSK] Exchange components
# | % BSEQptR
# |   1 |  9 |                           # [BSK] Transferred momenta range
# | %
# | % BSEBands
# |   3 |  6 |                           # [BSK] Bands range
# | %
# | % BEnRange
# |   0.00000 | 10.00000 |         eV    # [BSS] Energy range
# | %
# | % BDmRange
# |  0.100000 | 0.100000 |         eV    # [BSS] Damping range
# | %
# | BEnSteps= 1000                   # [BSS] Energy steps
# | % BLongDir
# |   0.00000    | 0.100000E-4 |  0.00000    # [BSS] [cc] Electric Field
# | %
# | BSEprop= "abs esrt jdos"         # [BSS] Can be any among abs/jdos/kerr/magn/dich/photolum/esrt
# | BSEdips= "none"                  # [BSS] Can be "trace/none" or "xy/xz/yz" to define off-diagonal rotation plane
# | WRbsWF                         # [BSS] Write to disk excitonic the WFs
