#                                                                     
#  __  __   ________   ___ __ __    _______   ______                  
# /_/\/_/\ /_______/\ /__//_//_/\ /_______/\ /_____/\                 
# \ \ \ \ \\::: _  \ \\::\| \| \ \\::: _  \ \\:::_ \ \                
#  \:\_\ \ \\::(_)  \ \\:.      \ \\::(_)  \/_\:\ \ \ \               
#   \::::_\/ \:: __  \ \\:.\-/\  \ \\::  _  \ \\:\ \ \ \              
#     \::\ \  \:.\ \  \ \\. \  \  \ \\::(_)  \ \\:\_\ \ \             
#      \__\/   \__\/\__\/ \__\/ \__\/ \_______\/ \_____\/             
#                                                                     
#                                                                     
# Version 5.2.0 Revision 22184 Hash (prev commit) 2871b0cee           
#                  Branch is devel-excph                              
#         MPI+OpenMP+SLK+SLEPC+HDF5_MPI_IO Build                      
#                http://www.yambo-code.org                            
#
# Absorption @ Q(5):   0.00000000    -0.333333373      0.00000000    [iku]
#
# [GEN] GF Energies                               : Slater exchange(X)+Perdew & Zunger(C)
# [GEN] Green`s Function                          : Resonant
#
# DIP band range                                  :   3   6
# DIP band range limits                           :   4   5
# DIP e/h energy range                            :  -1.00000000     -1.00000000    [eV]
# RL vectors in the sum                           :   4653
# [r,Vnl] included                                : yes
# Bands ordered                                   : yes
# Direct v evaluation                             : no
# Approach used                                   : G-space v
# Dipoles computed                                : R V P
# Wavefunctions                                   : Slater exchange(X)+Perdew & Zunger(C)
#
#
# [K] Identifier                                  :   7604
# [K] Q-point                                     :   0.00000000    -0.333333373      0.00000000   
# [K] Dimension                                   :   36
# [K] Bands                                       :   3   6
# [K] Exchange res                                : yes
# [K] Correlation res                             : yes
# [K] Kernel`s coupling                           : no
# [K] Exchange cpl                                : no
# [K] Correlation cpl                             : no
# [K] W interaction is bare                       : yes
# [K] ALDA kernel in R-space                      : no
# [K] RL vectors exchange                         :  1005
# [K] RL vectors correlation                      :  1005
# [K] E/h energy range                            :  -1.00000000     -1.00000000    [eV]
# [K] Coupling range                              :   100.000000      100.000000    [o/o]
# [K] BSE L kind                                  : BAR
# [W] Interaction is diagonal                     : yes
# [W] Matrix size                                 :  1
# [RIM] RL components col                         : 0
# [RIM] Random points col                         : 0
# [SOC] Perturbative SOC                          : no
# [X] Response Kind                               : BAR
#
# Diamagnetic term                                
# Ao                                              :  -7.19456720    [nel]
# A                                               :   0.00000000    [nel]
#
#    E[1] [eV]          Im(eps)            Re(eps)            Im(eps_o)          Re(eps_o)
#
        0.000000           0.001637           1.119968           0.523574E-3        1.069183
        0.010010           0.001641           1.120131           0.524383E-3        1.069236
        0.020020           0.001646           1.120296           0.525193E-3        1.069288
        0.030030           0.001651           1.120461           0.526005E-3        1.069341
        0.040040           0.001656           1.120626           0.526819E-3        1.069393
        0.050050           0.001660           1.120792           0.527635E-3        1.069446
        0.060060           0.001665           1.120959           0.528453E-3        1.069499
        0.070070           0.001670           1.121125           0.529272E-3        1.069552
        0.080080           0.001675           1.121293           0.530094E-3        1.069605
        0.090090           0.001680           1.121461           0.530918E-3        1.069658
        0.100100           0.001684           1.121629           0.531743E-3        1.069711
        0.110110           0.001689           1.121798           0.532571E-3        1.069764
        0.120120           0.001694           1.121967           0.533400E-3        1.069818
        0.130130           0.001699           1.122137           0.534232E-3        1.069871
        0.140140           0.001704           1.122307           0.535065E-3        1.069925
        0.150150           0.001709           1.122478           0.535901E-3        1.069978
        0.160160           0.001714           1.122649           0.536738E-3        1.070032
        0.170170           0.001719           1.122821           0.537577E-3        1.070086
        0.180180           0.001724           1.122993           0.538419E-3        1.070140
        0.190190           0.001729           1.123166           0.539262E-3        1.070194
        0.200200           0.001735           1.123339           0.540108E-3        1.070248
        0.210210           0.001740           1.123513           0.540955E-3        1.070302
        0.220220           0.001745           1.123687           0.541804E-3        1.070356
        0.230230           0.001750           1.123862           0.542656E-3        1.070410
        0.240240           0.001755           1.124038           0.543509E-3        1.070464
        0.250250           0.001760           1.124213           0.544365E-3        1.070519
        0.260260           0.001766           1.124390           0.545222E-3        1.070573
        0.270270           0.001771           1.124567           0.546082E-3        1.070628
        0.280280           0.001776           1.124744           0.546944E-3        1.070683
        0.290290           0.001782           1.124922           0.547808E-3        1.070738
        0.300300           0.001787           1.125101           0.548674E-3        1.070792
        0.310310           0.001792           1.125280           0.549541E-3        1.070847
        0.320320           0.001798           1.125459           0.550412E-3        1.070902
        0.330330           0.001803           1.125639           0.551284E-3        1.070958
        0.340340           0.001809           1.125820           0.552158E-3        1.071013
        0.350350           0.001814           1.126001           0.553034E-3        1.071068
        0.360360           0.001820           1.126183           0.553913E-3        1.071123
        0.370370           0.001825           1.126365           0.554793E-3        1.071179
        0.380380           0.001831           1.126548           0.555676E-3        1.071235
        0.390390           0.001836           1.126732           0.556561E-3        1.071290
        0.400400           0.001842           1.126916           0.557448E-3        1.071346
        0.410410           0.001847           1.127100           0.558337E-3        1.071402
        0.420420           0.001853           1.127285           0.559229E-3        1.071458
        0.430430           0.001859           1.127471           0.560122E-3        1.071514
        0.440440           0.001864           1.127657           0.561018E-3        1.071570
        0.450450           0.001870           1.127844           0.561916E-3        1.071626
        0.460460           0.001876           1.128032           0.562816E-3        1.071682
        0.470470           0.001882           1.128220           0.563718E-3        1.071739
        0.480480           0.001888           1.128408           0.564623E-3        1.071795
        0.490490           0.001893           1.128597           0.565529E-3        1.071852
        0.500500           0.001899           1.128787           0.566438E-3        1.071908
        0.510511           0.001905           1.128977           0.567349E-3        1.071965
        0.520521           0.001911           1.129168           0.568262E-3        1.072022
        0.530531           0.001917           1.129360           0.569178E-3        1.072079
        0.540541           0.001923           1.129552           0.570096E-3        1.072136
        0.550551           0.001929           1.129745           0.571016E-3        1.072193
        0.560561           0.001935           1.129938           0.571938E-3        1.072250
        0.570571           0.001941           1.130132           0.572863E-3        1.072307
        0.580581           0.001947           1.130326           0.573790E-3        1.072365
        0.590591           0.001954           1.130521           0.574719E-3        1.072422
        0.600601           0.001960           1.130717           0.575651E-3        1.072480
        0.610611           0.001966           1.130913           0.576584E-3        1.072538
        0.620621           0.001972           1.131111           0.577520E-3        1.072595
        0.630631           0.001978           1.131308           0.578459E-3        1.072653
        0.640641           0.001985           1.131506           0.579399E-3        1.072711
        0.650651           0.001991           1.131705           0.580342E-3        1.072769
        0.660661           0.001997           1.131905           0.581288E-3        1.072827
        0.670671           0.002004           1.132105           0.582236E-3        1.072886
        0.680681           0.002010           1.132306           0.583186E-3        1.072944
        0.690691           0.002017           1.132507           0.584138E-3        1.073002
        0.700701           0.002023           1.132709           0.585093E-3        1.073061
        0.710711           0.002030           1.132912           0.586050E-3        1.073119
        0.720721           0.002036           1.133115           0.587010E-3        1.073178
        0.730731           0.002043           1.133319           0.587972E-3        1.073237
        0.740741           0.002049           1.133524           0.588936E-3        1.073296
        0.750751           0.002056           1.133729           0.589903E-3        1.073355
        0.760761           0.002063           1.133936           0.590872E-3        1.073414
        0.770771           0.002069           1.134142           0.591844E-3        1.073473
        0.780781           0.002076           1.134350           0.592818E-3        1.073532
        0.790791           0.002083           1.134558           0.593794E-3        1.073592
        0.800801           0.002090           1.134766           0.594773E-3        1.073651
        0.810811           0.002097           1.134976           0.595755E-3        1.073711
        0.820821           0.002104           1.135186           0.596739E-3        1.073770
        0.830831           0.002110           1.135397           0.597725E-3        1.073830
        0.840841           0.002117           1.135608           0.598714E-3        1.073890
        0.850851           0.002124           1.135820           0.599705E-3        1.073950
        0.860861           0.002131           1.136033           0.600699E-3        1.074010
        0.870871           0.002139           1.136247           0.601695E-3        1.074070
        0.880881           0.002146           1.136461           0.602694E-3        1.074131
        0.890891           0.002153           1.136676           0.603696E-3        1.074191
        0.900901           0.002160           1.136892           0.604700E-3        1.074251
        0.910911           0.002167           1.137108           0.605706E-3        1.074312
        0.920921           0.002174           1.137326           0.606715E-3        1.074373
        0.930931           0.002182           1.137543           0.607727E-3        1.074433
        0.940941           0.002189           1.137762           0.608741E-3        1.074494
        0.950951           0.002196           1.137981           0.609758E-3        1.074555
        0.960961           0.002204           1.138201           0.610777E-3        1.074616
        0.970971           0.002211           1.138422           0.611799E-3        1.074678
        0.980981           0.002219           1.138644           0.612824E-3        1.074739
        0.990991           0.002226           1.138866           0.613851E-3        1.074800
        1.001001           0.002234           1.139089           0.614881E-3        1.074862
        1.011011           0.002241           1.139313           0.615913E-3        1.074923
        1.021021           0.002249           1.139538           0.616948E-3        1.074985
        1.031031           0.002257           1.139763           0.617986E-3        1.075047
        1.041041           0.002264           1.139989           0.619026E-3        1.075109
        1.051051           0.002272           1.140216           0.620069E-3        1.075171
        1.061061           0.002280           1.140444           0.621115E-3        1.075233
        1.071071           0.002288           1.140672           0.622164E-3        1.075295
        1.081081           0.002296           1.140902           0.623215E-3        1.075357
        1.091091           0.002304           1.141132           0.624268E-3        1.075420
        1.101101           0.002312           1.141363           0.625325E-3        1.075482
        1.111111           0.002320           1.141594           0.626384E-3        1.075545
        1.121121           0.002328           1.141827           0.627446E-3        1.075608
        1.131131           0.002336           1.142060           0.628511E-3        1.075671
        1.141141           0.002344           1.142294           0.629579E-3        1.075734
        1.151151           0.002352           1.142529           0.630649E-3        1.075797
        1.161161           0.002361           1.142765           0.631722E-3        1.075860
        1.171171           0.002369           1.143001           0.632798E-3        1.075923
        1.181181           0.002377           1.143239           0.633876E-3        1.075986
        1.191191           0.002386           1.143477           0.634958E-3        1.076050
        1.201201           0.002394           1.143716           0.636042E-3        1.076114
        1.211211           0.002402           1.143956           0.637129E-3        1.076177
        1.221221           0.002411           1.144197           0.638219E-3        1.076241
        1.231231           0.002420           1.144438           0.639312E-3        1.076305
        1.241241           0.002428           1.144681           0.640407E-3        1.076369
        1.251251           0.002437           1.144924           0.641506E-3        1.076433
        1.261261           0.002445           1.145168           0.642607E-3        1.076497
        1.271271           0.002454           1.145413           0.643712E-3        1.076562
        1.281281           0.002463           1.145659           0.644819E-3        1.076626
        1.291291           0.002472           1.145906           0.645929E-3        1.076691
        1.301301           0.002481           1.146154           0.647042E-3        1.076756
        1.311311           0.002490           1.146402           0.648158E-3        1.076820
        1.321321           0.002499           1.146652           0.649276E-3        1.076885
        1.331331           0.002508           1.146902           0.650398E-3        1.076950
        1.341341           0.002517           1.147154           0.651523E-3        1.077016
        1.351351           0.002526           1.147406           0.652650E-3        1.077081
        1.361361           0.002535           1.147659           0.653781E-3        1.077146
        1.371371           0.002545           1.147913           0.654915E-3        1.077212
        1.381381           0.002554           1.148168           0.656051E-3        1.077277
        1.391391           0.002563           1.148424           0.657191E-3        1.077343
        1.401401           0.002573           1.148681           0.658334E-3        1.077409
        1.411411           0.002582           1.148939           0.659479E-3        1.077475
        1.421421           0.002592           1.149197           0.660628E-3        1.077541
        1.431431           0.002601           1.149457           0.661780E-3        1.077607
        1.441441           0.002611           1.149718           0.662935E-3        1.077673
        1.451451           0.002621           1.149980           0.664093E-3        1.077740
        1.461461           0.002630           1.150242           0.665254E-3        1.077806
        1.471471           0.002640           1.150506           0.666418E-3        1.077873
        1.481481           0.002650           1.150770           0.667585E-3        1.077940
        1.491491           0.002660           1.151036           0.668755E-3        1.078007
        1.501501           0.002670           1.151303           0.669929E-3        1.078074
        1.511511           0.002680           1.151570           0.671105E-3        1.078141
        1.521521           0.002690           1.151839           0.672285E-3        1.078208
        1.531531           0.002700           1.152108           0.673468E-3        1.078275
        1.541541           0.002711           1.152379           0.674654E-3        1.078343
        1.551551           0.002721           1.152651           0.675843E-3        1.078410
        1.561561           0.002731           1.152923           0.677036E-3        1.078478
        1.571571           0.002742           1.153197           0.678232E-3        1.078546
        1.581581           0.002752           1.153472           0.679430E-3        1.078614
        1.591591           0.002763           1.153748           0.680633E-3        1.078682
        1.601601           0.002773           1.154024           0.681838E-3        1.078750
        1.611611           0.002784           1.154302           0.683047E-3        1.078818
        1.621622           0.002795           1.154581           0.684259E-3        1.078887
        1.631632           0.002805           1.154861           0.685474E-3        1.078955
        1.641642           0.002816           1.155143           0.686693E-3        1.079024
        1.651652           0.002827           1.155425           0.687914E-3        1.079093
        1.661662           0.002838           1.155708           0.689140E-3        1.079162
        1.671672           0.002849           1.155993           0.690368E-3        1.079231
        1.681682           0.002860           1.156278           0.691600E-3        1.079300
        1.691692           0.002872           1.156565           0.692835E-3        1.079369
        1.701702           0.002883           1.156852           0.694073E-3        1.079438
        1.711712           0.002894           1.157141           0.695315E-3        1.079508
        1.721722           0.002906           1.157431           0.696561E-3        1.079578
        1.731732           0.002917           1.157723           0.697809E-3        1.079647
        1.741742           0.002929           1.158015           0.699061E-3        1.079717
        1.751752           0.002940           1.158308           0.700317E-3        1.079787
        1.761762           0.002952           1.158603           0.701576E-3        1.079857
        1.771772           0.002964           1.158899           0.702838E-3        1.079928
        1.781782           0.002975           1.159196           0.704104E-3        1.079998
        1.791792           0.002987           1.159494           0.705374E-3        1.080069
        1.801802           0.002999           1.159793           0.706647E-3        1.080139
        1.811812           0.003011           1.160094           0.707923E-3        1.080210
        1.821822           0.003024           1.160396           0.709203E-3        1.080281
        1.831832           0.003036           1.160699           0.710486E-3        1.080352
        1.841842           0.003048           1.161003           0.711773E-3        1.080423
        1.851852           0.003060           1.161309           0.713064E-3        1.080495
        1.861862           0.003073           1.161615           0.714358E-3        1.080566
        1.871872           0.003085           1.161923           0.715656E-3        1.080638
        1.881882           0.003098           1.162232           0.716957E-3        1.080709
        1.891892           0.003111           1.162543           0.718262E-3        1.080781
        1.901902           0.003123           1.162855           0.719571E-3        1.080853
        1.911912           0.003136           1.163168           0.720883E-3        1.080925
        1.921922           0.003149           1.163482           0.722199E-3        1.080997
        1.931932           0.003162           1.163798           0.723518E-3        1.081070
        1.941942           0.003175           1.164114           0.724841E-3        1.081142
        1.951952           0.003188           1.164433           0.726168E-3        1.081215
        1.961962           0.003202           1.164752           0.727499E-3        1.081288
        1.971972           0.003215           1.165073           0.728833E-3        1.081360
        1.981982           0.003229           1.165395           0.730171E-3        1.081433
        1.991992           0.003242           1.165719           0.731513E-3        1.081506
        2.002002           0.003256           1.166044           0.732859E-3        1.081580
        2.012012           0.003269           1.166370           0.734208E-3        1.081653
        2.022022           0.003283           1.166698           0.735561E-3        1.081727
        2.032032           0.003297           1.167027           0.736918E-3        1.081800
        2.042042           0.003311           1.167357           0.738279E-3        1.081874
        2.052052           0.003325           1.167689           0.739644E-3        1.081948
        2.062062           0.003339           1.168022           0.741012E-3        1.082022
        2.072072           0.003354           1.168357           0.742384E-3        1.082097
        2.082082           0.003368           1.168693           0.743761E-3        1.082171
        2.092092           0.003382           1.169031           0.745141E-3        1.082245
        2.102102           0.003397           1.169369           0.746525E-3        1.082320
        2.112112           0.003412           1.169710           0.747913E-3        1.082395
        2.122122           0.003426           1.170052           0.749305E-3        1.082470
        2.132132           0.003441           1.170395           0.750701E-3        1.082545
        2.142142           0.003456           1.170740           0.752100E-3        1.082620
        2.152152           0.003471           1.171086           0.753504E-3        1.082695
        2.162162           0.003486           1.171434           0.754912E-3        1.082771
        2.172172           0.003502           1.171784           0.756324E-3        1.082847
        2.182182           0.003517           1.172135           0.757740E-3        1.082922
        2.192192           0.003532           1.172487           0.759160E-3        1.082998
        2.202202           0.003548           1.172841           0.760584E-3        1.083074
        2.212212           0.003564           1.173197           0.762012E-3        1.083150
        2.222222           0.003580           1.173554           0.763444E-3        1.083227
        2.232232           0.003595           1.173913           0.764880E-3        1.083303
        2.242242           0.003611           1.174273           0.766321E-3        1.083380
        2.252252           0.003628           1.174635           0.767765E-3        1.083457
        2.262262           0.003644           1.174998           0.769214E-3        1.083534
        2.272272           0.003660           1.175364           0.770667E-3        1.083611
        2.282282           0.003677           1.175730           0.772124E-3        1.083688
        2.292292           0.003693           1.176099           0.773585E-3        1.083765
        2.302302           0.003710           1.176469           0.775051E-3        1.083843
        2.312312           0.003727           1.176841           0.776520E-3        1.083920
        2.322322           0.003744           1.177214           0.777994E-3        1.083998
        2.332332           0.003761           1.177590           0.779473E-3        1.084076
        2.342342           0.003778           1.177966           0.780955E-3        1.084154
        2.352352           0.003795           1.178345           0.782442E-3        1.084232
        2.362362           0.003813           1.178725           0.783934E-3        1.084311
        2.372372           0.003830           1.179108           0.785429E-3        1.084389
        2.382382           0.003848           1.179492           0.786929E-3        1.084468
        2.392392           0.003866           1.179877           0.788433E-3        1.084547
        2.402402           0.003884           1.180264           0.789942E-3        1.084626
        2.412412           0.003902           1.180654           0.791455E-3        1.084705
        2.422422           0.003920           1.181045           0.792973E-3        1.084784
        2.432432           0.003939           1.181438           0.794495E-3        1.084864
        2.442442           0.003957           1.181832           0.796021E-3        1.084943
        2.452452           0.003976           1.182229           0.797552E-3        1.085023
        2.462462           0.003994           1.182627           0.799088E-3        1.085103
        2.472472           0.004013           1.183028           0.800627E-3        1.085183
        2.482482           0.004032           1.183430           0.802172E-3        1.085263
        2.492492           0.004052           1.183834           0.803721E-3        1.085343
        2.502502           0.004071           1.184240           0.805275E-3        1.085424
        2.512512           0.004090           1.184648           0.806833E-3        1.085505
        2.522522           0.004110           1.185058           0.808396E-3        1.085585
        2.532532           0.004130           1.185470           0.809963E-3        1.085666
        2.542542           0.004150           1.185884           0.811535E-3        1.085748
        2.552552           0.004170           1.186300           0.813112E-3        1.085829
        2.562562           0.004190           1.186718           0.814694E-3        1.085910
        2.572572           0.004210           1.187137           0.816280E-3        1.085992
        2.582582           0.004231           1.187559           0.817871E-3        1.086074
        2.592592           0.004252           1.187984           0.819466E-3        1.086156
        2.602602           0.004272           1.188410           0.821067E-3        1.086238
        2.612612           0.004293           1.188838           0.822672E-3        1.086320
        2.622622           0.004315           1.189268           0.824282E-3        1.086402
        2.632632           0.004336           1.189700           0.825897E-3        1.086485
        2.642642           0.004357           1.190135           0.827516E-3        1.086568
        2.652653           0.004379           1.190572           0.829141E-3        1.086651
        2.662663           0.004401           1.191011           0.830770E-3        1.086734
        2.672673           0.004423           1.191452           0.832404E-3        1.086817
        2.682683           0.004445           1.191895           0.834043E-3        1.086900
        2.692693           0.004468           1.192340           0.835687E-3        1.086984
        2.702703           0.004490           1.192788           0.837336E-3        1.087068
        2.712713           0.004513           1.193238           0.838991E-3        1.087152
        2.722723           0.004536           1.193690           0.840650E-3        1.087235
        2.732733           0.004559           1.194145           0.842314E-3        1.087320
        2.742743           0.004582           1.194602           0.843983E-3        1.087404
        2.752753           0.004606           1.195061           0.845657E-3        1.087489
        2.762763           0.004629           1.195523           0.847336E-3        1.087573
        2.772773           0.004653           1.195987           0.849020E-3        1.087658
        2.782783           0.004677           1.196453           0.850710E-3        1.087743
        2.792793           0.004701           1.196922           0.852404E-3        1.087829
        2.802803           0.004726           1.197393           0.854104E-3        1.087914
        2.812813           0.004750           1.197866           0.855809E-3        1.087999
        2.822823           0.004775           1.198342           0.857519E-3        1.088085
        2.832833           0.004800           1.198821           0.859235E-3        1.088171
        2.842843           0.004826           1.199302           0.860955E-3        1.088257
        2.852853           0.004851           1.199786           0.862681E-3        1.088344
        2.862863           0.004877           1.200272           0.864412E-3        1.088430
        2.872873           0.004903           1.200761           0.866149E-3        1.088516
        2.882883           0.004929           1.201252           0.867890E-3        1.088603
        2.892893           0.004955           1.201746           0.869638E-3        1.088690
        2.902903           0.004982           1.202242           0.871390E-3        1.088777
        2.912913           0.005008           1.202742           0.873148E-3        1.088865
        2.922923           0.005035           1.203244           0.874912E-3        1.088952
        2.932933           0.005063           1.203748           0.876681E-3        1.089040
        2.942943           0.005090           1.204256           0.878455E-3        1.089128
        2.952953           0.005118           1.204766           0.880235E-3        1.089216
        2.962963           0.005146           1.205279           0.882020E-3        1.089304
        2.972973           0.005174           1.205794           0.883811E-3        1.089392
        2.982983           0.005202           1.206313           0.885607E-3        1.089481
        2.992993           0.005231           1.206834           0.887409E-3        1.089569
        3.003003           0.005260           1.207358           0.889217E-3        1.089658
        3.013013           0.005289           1.207886           0.891030E-3        1.089747
        3.023023           0.005319           1.208416           0.892849E-3        1.089837
        3.033033           0.005348           1.208949           0.894674E-3        1.089926
        3.043043           0.005378           1.209485           0.896504E-3        1.090016
        3.053053           0.005408           1.210024           0.898340E-3        1.090106
        3.063063           0.005439           1.210566           0.900182E-3        1.090196
        3.073073           0.005470           1.211111           0.902030E-3        1.090286
        3.083083           0.005501           1.211659           0.903883E-3        1.090376
        3.093093           0.005532           1.212210           0.905742E-3        1.090467
        3.103103           0.005564           1.212764           0.907607E-3        1.090557
        3.113113           0.005595           1.213322           0.909478E-3        1.090648
        3.123123           0.005628           1.213883           0.911355E-3        1.090739
        3.133133           0.005660           1.214447           0.913238E-3        1.090831
        3.143143           0.005693           1.215014           0.915127E-3        1.090922
        3.153153           0.005726           1.215584           0.917022E-3        1.091014
        3.163163           0.005759           1.216158           0.918922E-3        1.091106
        3.173173           0.005793           1.216735           0.920829E-3        1.091198
        3.183183           0.005827           1.217316           0.922742E-3        1.091290
        3.193193           0.005861           1.217900           0.924661E-3        1.091383
        3.203203           0.005896           1.218487           0.926586E-3        1.091475
        3.213213           0.005931           1.219078           0.928517E-3        1.091568
        3.223223           0.005966           1.219672           0.930454E-3        1.091661
        3.233233           0.006002           1.220270           0.932397E-3        1.091754
        3.243243           0.006038           1.220872           0.934347E-3        1.091848
        3.253253           0.006074           1.221477           0.936303E-3        1.091941
        3.263263           0.006110           1.222085           0.938265E-3        1.092035
        3.273273           0.006147           1.222697           0.940234E-3        1.092129
        3.283283           0.006185           1.223314           0.942209E-3        1.092223
        3.293293           0.006222           1.223933           0.944190E-3        1.092318
        3.303303           0.006260           1.224557           0.946178E-3        1.092412
        3.313313           0.006299           1.225184           0.948172E-3        1.092507
        3.323323           0.006338           1.225815           0.950172E-3        1.092602
        3.333333           0.006377           1.226451           0.952179E-3        1.092697
        3.343343           0.006416           1.227090           0.954192E-3        1.092793
        3.353353           0.006456           1.227733           0.956212E-3        1.092888
        3.363363           0.006497           1.228379           0.958238E-3        1.092984
        3.373373           0.006537           1.229030           0.960272E-3        1.093080
        3.383383           0.006579           1.229686           0.962311E-3        1.093176
        3.393393           0.006620           1.230345           0.964357E-3        1.093273
        3.403403           0.006662           1.231008           0.966410E-3        1.093369
        3.413413           0.006704           1.231676           0.968470E-3        1.093466
        3.423423           0.006747           1.232347           0.970536E-3        1.093563
        3.433433           0.006791           1.233024           0.972609E-3        1.093660
        3.443443           0.006834           1.233704           0.974689E-3        1.093758
        3.453453           0.006878           1.234389           0.976776E-3        1.093855
        3.463463           0.006923           1.235078           0.978869E-3        1.093953
        3.473473           0.006968           1.235772           0.980970E-3        1.094051
        3.483483           0.007013           1.236470           0.983077E-3        1.094149
        3.493493           0.007059           1.237173           0.985191E-3        1.094248
        3.503503           0.007106           1.237880           0.987313E-3        1.094347
        3.513513           0.007153           1.238592           0.989441E-3        1.094446
        3.523524           0.007200           1.239309           0.991576E-3        1.094545
        3.533533           0.007248           1.240030           0.993718E-3        1.094644
        3.543543           0.007297           1.240757           0.995868E-3        1.094744
        3.553553           0.007346           1.241488           0.998024E-3        1.094843
        3.563564           0.007395           1.242224           0.001000           1.094943
        3.573573           0.007445           1.242965           0.001002           1.095044
        3.583583           0.007496           1.243711           0.001005           1.095144
        3.593593           0.007547           1.244462           0.001007           1.095245
        3.603603           0.007598           1.245218           0.001009           1.095345
        3.613613           0.007651           1.245979           0.001011           1.095447
        3.623623           0.007703           1.246746           0.001013           1.095548
        3.633634           0.007757           1.247518           0.001016           1.095649
        3.643643           0.007811           1.248295           0.001018           1.095751
        3.653653           0.007865           1.249077           0.001020           1.095853
        3.663663           0.007920           1.249865           0.001022           1.095955
        3.673674           0.007976           1.250659           0.001024           1.096058
        3.683683           0.008033           1.251458           0.001027           1.096160
        3.693693           0.008090           1.252263           0.001029           1.096263
        3.703704           0.008147           1.253073           0.001031           1.096366
        3.713714           0.008206           1.253890           0.001034           1.096470
        3.723723           0.008265           1.254712           0.001036           1.096573
        3.733733           0.008324           1.255540           0.001038           1.096677
        3.743744           0.008385           1.256374           0.001040           1.096781
        3.753754           0.008446           1.257214           0.001043           1.096885
        3.763763           0.008507           1.258060           0.001045           1.096990
        3.773773           0.008570           1.258912           0.001047           1.097094
        3.783784           0.008633           1.259771           0.001050           1.097199
        3.793794           0.008697           1.260635           0.001052           1.097304
        3.803803           0.008762           1.261507           0.001054           1.097410
        3.813814           0.008827           1.262384           0.001057           1.097515
        3.823824           0.008893           1.263269           0.001059           1.097621
        3.833834           0.008960           1.264160           0.001061           1.097727
        3.843843           0.009028           1.265057           0.001064           1.097834
        3.853854           0.009097           1.265962           0.001066           1.097940
        3.863864           0.009166           1.266873           0.001069           1.098047
        3.873873           0.009236           1.267791           0.001071           1.098154
        3.883883           0.009308           1.268716           0.001073           1.098261
        3.893894           0.009380           1.269649           0.001076           1.098369
        3.903904           0.009452           1.270588           0.001078           1.098477
        3.913913           0.009526           1.271535           0.001081           1.098585
        3.923924           0.009601           1.272489           0.001083           1.098693
        3.933934           0.009677           1.273451           0.001086           1.098802
        3.943944           0.009753           1.274420           0.001088           1.098910
        3.953954           0.009831           1.275397           0.001091           1.099019
        3.963964           0.009909           1.276382           0.001093           1.099129
        3.973974           0.009989           1.277374           0.001095           1.099238
        3.983984           0.010070           1.278375           0.001098           1.099348
        3.993994           0.010151           1.279383           0.001100           1.099458
        4.004004           0.010234           1.280400           0.001103           1.099568
        4.014014           0.010318           1.281425           0.001106           1.099679
        4.024024           0.010402           1.282459           0.001108           1.099790
        4.034034           0.010488           1.283500           0.001111           1.099900
        4.044044           0.010575           1.284551           0.001113           1.100012
        4.054054           0.010664           1.285610           0.001116           1.100123
        4.064064           0.010753           1.286678           0.001118           1.100235
        4.074074           0.010844           1.287755           0.001121           1.100347
        4.084084           0.010935           1.288841           0.001123           1.100459
        4.094094           0.011028           1.289936           0.001126           1.100572
        4.104104           0.011123           1.291040           0.001129           1.100685
        4.114114           0.011218           1.292154           0.001131           1.100798
        4.124124           0.011315           1.293277           0.001134           1.100911
        4.134134           0.011414           1.294410           0.001136           1.101025
        4.144144           0.011513           1.295553           0.001139           1.101139
        4.154154           0.011614           1.296706           0.001142           1.101253
        4.164164           0.011716           1.297869           0.001144           1.101367
        4.174174           0.011820           1.299042           0.001147           1.101482
        4.184184           0.011926           1.300226           0.001150           1.101597
        4.194194           0.012032           1.301420           0.001152           1.101712
        4.204204           0.012141           1.302625           0.001155           1.101827
        4.214214           0.012250           1.303840           0.001158           1.101943
        4.224224           0.012362           1.305067           0.001161           1.102059
        4.234234           0.012475           1.306304           0.001163           1.102175
        4.244244           0.012590           1.307553           0.001166           1.102292
        4.254254           0.012706           1.308814           0.001169           1.102409
        4.264264           0.012824           1.310085           0.001172           1.102526
        4.274274           0.012944           1.311369           0.001174           1.102643
        4.284284           0.013066           1.312665           0.001177           1.102761
        4.294294           0.013189           1.313973           0.001180           1.102879
        4.304304           0.013314           1.315293           0.001183           1.102997
        4.314314           0.013442           1.316626           0.001185           1.103116
        4.324324           0.013571           1.317971           0.001188           1.103234
        4.334334           0.013702           1.319330           0.001191           1.103353
        4.344344           0.013835           1.320701           0.001194           1.103473
        4.354354           0.013970           1.322086           0.001197           1.103592
        4.364364           0.014108           1.323484           0.001200           1.103712
        4.374374           0.014247           1.324896           0.001203           1.103832
        4.384384           0.014389           1.326321           0.001205           1.103953
        4.394394           0.014533           1.327761           0.001208           1.104074
        4.404404           0.014679           1.329216           0.001211           1.104195
        4.414414           0.014828           1.330685           0.001214           1.104316
        4.424424           0.014979           1.332168           0.001217           1.104438
        4.434434           0.015132           1.333667           0.001220           1.104560
        4.444444           0.015288           1.335181           0.001223           1.104682
        4.454454           0.015447           1.336710           0.001226           1.104805
        4.464464           0.015608           1.338256           0.001229           1.104927
        4.474474           0.015772           1.339817           0.001232           1.105050
        4.484484           0.015938           1.341395           0.001235           1.105174
        4.494494           0.016108           1.342989           0.001238           1.105298
        4.504504           0.016280           1.344601           0.001241           1.105422
        4.514514           0.016455           1.346229           0.001244           1.105546
        4.524524           0.016633           1.347875           0.001247           1.105670
        4.534534           0.016815           1.349539           0.001250           1.105795
        4.544544           0.016999           1.351220           0.001253           1.105921
        4.554554           0.017187           1.352920           0.001256           1.106046
        4.564565           0.017378           1.354639           0.001259           1.106172
        4.574574           0.017572           1.356377           0.001262           1.106298
        4.584584           0.017770           1.358134           0.001265           1.106425
        4.594594           0.017971           1.359910           0.001268           1.106551
        4.604605           0.018177           1.361707           0.001272           1.106678
        4.614614           0.018385           1.363524           0.001275           1.106806
        4.624624           0.018598           1.365362           0.001278           1.106934
        4.634634           0.018815           1.367222           0.001281           1.107062
        4.644644           0.019035           1.369102           0.001284           1.107190
        4.654655           0.019260           1.371005           0.001287           1.107319
        4.664664           0.019489           1.372930           0.001291           1.107448
        4.674675           0.019722           1.374878           0.001294           1.107577
        4.684684           0.019960           1.376848           0.001297           1.107707
        4.694695           0.020203           1.378843           0.001300           1.107836
        4.704704           0.020450           1.380862           0.001303           1.107967
        4.714715           0.020702           1.382905           0.001307           1.108097
        4.724724           0.020959           1.384973           0.001310           1.108228
        4.734735           0.021221           1.387067           0.001313           1.108360
        4.744744           0.021488           1.389186           0.001317           1.108491
        4.754755           0.021761           1.391333           0.001320           1.108623
        4.764764           0.022039           1.393506           0.001323           1.108755
        4.774775           0.022323           1.395707           0.001327           1.108888
        4.784785           0.022613           1.397936           0.001330           1.109021
        4.794795           0.022908           1.400194           0.001333           1.109154
        4.804804           0.023210           1.402481           0.001337           1.109288
        4.814815           0.023519           1.404798           0.001340           1.109421
        4.824825           0.023834           1.407145           0.001343           1.109556
        4.834835           0.024156           1.409524           0.001347           1.109690
        4.844844           0.024484           1.411935           0.001350           1.109825
        4.854855           0.024820           1.414378           0.001354           1.109961
        4.864865           0.025163           1.416854           0.001357           1.110096
        4.874875           0.025514           1.419365           0.001361           1.110232
        4.884884           0.025873           1.421910           0.001364           1.110368
        4.894895           0.026240           1.424490           0.001368           1.110505
        4.904905           0.026615           1.427107           0.001371           1.110642
        4.914915           0.026999           1.429761           0.001375           1.110780
        4.924924           0.027392           1.432453           0.001378           1.110917
        4.934935           0.027793           1.435184           0.001382           1.111055
        4.944945           0.028205           1.437954           0.001385           1.111194
        4.954955           0.028626           1.440764           0.001389           1.111333
        4.964964           0.029057           1.443617           0.001392           1.111472
        4.974975           0.029499           1.446512           0.001396           1.111611
        4.984985           0.029952           1.449450           0.001400           1.111751
        4.994995           0.030415           1.452433           0.001403           1.111892
        5.005005           0.030890           1.455462           0.001407           1.112032
        5.015015           0.031378           1.458537           0.001411           1.112173
        5.025025           0.031877           1.461661           0.001414           1.112314
        5.035035           0.032390           1.464833           0.001418           1.112456
        5.045045           0.032916           1.468056           0.001422           1.112598
        5.055055           0.033455           1.471331           0.001425           1.112741
        5.065065           0.034009           1.474658           0.001429           1.112883
        5.075075           0.034577           1.478040           0.001433           1.113027
        5.085085           0.035161           1.481477           0.001437           1.113170
        5.095095           0.035761           1.484972           0.001440           1.113314
        5.105105           0.036378           1.488526           0.001444           1.113459
        5.115115           0.037011           1.492140           0.001448           1.113603
        5.125125           0.037663           1.495816           0.001452           1.113748
        5.135135           0.038333           1.499555           0.001456           1.113894
        5.145144           0.039023           1.503360           0.001460           1.114040
        5.155155           0.039732           1.507232           0.001463           1.114186
        5.165165           0.040463           1.511173           0.001467           1.114332
        5.175175           0.041215           1.515186           0.001471           1.114480
        5.185184           0.041990           1.519271           0.001475           1.114627
        5.195195           0.042789           1.523432           0.001479           1.114775
        5.205205           0.043613           1.527671           0.001483           1.114923
        5.215215           0.044462           1.531990           0.001487           1.115072
        5.225225           0.045338           1.536390           0.001491           1.115221
        5.235235           0.046243           1.540876           0.001495           1.115370
        5.245245           0.047177           1.545449           0.001499           1.115520
        5.255255           0.048142           1.550112           0.001503           1.115670
        5.265265           0.049139           1.554868           0.001507           1.115821
        5.275275           0.050170           1.559721           0.001511           1.115972
        5.285285           0.051236           1.564672           0.001515           1.116123
        5.295295           0.052340           1.569726           0.001519           1.116275
        5.305305           0.053483           1.574885           0.001524           1.116427
        5.315315           0.054667           1.580155           0.001528           1.116580
        5.325325           0.055894           1.585536           0.001532           1.116733
        5.335335           0.057167           1.591035           0.001536           1.116886
        5.345345           0.058487           1.596655           0.001540           1.117040
        5.355355           0.059858           1.602401           0.001544           1.117195
        5.365365           0.061282           1.608276           0.001549           1.117349
        5.375375           0.062763           1.614285           0.001553           1.117504
        5.385385           0.064303           1.620434           0.001557           1.117660
        5.395395           0.065906           1.626728           0.001562           1.117816
        5.405405           0.067575           1.633171           0.001566           1.117973
        5.415415           0.069316           1.639771           0.001570           1.118129
        5.425425           0.071131           1.646532           0.001574           1.118287
        5.435435           0.073027           1.653461           0.001579           1.118445
        5.445445           0.075007           1.660566           0.001583           1.118603
        5.455455           0.077078           1.667852           0.001588           1.118761
        5.465465           0.079245           1.675328           0.001592           1.118921
        5.475475           0.081516           1.683000           0.001596           1.119080
        5.485485           0.083897           1.690878           0.001601           1.119240
        5.495495           0.086396           1.698970           0.001605           1.119400
        5.505505           0.089022           1.707286           0.001610           1.119561
        5.515515           0.091785           1.715834           0.001614           1.119723
        5.525526           0.094695           1.724626           0.001619           1.119884
        5.535535           0.097763           1.733671           0.001623           1.120046
        5.545545           0.101003           1.742981           0.001628           1.120209
        5.555555           0.104429           1.752568           0.001633           1.120372
        5.565566           0.108056           1.762445           0.001637           1.120536
        5.575575           0.111902           1.772625           0.001642           1.120700
        5.585585           0.115986           1.783121           0.001646           1.120865
        5.595595           0.120331           1.793947           0.001651           1.121029
        5.605606           0.124961           1.805119           0.001656           1.121195
        5.615615           0.129904           1.816651           0.001661           1.121361
        5.625625           0.135191           1.828560           0.001665           1.121527
        5.635635           0.140858           1.840860           0.001670           1.121694
        5.645645           0.146944           1.853568           0.001675           1.121861
        5.655655           0.153495           1.866699           0.001680           1.122029
        5.665665           0.160563           1.880268           0.001684           1.122198
        5.675675           0.168206           1.894287           0.001689           1.122366
        5.685685           0.176493           1.908765           0.001694           1.122536
        5.695695           0.185500           1.923711           0.001699           1.122705
        5.705705           0.195316           1.939124           0.001704           1.122876
        5.715715           0.206042           1.954998           0.001709           1.123046
        5.725725           0.217792           1.971316           0.001714           1.123217
        5.735735           0.230699           1.988045           0.001719           1.123389
        5.745746           0.244910           2.005131           0.001724           1.123561
        5.755755           0.260591           2.022495           0.001729           1.123734
        5.765765           0.277924           2.040018           0.001734           1.123907
        5.775775           0.297107           2.057535           0.001739           1.124081
        5.785786           0.318346           2.074815           0.001744           1.124255
        5.795795           0.341840           2.091547           0.001749           1.124430
        5.805805           0.367763           2.107322           0.001754           1.124605
        5.815815           0.396232           2.121611           0.001759           1.124781
        5.825826           0.427255           2.133758           0.001764           1.124957
        5.835835           0.460661           2.142982           0.001770           1.125134
        5.845845           0.496016           2.148410           0.001775           1.125311
        5.855855           0.532538           2.149168           0.001780           1.125489
        5.865866           0.569021           2.144521           0.001785           1.125668
        5.875876           0.603833           2.134088           0.001791           1.125847
        5.885885           0.635040           2.118085           0.001796           1.126026
        5.895895           0.660673           2.097517           0.001801           1.126206
        5.905906           0.679120           2.074215           0.001807           1.126386
        5.915915           0.689527           2.050640           0.001812           1.126567
        5.925925           0.692051           2.029458           0.001817           1.126749
        5.935935           0.687831           2.013057           0.001823           1.126931
        5.945946           0.678710           2.003151           0.001828           1.127114
        5.955956           0.666827           2.000627           0.001834           1.127297
        5.965966           0.654236           2.005605           0.001839           1.127481
        5.975976           0.642670           2.017660           0.001845           1.127665
        5.985986           0.633443           2.036051           0.001850           1.127850
        5.995996           0.627469           2.059928           0.001856           1.128035
        6.006006           0.625346           2.088471           0.001862           1.128221
        6.016016           0.627444           2.120955           0.001867           1.128408
        6.026026           0.633997           2.156786           0.001873           1.128595
        6.036036           0.645171           2.195495           0.001879           1.128783
        6.046046           0.661116           2.236725           0.001884           1.128971
        6.056056           0.682006           2.280208           0.001890           1.129160
        6.066066           0.708063           2.325737           0.001896           1.129349
        6.076076           0.739579           2.373148           0.001902           1.129539
        6.086086           0.776933           2.422302           0.001907           1.129730
        6.096096           0.820601           2.473042           0.001913           1.129921
        6.106106           0.871171           2.525187           0.001919           1.130112
        6.116116           0.929352           2.578490           0.001925           1.130305
        6.126126           0.995998           2.632615           0.001931           1.130498
        6.136136           1.072102           2.687081           0.001937           1.130691
        6.146146           1.158816           2.741211           0.001943           1.130885
        6.156156           1.257440           2.794063           0.001949           1.131080
        6.166166           1.369433           2.844344           0.001955           1.131275
        6.176176           1.496347           2.890287           0.001961           1.131471
        6.186186           1.639770           2.929520           0.001967           1.131668
        6.196196           1.801216           2.958911           0.001973           1.131865
        6.206206           1.981872           2.974392           0.001980           1.132062
        6.216216           2.182294           2.970819           0.001986           1.132261
        6.226226           2.401906           2.941895           0.001992           1.132460
        6.236236           2.638384           2.880274           0.001998           1.132659
        6.246246           2.886832           2.777969           0.002005           1.132860
        6.256256           3.139041           2.627236           0.002011           1.133061
        6.266266           3.382980           2.422047           0.002017           1.133262
        6.276276           3.603080           2.160030           0.002024           1.133464
        6.286286           3.781560           1.844609           0.002030           1.133667
        6.296296           3.901206           1.486374           0.002036           1.133870
        6.306306           3.948949           1.102873           0.002043           1.134074
        6.316316           3.919143           0.716192           0.002049           1.134279
        6.326326           3.815095           0.349047           0.002056           1.134485
        6.336336           3.648163           0.020500           0.002063           1.134691
        6.346346           3.434817          -0.256901           0.002069           1.134897
        6.356356           3.192959          -0.477947           0.002076           1.135105
        6.366366           2.938941          -0.643646           0.002082           1.135313
        6.376376           2.685773          -0.759270           0.002089           1.135521
        6.386386           2.442637          -0.832281           0.002096           1.135731
        6.396396           2.215190          -0.870716           0.002103           1.135941
        6.406406           2.006355          -0.882152           0.002110           1.136151
        6.416416           1.817078          -0.873184           0.002116           1.136363
        6.426426           1.647002          -0.849269           0.002123           1.136575
        6.436436           1.495037          -0.814748           0.002130           1.136788
        6.446446           1.359699          -0.772992           0.002137           1.137001
        6.456456           1.239364          -0.726562           0.002144           1.137215
        6.466466           1.132396          -0.677368           0.002151           1.137430
        6.476476           1.037259          -0.626818           0.002158           1.137646
        6.486486           0.952541          -0.575933           0.002165           1.137862
        6.496496           0.876978          -0.525443           0.002172           1.138079
        6.506506           0.809438          -0.475851           0.002179           1.138296
        6.516516           0.748941          -0.427504           0.002187           1.138515
        6.526526           0.694623          -0.380628           0.002194           1.138734
        6.536536           0.645739          -0.335360           0.002201           1.138954
        6.546546           0.601633          -0.291769           0.002208           1.139174
        6.556556           0.561742          -0.249881           0.002216           1.139396
        6.566566           0.525577          -0.209690           0.002223           1.139618
        6.576576           0.492713          -0.171167           0.002231           1.139841
        6.586586           0.462777          -0.134264           0.002238           1.140064
        6.596596           0.435447          -0.098925           0.002246           1.140288
        6.606606           0.410442          -0.065089           0.002253           1.140513
        6.616616           0.387516          -0.032691           0.002261           1.140739
        6.626626           0.366452          -0.001661           0.002268           1.140966
        6.636636           0.347061           0.028066           0.002276           1.141193
        6.646646           0.329176           0.056557           0.002284           1.141421
        6.656656           0.312651           0.083873           0.002291           1.141650
        6.666666           0.297354           0.110080           0.002299           1.141880
        6.676676           0.283169           0.135235           0.002307           1.142110
        6.686686           0.269997           0.159393           0.002315           1.142341
        6.696696           0.257743           0.182610           0.002323           1.142573
        6.706707           0.246327           0.204935           0.002331           1.142806
        6.716716           0.235676           0.226416           0.002339           1.143039
        6.726726           0.225726           0.247097           0.002347           1.143274
        6.736736           0.216417           0.267022           0.002355           1.143509
        6.746747           0.207697           0.286230           0.002363           1.143745
        6.756756           0.199519           0.304759           0.002371           1.143982
        6.766766           0.191840           0.322644           0.002379           1.144219
        6.776776           0.184621           0.339918           0.002387           1.144458
        6.786787           0.177827           0.356614           0.002396           1.144697
        6.796796           0.171426           0.372759           0.002404           1.144937
        6.806807           0.165390           0.388382           0.002412           1.145178
        6.816816           0.159692           0.403508           0.002421           1.145420
        6.826826           0.154308           0.418161           0.002429           1.145662
        6.836837           0.149216           0.432367           0.002438           1.145906
        6.846846           0.144396           0.446145           0.002446           1.146150
        6.856857           0.139829           0.459516           0.002455           1.146395
        6.866867           0.135500           0.472498           0.002464           1.146641
        6.876876           0.131392           0.485111           0.002472           1.146888
        6.886887           0.127492           0.497373           0.002481           1.147136
        6.896896           0.123785           0.509298           0.002490           1.147384
        6.906906           0.120261           0.520901           0.002499           1.147634
        6.916917           0.116907           0.532199           0.002507           1.147884
        6.926927           0.113714           0.543203           0.002516           1.148136
        6.936936           0.110672           0.553928           0.002525           1.148388
        6.946947           0.107772           0.564385           0.002534           1.148641
        6.956956           0.105007           0.574586           0.002544           1.148895
        6.966967           0.102368           0.584543           0.002553           1.149150
        6.976976           0.099849           0.594264           0.002562           1.149406
        6.986986           0.097442           0.603761           0.002571           1.149662
        6.996997           0.095142           0.613044           0.002580           1.149920
        7.007007           0.092944           0.622120           0.002590           1.150179
        7.017016           0.090841           0.630998           0.002599           1.150438
        7.027027           0.088830           0.639688           0.002609           1.150699
        7.037036           0.086904           0.648195           0.002618           1.150960
        7.047047           0.085061           0.656529           0.002628           1.151222
        7.057057           0.083296           0.664696           0.002637           1.151486
        7.067066           0.081604           0.672701           0.002647           1.151750
        7.077077           0.079984           0.680554           0.002657           1.152015
        7.087087           0.078431           0.688258           0.002666           1.152281
        7.097096           0.076942           0.695820           0.002676           1.152549
        7.107107           0.075514           0.703247           0.002686           1.152817
        7.117116           0.074145           0.710542           0.002696           1.153086
        7.127127           0.072833           0.717712           0.002706           1.153356
        7.137137           0.071573           0.724761           0.002716           1.153627
        7.147147           0.070366           0.731694           0.002726           1.153900
        7.157157           0.069207           0.738516           0.002736           1.154173
        7.167167           0.068095           0.745231           0.002747           1.154447
        7.177176           0.067029           0.751843           0.002757           1.154722
        7.187187           0.066007           0.758357           0.002767           1.154999
        7.197196           0.065026           0.764776           0.002778           1.155276
        7.207206           0.064086           0.771104           0.002788           1.155554
        7.217217           0.063184           0.777345           0.002799           1.155834
        7.227227           0.062320           0.783501           0.002809           1.156114
        7.237237           0.061492           0.789578           0.002820           1.156396
        7.247247           0.060699           0.795578           0.002831           1.156678
        7.257257           0.059939           0.801504           0.002841           1.156962
        7.267267           0.059212           0.807359           0.002852           1.157247
        7.277277           0.058517           0.813146           0.002863           1.157532
        7.287286           0.057852           0.818869           0.002874           1.157819
        7.297297           0.057217           0.824530           0.002885           1.158107
        7.307307           0.056610           0.830131           0.002896           1.158396
        7.317317           0.056031           0.835676           0.002907           1.158687
        7.327327           0.055480           0.841166           0.002919           1.158978
        7.337337           0.054955           0.846605           0.002930           1.159271
        7.347347           0.054456           0.851995           0.002941           1.159564
        7.357357           0.053982           0.857339           0.002953           1.159859
        7.367367           0.053532           0.862638           0.002964           1.160155
        7.377377           0.053107           0.867895           0.002976           1.160452
        7.387387           0.052705           0.873112           0.002987           1.160750
        7.397398           0.052326           0.878292           0.002999           1.161050
        7.407407           0.051970           0.883437           0.003011           1.161350
        7.417417           0.051636           0.888548           0.003023           1.161652
        7.427427           0.051324           0.893628           0.003035           1.161955
        7.437437           0.051033           0.898679           0.003047           1.162259
        7.447447           0.050763           0.903703           0.003059           1.162564
        7.457457           0.050515           0.908702           0.003071           1.162871
        7.467467           0.050287           0.913677           0.003083           1.163179
        7.477477           0.050079           0.918632           0.003096           1.163488
        7.487487           0.049892           0.923568           0.003108           1.163798
        7.497497           0.049725           0.928486           0.003120           1.164109
        7.507507           0.049578           0.933389           0.003133           1.164422
        7.517517           0.049451           0.938278           0.003146           1.164736
        7.527527           0.049343           0.943156           0.003158           1.165051
        7.537537           0.049256           0.948024           0.003171           1.165368
        7.547547           0.049188           0.952884           0.003184           1.165686
        7.557557           0.049140           0.957738           0.003197           1.166005
        7.567567           0.049112           0.962589           0.003210           1.166325
        7.577577           0.049104           0.967437           0.003223           1.166647
        7.587587           0.049116           0.972285           0.003236           1.166970
        7.597597           0.049149           0.977135           0.003249           1.167294
        7.607607           0.049201           0.981988           0.003263           1.167620
        7.617618           0.049274           0.986847           0.003276           1.167947
        7.627627           0.049368           0.991713           0.003290           1.168275
        7.637637           0.049484           0.996589           0.003303           1.168605
        7.647647           0.049620           1.001476           0.003317           1.168936
        7.657657           0.049779           1.006376           0.003331           1.169268
        7.667667           0.049959           1.011293           0.003345           1.169602
        7.677677           0.050162           1.016226           0.003359           1.169937
        7.687687           0.050389           1.021180           0.003373           1.170274
        7.697698           0.050639           1.026155           0.003387           1.170612
        7.707707           0.050913           1.031155           0.003401           1.170951
        7.717717           0.051212           1.036180           0.003415           1.171292
        7.727727           0.051536           1.041235           0.003430           1.171634
        7.737737           0.051887           1.046321           0.003444           1.171978
        7.747747           0.052265           1.051440           0.003459           1.172323
        7.757757           0.052671           1.056595           0.003474           1.172670
        7.767767           0.053106           1.061789           0.003488           1.173018
        7.777778           0.053571           1.067025           0.003503           1.173368
        7.787787           0.054067           1.072304           0.003518           1.173719
        7.797797           0.054595           1.077630           0.003534           1.174071
        7.807807           0.055157           1.083006           0.003549           1.174426
        7.817817           0.055754           1.088434           0.003564           1.174781
        7.827827           0.056388           1.093919           0.003579           1.175138
        7.837838           0.057059           1.099463           0.003595           1.175497
        7.847847           0.057771           1.105070           0.003611           1.175857
        7.857858           0.058525           1.110743           0.003626           1.176219
        7.867867           0.059322           1.116485           0.003642           1.176583
        7.877877           0.060166           1.122301           0.003658           1.176948
        7.887887           0.061059           1.128195           0.003674           1.177314
        7.897897           0.062004           1.134171           0.003690           1.177683
        7.907907           0.063003           1.140233           0.003707           1.178052
        7.917918           0.064059           1.146386           0.003723           1.178424
        7.927927           0.065177           1.152634           0.003739           1.178797
        7.937938           0.066361           1.158983           0.003756           1.179172
        7.947948           0.067613           1.165437           0.003773           1.179548
        7.957957           0.068940           1.172003           0.003790           1.179926
        7.967968           0.070345           1.178686           0.003807           1.180306
        7.977977           0.071836           1.185492           0.003824           1.180688
        7.987987           0.073417           1.192427           0.003841           1.181071
        7.997998           0.075096           1.199499           0.003858           1.181456
        8.008007           0.076881           1.206713           0.003876           1.181842
        8.018017           0.078779           1.214078           0.003893           1.182231
        8.028028           0.080801           1.221601           0.003911           1.182621
        8.038037           0.082956           1.229290           0.003929           1.183013
        8.048048           0.085258           1.237154           0.003947           1.183407
        8.058058           0.087717           1.245200           0.003965           1.183802
        8.068068           0.090351           1.253438           0.003983           1.184199
        8.078078           0.093175           1.261878           0.004001           1.184599
        8.088087           0.096207           1.270527           0.004020           1.185000
        8.098097           0.099471           1.279395           0.004038           1.185403
        8.108108           0.102989           1.288493           0.004057           1.185807
        8.118117           0.106790           1.297827           0.004076           1.186214
        8.128128           0.110905           1.307408           0.004095           1.186622
        8.138138           0.115369           1.317239           0.004114           1.187033
        8.148148           0.120225           1.327327           0.004133           1.187445
        8.158158           0.125518           1.337676           0.004152           1.187859
        8.168168           0.131304           1.348282           0.004172           1.188275
        8.178178           0.137642           1.359138           0.004192           1.188693
        8.188188           0.144604           1.370232           0.004211           1.189113
        8.198197           0.152268           1.381537           0.004231           1.189535
        8.208207           0.160724           1.393016           0.004252           1.189960
        8.218218           0.170071           1.404613           0.004272           1.190386
        8.228228           0.180417           1.416245           0.004292           1.190814
        8.238238           0.191875           1.427800           0.004313           1.191244
        8.248248           0.204560           1.439121           0.004334           1.191676
        8.258258           0.218576           1.450002           0.004354           1.192111
        8.268268           0.234007           1.460176           0.004376           1.192547
        8.278277           0.250880           1.469301           0.004397           1.192986
        8.288287           0.269145           1.476968           0.004418           1.193426
        8.298298           0.288625           1.482704           0.004440           1.193869
        8.308308           0.308958           1.486013           0.004461           1.194314
        8.318318           0.329565           1.486442           0.004483           1.194761
        8.328328           0.349620           1.483690           0.004505           1.195210
        8.338338           0.368095           1.477735           0.004527           1.195662
        8.348348           0.383875           1.468964           0.004550           1.196115
        8.358357           0.395955           1.458233           0.004572           1.196571
        8.368367           0.403678           1.446806           0.004595           1.197030
        8.378378           0.406913           1.436163           0.004618           1.197490
        8.388388           0.406106           1.427730           0.004641           1.197953
        8.398398           0.402166           1.422623           0.004664           1.198418
        8.408408           0.396260           1.421515           0.004688           1.198886
        8.418418           0.389580           1.424622           0.004711           1.199355
        8.428429           0.383180           1.431804           0.004735           1.199828
        8.438437           0.377892           1.442693           0.004759           1.200302
        8.448447           0.374318           1.456823           0.004783           1.200779
        8.458458           0.372863           1.473717           0.004807           1.201258
        8.468468           0.373788           1.492936           0.004832           1.201740
        8.478477           0.377265           1.514110           0.004857           1.202224
        8.488488           0.383413           1.536939           0.004882           1.202711
        8.498498           0.392338           1.561178           0.004907           1.203200
        8.508509           0.404157           1.586637           0.004932           1.203692
        8.518518           0.419009           1.613152           0.004958           1.204186
        8.528527           0.437076           1.640580           0.004983           1.204683
        8.538538           0.458589           1.668780           0.005009           1.205183
        8.548548           0.483830           1.697585           0.005036           1.205685
        8.558558           0.513147           1.726796           0.005062           1.206189
        8.568568           0.546955           1.756150           0.005089           1.206697
        8.578578           0.585727           1.785288           0.005115           1.207207
        8.588589           0.630007           1.813731           0.005142           1.207719
        8.598598           0.680375           1.840821           0.005170           1.208235
        8.608608           0.737442           1.865683           0.005197           1.208753
        8.618618           0.801799           1.887156           0.005225           1.209274
        8.628628           0.873910           1.903725           0.005253           1.209797
        8.638638           0.954030           1.913476           0.005281           1.210324
        8.648648           1.042005           1.914055           0.005309           1.210853
        8.658658           1.137005           1.902702           0.005338           1.211385
        8.668669           1.237284           1.876404           0.005367           1.211920
        8.678679           1.339820           1.832220           0.005396           1.212458
        8.688688           1.440176           1.767818           0.005425           1.212999
        8.698698           1.532549           1.682217           0.005455           1.213542
        8.708708           1.610246           1.576616           0.005485           1.214089
        8.718718           1.666752           1.454911           0.005515           1.214639
        8.728728           1.697057           1.323664           0.005546           1.215192
        8.738738           1.698931           1.191289           0.005576           1.215747
        8.748748           1.673575           1.066480           0.005607           1.216306
        8.758759           1.625314           0.956623           0.005638           1.216868
        8.768768           1.560531           0.866681           0.005670           1.217433
        8.778779           1.486252           0.798780           0.005702           1.218001
        8.788788           1.409009           0.752640           0.005734           1.218573
        8.798798           1.334103           0.726274           0.005766           1.219147
        8.808808           1.265417           0.716793           0.005798           1.219725
        8.818818           1.205552           0.721022           0.005831           1.220306
        8.828828           1.156067           0.735887           0.005865           1.220891
        8.838839           1.117816           0.758603           0.005898           1.221478
        8.848848           1.091209           0.786716           0.005932           1.222070
        8.858859           1.076404           0.818071           0.005966           1.222664
        8.868869           1.073448           0.850702           0.006000           1.223262
        8.878878           1.082338           0.882736           0.006035           1.223863
        8.888888           1.103039           0.912264           0.006070           1.224468
        8.898898           1.135430           0.937214           0.006105           1.225076
        8.908908           1.179206           0.955269           0.006141           1.225688
        8.918919           1.233705           0.963784           0.006177           1.226304
        8.928928           1.297652           0.959802           0.006213           1.226923
        8.938939           1.368889           0.940173           0.006250           1.227545
        8.948949           1.444045           0.901871           0.006287           1.228171
        8.958959           1.518371           0.842512           0.006324           1.228801
        8.968968           1.585795           0.761085           0.006362           1.229435
        8.978978           1.639401           0.658762           0.006399           1.230073
        8.988988           1.672467           0.539407           0.006438           1.230714
        8.998999           1.679793           0.409532           0.006477           1.231359
        9.009008           1.658951           0.277476           0.006516           1.232008
        9.019018           1.610913           0.151854           0.006555           1.232661
        9.029029           1.539734           0.039975           0.006595           1.233318
        9.039039           1.451491          -0.053253           0.006635           1.233979
        9.049048           1.352865          -0.125715           0.006676           1.234644
        9.059058           1.250021          -0.177665           0.006717           1.235313
        9.069068           1.147873          -0.211018           0.006758           1.235986
        9.079079           1.049891          -0.228546           0.006800           1.236663
        9.089088           0.958245          -0.233258           0.006842           1.237345
        9.099098           0.874027          -0.228008           0.006884           1.238030
        9.109109           0.797579          -0.215287           0.006927           1.238720
        9.119119           0.728769          -0.197155           0.006971           1.239414
        9.129129           0.667154          -0.175251           0.007015           1.240113
        9.139138           0.612161          -0.150847           0.007059           1.240816
        9.149148           0.563150          -0.124903           0.007103           1.241523
        9.159159           0.519483          -0.098134           0.007149           1.242235
        9.169168           0.480565          -0.071065           0.007194           1.242951
        9.179178           0.445842          -0.044072           0.007240           1.243672
        9.189189           0.414820          -0.017415           0.007287           1.244398
        9.199199           0.387064           0.008719           0.007334           1.245128
        9.209209           0.362187           0.034216           0.007381           1.245863
        9.219219           0.339858           0.058998           0.007429           1.246602
        9.229228           0.319786           0.083028           0.007477           1.247347
        9.239239           0.301719           0.106291           0.007526           1.248096
        9.249249           0.285442           0.128784           0.007576           1.248850
        9.259258           0.270768           0.150524           0.007626           1.249609
        9.269269           0.257536           0.171534           0.007676           1.250373
        9.279279           0.245611           0.191837           0.007727           1.251143
        9.289289           0.234875           0.211466           0.007778           1.251917
        9.299299           0.225229           0.230456           0.007830           1.252696
        9.309309           0.216591           0.248835           0.007883           1.253481
        9.319319           0.208891           0.266639           0.007936           1.254271
        9.329329           0.202076           0.283898           0.007990           1.255066
        9.339338           0.196101           0.300640           0.008044           1.255867
        9.349349           0.190935           0.316894           0.008099           1.256673
        9.359359           0.186558           0.332678           0.008154           1.257484
        9.369369           0.182959           0.348011           0.008210           1.258301
        9.379379           0.180140           0.362905           0.008267           1.259124
        9.389389           0.178112           0.377360           0.008324           1.259952
        9.399399           0.176896           0.391369           0.008382           1.260786
        9.409409           0.176523           0.404906           0.008440           1.261626
        9.419418           0.177034           0.417934           0.008499           1.262471
        9.429429           0.178474           0.430388           0.008559           1.263323
        9.439439           0.180892           0.442175           0.008619           1.264181
        9.449449           0.184332           0.453166           0.008680           1.265044
        9.459459           0.188826           0.463189           0.008742           1.265914
        9.469469           0.194371           0.472022           0.008804           1.266790
        9.479479           0.200913           0.479394           0.008868           1.267672
        9.489489           0.208311           0.484987           0.008931           1.268560
        9.499498           0.216308           0.488467           0.008996           1.269455
        9.509509           0.224496           0.489520           0.009061           1.270357
        9.519519           0.232300           0.487927           0.009127           1.271264
        9.529529           0.239001           0.483653           0.009194           1.272179
        9.539539           0.243813           0.476931           0.009261           1.273100
        9.549549           0.246010           0.468314           0.009330           1.274028
        9.559559           0.245089           0.458636           0.009399           1.274962
        9.569570           0.240895           0.448891           0.009469           1.275904
        9.579578           0.233665           0.440049           0.009539           1.276853
        9.589589           0.223957           0.432881           0.009611           1.277808
        9.599599           0.212514           0.427858           0.009683           1.278771
        9.609609           0.200102           0.425137           0.009757           1.279741
        9.619619           0.187393           0.424623           0.009831           1.280719
        9.629629           0.174909           0.426061           0.009906           1.281704
        9.639639           0.163001           0.429120           0.009981           1.282696
        9.649650           0.151878           0.433459           0.010058           1.283696
        9.659659           0.141640           0.438762           0.010136           1.284703
        9.669669           0.132305           0.444761           0.010215           1.285719
        9.679679           0.123848           0.451236           0.010294           1.286742
        9.689689           0.116212           0.458014           0.010375           1.287773
        9.699699           0.109326           0.464964           0.010456           1.288813
        9.709709           0.103119           0.471984           0.010539           1.289860
        9.719719           0.097517           0.479002           0.010623           1.290916
        9.729730           0.092453           0.485967           0.010707           1.291980
        9.739739           0.087866           0.492840           0.010793           1.293052
        9.749749           0.083699           0.499595           0.010880           1.294133
        9.759759           0.079904           0.506217           0.010967           1.295223
        9.769769           0.076439           0.512694           0.011056           1.296322
        9.779779           0.073265           0.519022           0.011146           1.297429
        9.789789           0.070349           0.525196           0.011238           1.298545
        9.799799           0.067664           0.531219           0.011330           1.299671
        9.809810           0.065183           0.537091           0.011424           1.300806
        9.819819           0.062887           0.542815           0.011519           1.301950
        9.829829           0.060754           0.548396           0.011615           1.303104
        9.839839           0.058769           0.553839           0.011712           1.304267
        9.849849           0.056918           0.559147           0.011810           1.305440
        9.859859           0.055187           0.564325           0.011910           1.306623
        9.869869           0.053565           0.569379           0.012012           1.307816
        9.879879           0.052043           0.574313           0.012114           1.309019
        9.889890           0.050611           0.579133           0.012218           1.310232
        9.899899           0.049263           0.583841           0.012323           1.311455
        9.909909           0.047990           0.588445           0.012430           1.312689
        9.919919           0.046786           0.592947           0.012538           1.313934
        9.929929           0.045647           0.597351           0.012648           1.315190
        9.939939           0.044568           0.601663           0.012759           1.316456
        9.949949           0.043543           0.605885           0.012872           1.317734
        9.959959           0.042569           0.610020           0.012986           1.319023
        9.969970           0.041642           0.614074           0.013102           1.320323
        9.979980           0.040759           0.618048           0.013219           1.321635
        9.989989           0.039918           0.621947           0.013339           1.322959
        10.00000           0.039114           0.625772           0.013459           1.324294
# 
# 11/30/2023 at 13:38 yambo_ph @ unimi-XPS-8930 [start]
# 11/30/2023 at 13:38                           [end]
#  
# Timing   [Min/Max/Average]: 10s/10s/10s
#
# .-Input file  yambo.in
# | optics                           # [R] Linear Response optical properties
# | dipoles                          # [R] Oscillator strenghts (or dipoles)
# | bss                              # [R] BSE solver
# | bse                              # [R][BSE] Bethe Salpeter Equation.
# | BoseTemp= 0.000000         eV    # Bosonic Temperature
# | FFTGvecs=  4653            RL    # [FFT] Plane-waves
# | DIP_Threads= 1                   # [OPENMP/X] Number of threads for dipoles
# | BS_nCPU_LinAlg_INV= 1            # [PARALLEL] CPUs for Linear Algebra (if -1 it is automatically set)
# | BS_nCPU_LinAlg_DIAGO= 1          # [PARALLEL] CPUs for Linear Algebra (if -1 it is automatically set)
# | X_Threads= 1                     # [OPENMP/X] Number of threads for response functions
# | K_Threads= 1                     # [OPENMP/BSK] Number of threads for response functions
# | BSKmod= "HF"                     # [BSE] IP/Hartree/HF/ALDA/SEX/BSfxc
# | BSEmod= "resonant"               # [BSE] resonant/retarded/coupling
# | BSSmod= "d"                      # [BSS] (h)aydock/(d)iagonalization/(s)lepc/(i)nversion/(t)ddft`
# | % DipBands
# |   3 |  6 |                           # [DIP] Bands range for dipoles
# | %
# | DipComputed= "R V P"             # [DIP] [default R P V; extra P2 Spin Orb]
# | BSENGexx= 1005             RL    # [BSK] Exchange components
# | BSENGBlk= 1005             RL    # [BSK] Screened interaction block size [if -1 uses all the G-vectors of W(q,G,Gp)]
# | % KfnQP_E
# |  5.000000 | 1.000000 | 1.000000 |        # [EXTQP BSK BSS] E parameters  (c/v) eV|adim|adim
# | %
# | % BSEQptR
# |   1 |  9 |                           # [BSK] Transferred momenta range
# | %
# | % BSEBands
# |   3 |  6 |                           # [BSK] Bands range
# | %
# | % BEnRange
# |   0.00000 | 10.00000 |         eV    # [BSS] Energy range
# | %
# | % BDmRange
# |  0.100000 | 0.100000 |         eV    # [BSS] Damping range
# | %
# | BEnSteps= 1000                   # [BSS] Energy steps
# | % BLongDir
# |   0.00000    | 0.100000E-4 |  0.00000    # [BSS] [cc] Electric Field
# | %
# | BSEprop= "abs esrt jdos"         # [BSS] Can be any among abs/jdos/kerr/magn/dich/photolum/esrt
# | BSEdips= "none"                  # [BSS] Can be "trace/none" or "xy/xz/yz" to define off-diagonal rotation plane
# | WRbsWF                         # [BSS] Write to disk excitonic the WFs
