#                                                                     
#  __  __   ________   ___ __ __    _______   ______                  
# /_/\/_/\ /_______/\ /__//_//_/\ /_______/\ /_____/\                 
# \ \ \ \ \\::: _  \ \\::\| \| \ \\::: _  \ \\:::_ \ \                
#  \:\_\ \ \\::(_)  \ \\:.      \ \\::(_)  \/_\:\ \ \ \               
#   \::::_\/ \:: __  \ \\:.\-/\  \ \\::  _  \ \\:\ \ \ \              
#     \::\ \  \:.\ \  \ \\. \  \  \ \\::(_)  \ \\:\_\ \ \             
#      \__\/   \__\/\__\/ \__\/ \__\/ \_______\/ \_____\/             
#                                                                     
#                                                                     
# Version 5.2.0 Revision 22184 Hash (prev commit) 2871b0cee           
#                  Branch is devel-excph                              
#         MPI+OpenMP+SLK+SLEPC+HDF5_MPI_IO Build                      
#                http://www.yambo-code.org                            
#
# Absorption @ Q(3): -0.333333373    -0.166666687      0.00000000    [iku]
#
# [GEN] GF Energies                               : Slater exchange(X)+Perdew & Zunger(C)
# [GEN] Green`s Function                          : Resonant
#
# DIP band range                                  :   3   6
# DIP band range limits                           :   4   5
# DIP e/h energy range                            :  -1.00000000     -1.00000000    [eV]
# RL vectors in the sum                           :   4653
# [r,Vnl] included                                : yes
# Bands ordered                                   : yes
# Direct v evaluation                             : no
# Approach used                                   : G-space v
# Dipoles computed                                : R V P
# Wavefunctions                                   : Slater exchange(X)+Perdew & Zunger(C)
#
#
# [K] Identifier                                  :   5192
# [K] Q-point                                     : -0.333333373    -0.166666687      0.00000000   
# [K] Dimension                                   :   36
# [K] Bands                                       :   3   6
# [K] Exchange res                                : yes
# [K] Correlation res                             : yes
# [K] Kernel`s coupling                           : no
# [K] Exchange cpl                                : no
# [K] Correlation cpl                             : no
# [K] W interaction is bare                       : yes
# [K] ALDA kernel in R-space                      : no
# [K] RL vectors exchange                         :  1005
# [K] RL vectors correlation                      :  1005
# [K] E/h energy range                            :  -1.00000000     -1.00000000    [eV]
# [K] Coupling range                              :   100.000000      100.000000    [o/o]
# [K] BSE L kind                                  : BAR
# [W] Interaction is diagonal                     : yes
# [W] Matrix size                                 :  1
# [RIM] RL components col                         : 0
# [RIM] Random points col                         : 0
# [SOC] Perturbative SOC                          : no
# [X] Response Kind                               : BAR
#
# Diamagnetic term                                
# Ao                                              :  -7.19456911    [nel]
# A                                               :   0.00000000    [nel]
#
#    E[1] [eV]          Im(eps)            Re(eps)            Im(eps_o)          Re(eps_o)
#
        0.000000           0.001637           1.119964           0.523575E-3        1.069183
        0.010010           0.001641           1.120128           0.524383E-3        1.069236
        0.020020           0.001646           1.120292           0.525193E-3        1.069288
        0.030030           0.001651           1.120457           0.526005E-3        1.069341
        0.040040           0.001655           1.120622           0.526820E-3        1.069393
        0.050050           0.001660           1.120788           0.527635E-3        1.069446
        0.060060           0.001665           1.120955           0.528453E-3        1.069499
        0.070070           0.001670           1.121121           0.529273E-3        1.069552
        0.080080           0.001675           1.121289           0.530095E-3        1.069605
        0.090090           0.001679           1.121457           0.530918E-3        1.069658
        0.100100           0.001684           1.121625           0.531744E-3        1.069711
        0.110110           0.001689           1.121794           0.532571E-3        1.069764
        0.120120           0.001694           1.121963           0.533401E-3        1.069818
        0.130130           0.001699           1.122133           0.534232E-3        1.069871
        0.140140           0.001704           1.122303           0.535066E-3        1.069925
        0.150150           0.001709           1.122474           0.535901E-3        1.069978
        0.160160           0.001714           1.122645           0.536738E-3        1.070032
        0.170170           0.001719           1.122817           0.537578E-3        1.070086
        0.180180           0.001724           1.122989           0.538419E-3        1.070140
        0.190190           0.001729           1.123162           0.539263E-3        1.070194
        0.200200           0.001734           1.123335           0.540108E-3        1.070248
        0.210210           0.001740           1.123509           0.540955E-3        1.070302
        0.220220           0.001745           1.123683           0.541805E-3        1.070356
        0.230230           0.001750           1.123858           0.542656E-3        1.070410
        0.240240           0.001755           1.124033           0.543510E-3        1.070464
        0.250250           0.001760           1.124209           0.544365E-3        1.070519
        0.260260           0.001766           1.124385           0.545223E-3        1.070574
        0.270270           0.001771           1.124562           0.546083E-3        1.070628
        0.280280           0.001776           1.124740           0.546944E-3        1.070683
        0.290290           0.001781           1.124918           0.547808E-3        1.070738
        0.300300           0.001787           1.125096           0.548674E-3        1.070792
        0.310310           0.001792           1.125275           0.549542E-3        1.070847
        0.320320           0.001798           1.125455           0.550412E-3        1.070902
        0.330330           0.001803           1.125635           0.551284E-3        1.070958
        0.340340           0.001808           1.125816           0.552159E-3        1.071013
        0.350350           0.001814           1.125997           0.553035E-3        1.071068
        0.360360           0.001819           1.126179           0.553913E-3        1.071124
        0.370370           0.001825           1.126361           0.554794E-3        1.071179
        0.380380           0.001830           1.126544           0.555677E-3        1.071235
        0.390390           0.001836           1.126727           0.556562E-3        1.071290
        0.400400           0.001842           1.126911           0.557449E-3        1.071346
        0.410410           0.001847           1.127096           0.558338E-3        1.071402
        0.420420           0.001853           1.127281           0.559229E-3        1.071458
        0.430430           0.001859           1.127467           0.560123E-3        1.071514
        0.440440           0.001864           1.127653           0.561018E-3        1.071570
        0.450450           0.001870           1.127840           0.561916E-3        1.071626
        0.460460           0.001876           1.128027           0.562816E-3        1.071682
        0.470470           0.001882           1.128215           0.563719E-3        1.071739
        0.480480           0.001887           1.128404           0.564623E-3        1.071795
        0.490490           0.001893           1.128593           0.565530E-3        1.071852
        0.500500           0.001899           1.128782           0.566439E-3        1.071908
        0.510511           0.001905           1.128973           0.567350E-3        1.071965
        0.520521           0.001911           1.129164           0.568263E-3        1.072022
        0.530531           0.001917           1.129355           0.569179E-3        1.072079
        0.540541           0.001923           1.129547           0.570096E-3        1.072136
        0.550551           0.001929           1.129740           0.571017E-3        1.072193
        0.560561           0.001935           1.129933           0.571939E-3        1.072250
        0.570571           0.001941           1.130127           0.572864E-3        1.072307
        0.580581           0.001947           1.130322           0.573790E-3        1.072365
        0.590591           0.001953           1.130517           0.574720E-3        1.072422
        0.600601           0.001960           1.130712           0.575651E-3        1.072480
        0.610611           0.001966           1.130909           0.576585E-3        1.072538
        0.620621           0.001972           1.131106           0.577521E-3        1.072595
        0.630631           0.001978           1.131303           0.578459E-3        1.072653
        0.640641           0.001985           1.131502           0.579400E-3        1.072711
        0.650651           0.001991           1.131701           0.580343E-3        1.072769
        0.660661           0.001997           1.131900           0.581288E-3        1.072827
        0.670671           0.002004           1.132100           0.582236E-3        1.072886
        0.680681           0.002010           1.132301           0.583186E-3        1.072944
        0.690691           0.002016           1.132502           0.584139E-3        1.073002
        0.700701           0.002023           1.132704           0.585094E-3        1.073061
        0.710711           0.002029           1.132907           0.586051E-3        1.073119
        0.720721           0.002036           1.133110           0.587010E-3        1.073178
        0.730731           0.002043           1.133314           0.587972E-3        1.073237
        0.740741           0.002049           1.133519           0.588937E-3        1.073296
        0.750751           0.002056           1.133724           0.589904E-3        1.073355
        0.760761           0.002063           1.133930           0.590873E-3        1.073414
        0.770771           0.002069           1.134137           0.591844E-3        1.073473
        0.780781           0.002076           1.134345           0.592819E-3        1.073532
        0.790791           0.002083           1.134553           0.593795E-3        1.073592
        0.800801           0.002090           1.134761           0.594774E-3        1.073651
        0.810811           0.002096           1.134971           0.595755E-3        1.073711
        0.820821           0.002103           1.135181           0.596739E-3        1.073771
        0.830831           0.002110           1.135392           0.597726E-3        1.073830
        0.840841           0.002117           1.135603           0.598715E-3        1.073890
        0.850851           0.002124           1.135815           0.599706E-3        1.073950
        0.860861           0.002131           1.136028           0.600700E-3        1.074010
        0.870871           0.002138           1.136242           0.601696E-3        1.074070
        0.880881           0.002145           1.136456           0.602695E-3        1.074131
        0.890891           0.002153           1.136671           0.603696E-3        1.074191
        0.900901           0.002160           1.136887           0.604700E-3        1.074251
        0.910911           0.002167           1.137103           0.605707E-3        1.074312
        0.920921           0.002174           1.137320           0.606716E-3        1.074373
        0.930931           0.002182           1.137538           0.607728E-3        1.074433
        0.940941           0.002189           1.137757           0.608742E-3        1.074494
        0.950951           0.002196           1.137976           0.609758E-3        1.074555
        0.960961           0.002204           1.138196           0.610778E-3        1.074616
        0.970971           0.002211           1.138417           0.611800E-3        1.074678
        0.980981           0.002219           1.138638           0.612824E-3        1.074739
        0.990991           0.002226           1.138861           0.613852E-3        1.074800
        1.001001           0.002234           1.139084           0.614881E-3        1.074862
        1.011011           0.002241           1.139308           0.615914E-3        1.074923
        1.021021           0.002249           1.139532           0.616949E-3        1.074985
        1.031031           0.002257           1.139758           0.617987E-3        1.075047
        1.041041           0.002264           1.139984           0.619027E-3        1.075109
        1.051051           0.002272           1.140211           0.620070E-3        1.075171
        1.061061           0.002280           1.140438           0.621116E-3        1.075233
        1.071071           0.002288           1.140667           0.622164E-3        1.075295
        1.081081           0.002296           1.140896           0.623215E-3        1.075357
        1.091091           0.002304           1.141126           0.624269E-3        1.075420
        1.101101           0.002312           1.141357           0.625326E-3        1.075482
        1.111111           0.002320           1.141589           0.626385E-3        1.075545
        1.121121           0.002328           1.141821           0.627447E-3        1.075608
        1.131131           0.002336           1.142054           0.628512E-3        1.075671
        1.141141           0.002344           1.142288           0.629579E-3        1.075734
        1.151151           0.002352           1.142523           0.630650E-3        1.075797
        1.161161           0.002360           1.142759           0.631723E-3        1.075860
        1.171171           0.002369           1.142995           0.632798E-3        1.075923
        1.181181           0.002377           1.143233           0.633877E-3        1.075987
        1.191191           0.002385           1.143471           0.634959E-3        1.076050
        1.201201           0.002394           1.143710           0.636043E-3        1.076114
        1.211211           0.002402           1.143950           0.637130E-3        1.076177
        1.221221           0.002411           1.144191           0.638220E-3        1.076241
        1.231231           0.002419           1.144432           0.639313E-3        1.076305
        1.241241           0.002428           1.144675           0.640408E-3        1.076369
        1.251251           0.002437           1.144918           0.641507E-3        1.076433
        1.261261           0.002445           1.145162           0.642608E-3        1.076497
        1.271271           0.002454           1.145407           0.643712E-3        1.076562
        1.281281           0.002463           1.145653           0.644819E-3        1.076626
        1.291291           0.002472           1.145900           0.645929E-3        1.076691
        1.301301           0.002481           1.146148           0.647042E-3        1.076756
        1.311311           0.002490           1.146396           0.648158E-3        1.076820
        1.321321           0.002499           1.146646           0.649277E-3        1.076885
        1.331331           0.002508           1.146896           0.650399E-3        1.076950
        1.341341           0.002517           1.147147           0.651523E-3        1.077016
        1.351351           0.002526           1.147400           0.652651E-3        1.077081
        1.361361           0.002535           1.147653           0.653782E-3        1.077146
        1.371371           0.002544           1.147907           0.654915E-3        1.077212
        1.381381           0.002554           1.148162           0.656052E-3        1.077277
        1.391391           0.002563           1.148418           0.657192E-3        1.077343
        1.401401           0.002572           1.148675           0.658334E-3        1.077409
        1.411411           0.002582           1.148932           0.659480E-3        1.077475
        1.421421           0.002591           1.149191           0.660629E-3        1.077541
        1.431431           0.002601           1.149451           0.661781E-3        1.077607
        1.441441           0.002611           1.149711           0.662935E-3        1.077673
        1.451451           0.002620           1.149973           0.664093E-3        1.077740
        1.461461           0.002630           1.150236           0.665254E-3        1.077806
        1.471471           0.002640           1.150499           0.666418E-3        1.077873
        1.481481           0.002650           1.150764           0.667586E-3        1.077940
        1.491491           0.002660           1.151029           0.668756E-3        1.078007
        1.501501           0.002670           1.151296           0.669930E-3        1.078074
        1.511511           0.002680           1.151564           0.671106E-3        1.078141
        1.521521           0.002690           1.151832           0.672286E-3        1.078208
        1.531531           0.002700           1.152102           0.673469E-3        1.078275
        1.541541           0.002710           1.152372           0.674655E-3        1.078343
        1.551551           0.002721           1.152644           0.675844E-3        1.078410
        1.561561           0.002731           1.152917           0.677037E-3        1.078478
        1.571571           0.002741           1.153190           0.678232E-3        1.078546
        1.581581           0.002752           1.153465           0.679431E-3        1.078614
        1.591591           0.002762           1.153741           0.680634E-3        1.078682
        1.601601           0.002773           1.154018           0.681839E-3        1.078750
        1.611611           0.002784           1.154295           0.683048E-3        1.078818
        1.621622           0.002794           1.154574           0.684260E-3        1.078887
        1.631632           0.002805           1.154855           0.685475E-3        1.078955
        1.641642           0.002816           1.155136           0.686693E-3        1.079024
        1.651652           0.002827           1.155418           0.687915E-3        1.079093
        1.661662           0.002838           1.155701           0.689140E-3        1.079162
        1.671672           0.002849           1.155986           0.690369E-3        1.079231
        1.681682           0.002860           1.156271           0.691601E-3        1.079300
        1.691692           0.002871           1.156558           0.692836E-3        1.079369
        1.701702           0.002883           1.156845           0.694074E-3        1.079438
        1.711712           0.002894           1.157134           0.695316E-3        1.079508
        1.721722           0.002905           1.157424           0.696561E-3        1.079578
        1.731732           0.002917           1.157715           0.697810E-3        1.079647
        1.741742           0.002928           1.158008           0.699062E-3        1.079717
        1.751752           0.002940           1.158301           0.700318E-3        1.079787
        1.761762           0.002952           1.158596           0.701577E-3        1.079857
        1.771772           0.002963           1.158892           0.702839E-3        1.079928
        1.781782           0.002975           1.159189           0.704105E-3        1.079998
        1.791792           0.002987           1.159487           0.705375E-3        1.080069
        1.801802           0.002999           1.159786           0.706647E-3        1.080139
        1.811812           0.003011           1.160087           0.707924E-3        1.080210
        1.821822           0.003023           1.160388           0.709204E-3        1.080281
        1.831832           0.003035           1.160691           0.710487E-3        1.080352
        1.841842           0.003048           1.160996           0.711774E-3        1.080423
        1.851852           0.003060           1.161301           0.713065E-3        1.080495
        1.861862           0.003073           1.161608           0.714359E-3        1.080566
        1.871872           0.003085           1.161916           0.715657E-3        1.080638
        1.881882           0.003098           1.162225           0.716958E-3        1.080709
        1.891892           0.003110           1.162535           0.718263E-3        1.080781
        1.901902           0.003123           1.162847           0.719571E-3        1.080853
        1.911912           0.003136           1.163160           0.720884E-3        1.080925
        1.921922           0.003149           1.163474           0.722199E-3        1.080997
        1.931932           0.003162           1.163790           0.723519E-3        1.081070
        1.941942           0.003175           1.164107           0.724842E-3        1.081142
        1.951952           0.003188           1.164425           0.726169E-3        1.081215
        1.961962           0.003201           1.164744           0.727500E-3        1.081288
        1.971972           0.003215           1.165065           0.728834E-3        1.081360
        1.981982           0.003228           1.165387           0.730172E-3        1.081433
        1.991992           0.003242           1.165711           0.731514E-3        1.081507
        2.002002           0.003255           1.166036           0.732860E-3        1.081580
        2.012012           0.003269           1.166362           0.734209E-3        1.081653
        2.022022           0.003283           1.166690           0.735562E-3        1.081727
        2.032032           0.003297           1.167019           0.736919E-3        1.081800
        2.042042           0.003311           1.167349           0.738280E-3        1.081874
        2.052052           0.003325           1.167681           0.739644E-3        1.081948
        2.062062           0.003339           1.168014           0.741013E-3        1.082022
        2.072072           0.003353           1.168349           0.742385E-3        1.082097
        2.082082           0.003368           1.168685           0.743762E-3        1.082171
        2.092092           0.003382           1.169022           0.745142E-3        1.082245
        2.102102           0.003397           1.169361           0.746526E-3        1.082320
        2.112112           0.003411           1.169702           0.747914E-3        1.082395
        2.122122           0.003426           1.170043           0.749306E-3        1.082470
        2.132132           0.003441           1.170387           0.750701E-3        1.082545
        2.142142           0.003456           1.170732           0.752101E-3        1.082620
        2.152152           0.003471           1.171078           0.753505E-3        1.082695
        2.162162           0.003486           1.171426           0.754913E-3        1.082771
        2.172172           0.003501           1.171775           0.756325E-3        1.082847
        2.182182           0.003517           1.172126           0.757741E-3        1.082922
        2.192192           0.003532           1.172478           0.759161E-3        1.082998
        2.202202           0.003548           1.172832           0.760585E-3        1.083074
        2.212212           0.003563           1.173188           0.762013E-3        1.083150
        2.222222           0.003579           1.173545           0.763445E-3        1.083227
        2.232232           0.003595           1.173904           0.764881E-3        1.083303
        2.242242           0.003611           1.174264           0.766322E-3        1.083380
        2.252252           0.003627           1.174626           0.767766E-3        1.083457
        2.262262           0.003643           1.174989           0.769215E-3        1.083534
        2.272272           0.003660           1.175355           0.770668E-3        1.083611
        2.282282           0.003676           1.175721           0.772125E-3        1.083688
        2.292292           0.003693           1.176090           0.773586E-3        1.083765
        2.302302           0.003710           1.176460           0.775052E-3        1.083843
        2.312312           0.003726           1.176832           0.776521E-3        1.083920
        2.322322           0.003743           1.177205           0.777995E-3        1.083998
        2.332332           0.003760           1.177580           0.779474E-3        1.084076
        2.342342           0.003778           1.177957           0.780956E-3        1.084154
        2.352352           0.003795           1.178336           0.782443E-3        1.084232
        2.362362           0.003812           1.178716           0.783934E-3        1.084311
        2.372372           0.003830           1.179098           0.785430E-3        1.084389
        2.382382           0.003848           1.179482           0.786930E-3        1.084468
        2.392392           0.003865           1.179868           0.788434E-3        1.084547
        2.402402           0.003883           1.180255           0.789943E-3        1.084626
        2.412412           0.003901           1.180644           0.791456E-3        1.084705
        2.422422           0.003920           1.181035           0.792974E-3        1.084784
        2.432432           0.003938           1.181428           0.794496E-3        1.084864
        2.442442           0.003957           1.181823           0.796022E-3        1.084943
        2.452452           0.003975           1.182219           0.797553E-3        1.085023
        2.462462           0.003994           1.182618           0.799089E-3        1.085103
        2.472472           0.004013           1.183018           0.800628E-3        1.085183
        2.482482           0.004032           1.183420           0.802173E-3        1.085263
        2.492492           0.004051           1.183824           0.803722E-3        1.085343
        2.502502           0.004070           1.184230           0.805276E-3        1.085424
        2.512512           0.004090           1.184638           0.806834E-3        1.085505
        2.522522           0.004109           1.185048           0.808397E-3        1.085585
        2.532532           0.004129           1.185460           0.809964E-3        1.085666
        2.542542           0.004149           1.185874           0.811537E-3        1.085748
        2.552552           0.004169           1.186289           0.813113E-3        1.085829
        2.562562           0.004189           1.186707           0.814695E-3        1.085910
        2.572572           0.004210           1.187127           0.816281E-3        1.085992
        2.582582           0.004230           1.187549           0.817872E-3        1.086074
        2.592592           0.004251           1.187973           0.819467E-3        1.086156
        2.602602           0.004272           1.188399           0.821068E-3        1.086238
        2.612612           0.004293           1.188827           0.822673E-3        1.086320
        2.622622           0.004314           1.189257           0.824283E-3        1.086402
        2.632632           0.004335           1.189690           0.825897E-3        1.086485
        2.642642           0.004357           1.190124           0.827517E-3        1.086568
        2.652653           0.004379           1.190561           0.829142E-3        1.086651
        2.662663           0.004400           1.191000           0.830771E-3        1.086734
        2.672673           0.004422           1.191441           0.832405E-3        1.086817
        2.682683           0.004445           1.191884           0.834045E-3        1.086900
        2.692693           0.004467           1.192329           0.835689E-3        1.086984
        2.702703           0.004490           1.192777           0.837338E-3        1.087068
        2.712713           0.004512           1.193227           0.838992E-3        1.087152
        2.722723           0.004535           1.193679           0.840651E-3        1.087236
        2.732733           0.004558           1.194134           0.842315E-3        1.087320
        2.742743           0.004582           1.194591           0.843984E-3        1.087404
        2.752753           0.004605           1.195050           0.845658E-3        1.087489
        2.762763           0.004629           1.195511           0.847337E-3        1.087573
        2.772773           0.004653           1.195975           0.849022E-3        1.087658
        2.782783           0.004677           1.196441           0.850711E-3        1.087743
        2.792793           0.004701           1.196910           0.852405E-3        1.087829
        2.802803           0.004725           1.197381           0.854105E-3        1.087914
        2.812813           0.004750           1.197855           0.855810E-3        1.088000
        2.822823           0.004775           1.198331           0.857520E-3        1.088085
        2.832833           0.004800           1.198809           0.859236E-3        1.088171
        2.842843           0.004825           1.199290           0.860956E-3        1.088257
        2.852853           0.004850           1.199774           0.862682E-3        1.088344
        2.862863           0.004876           1.200260           0.864413E-3        1.088430
        2.872873           0.004902           1.200749           0.866150E-3        1.088516
        2.882883           0.004928           1.201240           0.867892E-3        1.088603
        2.892893           0.004954           1.201734           0.869639E-3        1.088690
        2.902903           0.004981           1.202230           0.871392E-3        1.088777
        2.912913           0.005008           1.202729           0.873149E-3        1.088865
        2.922923           0.005035           1.203231           0.874913E-3        1.088952
        2.932933           0.005062           1.203736           0.876682E-3        1.089040
        2.942943           0.005089           1.204243           0.878456E-3        1.089128
        2.952953           0.005117           1.204753           0.880236E-3        1.089216
        2.962963           0.005145           1.205266           0.882021E-3        1.089304
        2.972973           0.005173           1.205782           0.883812E-3        1.089392
        2.982983           0.005202           1.206300           0.885608E-3        1.089481
        2.992993           0.005230           1.206821           0.887411E-3        1.089569
        3.003003           0.005259           1.207345           0.889218E-3        1.089658
        3.013013           0.005288           1.207873           0.891031E-3        1.089747
        3.023023           0.005318           1.208403           0.892851E-3        1.089837
        3.033033           0.005347           1.208935           0.894675E-3        1.089926
        3.043043           0.005377           1.209471           0.896505E-3        1.090016
        3.053053           0.005408           1.210010           0.898342E-3        1.090106
        3.063063           0.005438           1.210552           0.900183E-3        1.090196
        3.073073           0.005469           1.211097           0.902031E-3        1.090286
        3.083083           0.005500           1.211645           0.903884E-3        1.090376
        3.093093           0.005531           1.212196           0.905743E-3        1.090467
        3.103103           0.005563           1.212751           0.907609E-3        1.090557
        3.113113           0.005595           1.213308           0.909479E-3        1.090648
        3.123123           0.005627           1.213869           0.911356E-3        1.090739
        3.133133           0.005659           1.214433           0.913239E-3        1.090831
        3.143143           0.005692           1.215000           0.915128E-3        1.090922
        3.153153           0.005725           1.215570           0.917023E-3        1.091014
        3.163163           0.005758           1.216144           0.918923E-3        1.091106
        3.173173           0.005792           1.216721           0.920830E-3        1.091198
        3.183183           0.005826           1.217302           0.922743E-3        1.091290
        3.193193           0.005860           1.217885           0.924662E-3        1.091383
        3.203203           0.005895           1.218473           0.926587E-3        1.091475
        3.213213           0.005930           1.219063           0.928518E-3        1.091568
        3.223223           0.005965           1.219658           0.930455E-3        1.091661
        3.233233           0.006001           1.220255           0.932399E-3        1.091754
        3.243243           0.006037           1.220857           0.934349E-3        1.091848
        3.253253           0.006073           1.221462           0.936304E-3        1.091941
        3.263263           0.006110           1.222070           0.938267E-3        1.092035
        3.273273           0.006146           1.222682           0.940235E-3        1.092129
        3.283283           0.006184           1.223298           0.942210E-3        1.092223
        3.293293           0.006221           1.223918           0.944191E-3        1.092318
        3.303303           0.006260           1.224542           0.946179E-3        1.092412
        3.313313           0.006298           1.225169           0.948173E-3        1.092507
        3.323323           0.006337           1.225800           0.950173E-3        1.092602
        3.333333           0.006376           1.226435           0.952180E-3        1.092697
        3.343343           0.006415           1.227074           0.954194E-3        1.092793
        3.353353           0.006455           1.227717           0.956213E-3        1.092888
        3.363363           0.006496           1.228364           0.958240E-3        1.092984
        3.373373           0.006536           1.229014           0.960273E-3        1.093080
        3.383383           0.006578           1.229669           0.962313E-3        1.093176
        3.393393           0.006619           1.230329           0.964359E-3        1.093273
        3.403403           0.006661           1.230992           0.966412E-3        1.093369
        3.413413           0.006703           1.231659           0.968471E-3        1.093466
        3.423423           0.006746           1.232331           0.970538E-3        1.093563
        3.433433           0.006789           1.233007           0.972611E-3        1.093660
        3.443443           0.006833           1.233687           0.974691E-3        1.093758
        3.453453           0.006877           1.234372           0.976777E-3        1.093855
        3.463463           0.006922           1.235061           0.978871E-3        1.093953
        3.473473           0.006967           1.235755           0.980971E-3        1.094051
        3.483483           0.007012           1.236453           0.983079E-3        1.094150
        3.493493           0.007058           1.237155           0.985193E-3        1.094248
        3.503503           0.007105           1.237863           0.987314E-3        1.094347
        3.513513           0.007152           1.238575           0.989442E-3        1.094446
        3.523524           0.007199           1.239291           0.991578E-3        1.094545
        3.533533           0.007247           1.240013           0.993720E-3        1.094644
        3.543543           0.007296           1.240739           0.995869E-3        1.094744
        3.553553           0.007344           1.241470           0.998026E-3        1.094843
        3.563564           0.007394           1.242206           0.001000           1.094943
        3.573573           0.007444           1.242947           0.001002           1.095044
        3.583583           0.007494           1.243692           0.001005           1.095144
        3.593593           0.007546           1.244443           0.001007           1.095245
        3.603603           0.007597           1.245199           0.001009           1.095345
        3.613613           0.007649           1.245961           0.001011           1.095447
        3.623623           0.007702           1.246727           0.001013           1.095548
        3.633634           0.007756           1.247499           0.001016           1.095649
        3.643643           0.007809           1.248276           0.001018           1.095751
        3.653653           0.007864           1.249058           0.001020           1.095853
        3.663663           0.007919           1.249846           0.001022           1.095955
        3.673674           0.007975           1.250640           0.001024           1.096058
        3.683683           0.008031           1.251438           0.001027           1.096160
        3.693693           0.008088           1.252243           0.001029           1.096263
        3.703704           0.008146           1.253054           0.001031           1.096366
        3.713714           0.008204           1.253870           0.001034           1.096470
        3.723723           0.008263           1.254692           0.001036           1.096573
        3.733733           0.008323           1.255519           0.001038           1.096677
        3.743744           0.008383           1.256353           0.001040           1.096781
        3.753754           0.008444           1.257193           0.001043           1.096885
        3.763763           0.008506           1.258039           0.001045           1.096990
        3.773773           0.008568           1.258891           0.001047           1.097094
        3.783784           0.008631           1.259750           0.001050           1.097199
        3.793794           0.008695           1.260614           0.001052           1.097304
        3.803803           0.008760           1.261485           0.001054           1.097410
        3.813814           0.008825           1.262363           0.001057           1.097515
        3.823824           0.008892           1.263247           0.001059           1.097621
        3.833834           0.008959           1.264138           0.001061           1.097727
        3.843843           0.009026           1.265035           0.001064           1.097834
        3.853854           0.009095           1.265939           0.001066           1.097940
        3.863864           0.009164           1.266851           0.001069           1.098047
        3.873873           0.009235           1.267769           0.001071           1.098154
        3.883883           0.009306           1.268694           0.001073           1.098262
        3.893894           0.009378           1.269626           0.001076           1.098369
        3.903904           0.009451           1.270565           0.001078           1.098477
        3.913913           0.009525           1.271512           0.001081           1.098585
        3.923924           0.009599           1.272466           0.001083           1.098693
        3.933934           0.009675           1.273427           0.001086           1.098802
        3.943944           0.009751           1.274397           0.001088           1.098910
        3.953954           0.009829           1.275373           0.001091           1.099020
        3.963964           0.009908           1.276358           0.001093           1.099129
        3.973974           0.009987           1.277350           0.001095           1.099238
        3.983984           0.010068           1.278350           0.001098           1.099348
        3.993994           0.010149           1.279359           0.001100           1.099458
        4.004004           0.010232           1.280375           0.001103           1.099568
        4.014014           0.010316           1.281400           0.001106           1.099679
        4.024024           0.010400           1.282433           0.001108           1.099790
        4.034034           0.010486           1.283475           0.001111           1.099900
        4.044044           0.010573           1.284525           0.001113           1.100012
        4.054054           0.010662           1.285584           0.001116           1.100123
        4.064064           0.010751           1.286652           0.001118           1.100235
        4.074074           0.010842           1.287729           0.001121           1.100347
        4.084084           0.010933           1.288814           0.001123           1.100459
        4.094094           0.011026           1.289909           0.001126           1.100572
        4.104104           0.011121           1.291013           0.001129           1.100685
        4.114114           0.011216           1.292127           0.001131           1.100798
        4.124124           0.011313           1.293250           0.001134           1.100911
        4.134134           0.011411           1.294383           0.001136           1.101025
        4.144144           0.011511           1.295526           0.001139           1.101139
        4.154154           0.011612           1.296678           0.001142           1.101253
        4.164164           0.011714           1.297841           0.001144           1.101367
        4.174174           0.011818           1.299014           0.001147           1.101482
        4.184184           0.011923           1.300197           0.001150           1.101597
        4.194194           0.012030           1.301391           0.001152           1.101712
        4.204204           0.012138           1.302595           0.001155           1.101827
        4.214214           0.012248           1.303811           0.001158           1.101943
        4.224224           0.012359           1.305037           0.001161           1.102059
        4.234234           0.012472           1.306274           0.001163           1.102175
        4.244244           0.012587           1.307523           0.001166           1.102292
        4.254254           0.012703           1.308783           0.001169           1.102409
        4.264264           0.012821           1.310055           0.001172           1.102526
        4.274274           0.012941           1.311338           0.001174           1.102643
        4.284284           0.013063           1.312634           0.001177           1.102761
        4.294294           0.013186           1.313941           0.001180           1.102879
        4.304304           0.013312           1.315261           0.001183           1.102997
        4.314314           0.013439           1.316594           0.001185           1.103116
        4.324324           0.013568           1.317939           0.001188           1.103234
        4.334334           0.013699           1.319297           0.001191           1.103354
        4.344344           0.013832           1.320668           0.001194           1.103473
        4.354354           0.013967           1.322052           0.001197           1.103592
        4.364364           0.014105           1.323450           0.001200           1.103712
        4.374374           0.014244           1.324862           0.001203           1.103832
        4.384384           0.014386           1.326287           0.001205           1.103953
        4.394394           0.014530           1.327727           0.001208           1.104074
        4.404404           0.014676           1.329181           0.001211           1.104195
        4.414414           0.014824           1.330649           0.001214           1.104316
        4.424424           0.014975           1.332133           0.001217           1.104438
        4.434434           0.015129           1.333631           0.001220           1.104560
        4.444444           0.015285           1.335145           0.001223           1.104682
        4.454454           0.015443           1.336674           0.001226           1.104805
        4.464464           0.015604           1.338219           0.001229           1.104927
        4.474474           0.015768           1.339780           0.001232           1.105050
        4.484484           0.015934           1.341357           0.001235           1.105174
        4.494494           0.016104           1.342951           0.001238           1.105298
        4.504504           0.016276           1.344562           0.001241           1.105422
        4.514514           0.016451           1.346190           0.001244           1.105546
        4.524524           0.016629           1.347836           0.001247           1.105671
        4.534534           0.016811           1.349499           0.001250           1.105796
        4.544544           0.016995           1.351180           0.001253           1.105921
        4.554554           0.017183           1.352880           0.001256           1.106046
        4.564565           0.017374           1.354598           0.001259           1.106172
        4.574574           0.017568           1.356335           0.001262           1.106298
        4.584584           0.017766           1.358092           0.001265           1.106425
        4.594594           0.017967           1.359868           0.001268           1.106552
        4.604605           0.018172           1.361665           0.001272           1.106679
        4.614614           0.018381           1.363482           0.001275           1.106806
        4.624624           0.018593           1.365319           0.001278           1.106934
        4.634634           0.018810           1.367178           0.001281           1.107062
        4.644644           0.019030           1.369058           0.001284           1.107190
        4.654655           0.019255           1.370960           0.001287           1.107319
        4.664664           0.019484           1.372885           0.001291           1.107448
        4.674675           0.019717           1.374832           0.001294           1.107577
        4.684684           0.019955           1.376802           0.001297           1.107707
        4.694695           0.020197           1.378796           0.001300           1.107837
        4.704704           0.020444           1.380814           0.001303           1.107967
        4.714715           0.020696           1.382857           0.001307           1.108097
        4.724724           0.020953           1.384924           0.001310           1.108228
        4.734735           0.021215           1.387018           0.001313           1.108360
        4.744744           0.021482           1.389137           0.001317           1.108491
        4.754755           0.021755           1.391282           0.001320           1.108623
        4.764764           0.022033           1.393455           0.001323           1.108755
        4.774775           0.022317           1.395655           0.001327           1.108888
        4.784785           0.022607           1.397884           0.001330           1.109021
        4.794795           0.022902           1.400141           0.001333           1.109154
        4.804804           0.023204           1.402427           0.001337           1.109288
        4.814815           0.023512           1.404744           0.001340           1.109422
        4.824825           0.023827           1.407091           0.001343           1.109556
        4.834835           0.024149           1.409469           0.001347           1.109690
        4.844844           0.024477           1.411879           0.001350           1.109825
        4.854855           0.024813           1.414321           0.001354           1.109961
        4.864865           0.025156           1.416797           0.001357           1.110096
        4.874875           0.025507           1.419307           0.001361           1.110232
        4.884884           0.025866           1.421851           0.001364           1.110369
        4.894895           0.026232           1.424431           0.001368           1.110505
        4.904905           0.026607           1.427047           0.001371           1.110642
        4.914915           0.026991           1.429700           0.001375           1.110780
        4.924924           0.027384           1.432391           0.001378           1.110917
        4.934935           0.027785           1.435121           0.001382           1.111055
        4.944945           0.028197           1.437891           0.001385           1.111194
        4.954955           0.028618           1.440701           0.001389           1.111333
        4.964964           0.029049           1.443552           0.001392           1.111472
        4.974975           0.029490           1.446446           0.001396           1.111611
        4.984985           0.029943           1.449384           0.001400           1.111751
        4.994995           0.030406           1.452366           0.001403           1.111892
        5.005005           0.030881           1.455394           0.001407           1.112032
        5.015015           0.031368           1.458468           0.001411           1.112173
        5.025025           0.031868           1.461591           0.001414           1.112314
        5.035035           0.032380           1.464762           0.001418           1.112456
        5.045045           0.032906           1.467984           0.001422           1.112598
        5.055055           0.033445           1.471258           0.001425           1.112741
        5.065065           0.033998           1.474584           0.001429           1.112883
        5.075075           0.034567           1.477965           0.001433           1.113027
        5.085085           0.035151           1.481402           0.001437           1.113170
        5.095095           0.035750           1.484895           0.001440           1.113314
        5.105105           0.036366           1.488448           0.001444           1.113459
        5.115115           0.037000           1.492060           0.001448           1.113603
        5.125125           0.037651           1.495735           0.001452           1.113748
        5.135135           0.038321           1.499473           0.001456           1.113894
        5.145144           0.039010           1.503277           0.001460           1.114040
        5.155155           0.039720           1.507148           0.001463           1.114186
        5.165165           0.040450           1.511088           0.001467           1.114333
        5.175175           0.041202           1.515099           0.001471           1.114480
        5.185184           0.041977           1.519183           0.001475           1.114627
        5.195195           0.042775           1.523343           0.001479           1.114775
        5.205205           0.043598           1.527580           0.001483           1.114923
        5.215215           0.044447           1.531898           0.001487           1.115072
        5.225225           0.045323           1.536297           0.001491           1.115221
        5.235235           0.046228           1.540781           0.001495           1.115370
        5.245245           0.047161           1.545353           0.001499           1.115520
        5.255255           0.048126           1.550014           0.001503           1.115670
        5.265265           0.049122           1.554769           0.001507           1.115821
        5.275275           0.050153           1.559620           0.001511           1.115972
        5.285285           0.051219           1.564569           0.001515           1.116123
        5.295295           0.052323           1.569622           0.001519           1.116275
        5.305305           0.053465           1.574779           0.001524           1.116427
        5.315315           0.054648           1.580046           0.001528           1.116580
        5.325325           0.055875           1.585427           0.001532           1.116733
        5.335335           0.057147           1.590924           0.001536           1.116886
        5.345345           0.058467           1.596542           0.001540           1.117040
        5.355355           0.059838           1.602285           0.001544           1.117195
        5.365365           0.061261           1.608158           0.001549           1.117349
        5.375375           0.062741           1.614166           0.001553           1.117505
        5.385385           0.064281           1.620312           0.001557           1.117660
        5.395395           0.065883           1.626604           0.001562           1.117816
        5.405405           0.067552           1.633045           0.001566           1.117973
        5.415415           0.069292           1.639642           0.001570           1.118130
        5.425425           0.071107           1.646401           0.001574           1.118287
        5.435435           0.073001           1.653328           0.001579           1.118445
        5.445445           0.074981           1.660430           0.001583           1.118603
        5.455455           0.077051           1.667714           0.001588           1.118762
        5.465465           0.079218           1.675187           0.001592           1.118921
        5.475475           0.081487           1.682857           0.001596           1.119080
        5.485485           0.083868           1.690732           0.001601           1.119240
        5.495495           0.086366           1.698821           0.001605           1.119401
        5.505505           0.088991           1.707134           0.001610           1.119561
        5.515515           0.091753           1.715679           0.001614           1.119723
        5.525526           0.094662           1.724468           0.001619           1.119884
        5.535535           0.097730           1.733510           0.001623           1.120047
        5.545545           0.100969           1.742817           0.001628           1.120209
        5.555555           0.104393           1.752401           0.001633           1.120372
        5.565566           0.108019           1.762274           0.001637           1.120536
        5.575575           0.111864           1.772450           0.001642           1.120700
        5.585585           0.115947           1.782942           0.001646           1.120865
        5.595595           0.120291           1.793765           0.001651           1.121029
        5.605606           0.124919           1.804933           0.001656           1.121195
        5.615615           0.129861           1.816461           0.001661           1.121361
        5.625625           0.135146           1.828366           0.001665           1.121527
        5.635635           0.140811           1.840663           0.001670           1.121694
        5.645645           0.146895           1.853367           0.001675           1.121861
        5.655655           0.153444           1.866494           0.001680           1.122029
        5.665665           0.160510           1.880058           0.001684           1.122198
        5.675675           0.168151           1.894073           0.001689           1.122366
        5.685685           0.176435           1.908547           0.001694           1.122536
        5.695695           0.185440           1.923489           0.001699           1.122705
        5.705705           0.195253           1.938899           0.001704           1.122876
        5.715715           0.205975           1.954770           0.001709           1.123046
        5.725725           0.217722           1.971085           0.001714           1.123218
        5.735735           0.230624           1.987811           0.001719           1.123389
        5.745746           0.244831           2.004897           0.001724           1.123562
        5.755755           0.260507           2.022261           0.001729           1.123734
        5.765765           0.277835           2.039786           0.001734           1.123907
        5.775775           0.297014           2.057307           0.001739           1.124081
        5.785786           0.318248           2.074594           0.001744           1.124255
        5.795795           0.341739           2.091339           0.001749           1.124430
        5.805805           0.367662           2.107130           0.001754           1.124605
        5.815815           0.396136           2.121442           0.001759           1.124781
        5.825826           0.427170           2.133618           0.001764           1.124957
        5.835835           0.460599           2.142878           0.001770           1.125134
        5.845845           0.495994           2.148347           0.001775           1.125311
        5.855855           0.532579           2.149148           0.001780           1.125489
        5.865866           0.569151           2.144536           0.001785           1.125668
        5.875876           0.604085           2.134121           0.001791           1.125847
        5.885885           0.635443           2.118104           0.001796           1.126026
        5.895895           0.661246           2.097474           0.001801           1.126206
        5.905906           0.679866           2.074052           0.001807           1.126387
        5.915915           0.690426           2.050294           0.001812           1.126567
        5.925925           0.693060           2.028878           0.001817           1.126749
        5.935935           0.688893           2.012208           0.001823           1.126931
        5.945946           0.679760           2.002020           0.001828           1.127114
        5.955956           0.667805           1.999220           0.001834           1.127297
        5.965966           0.655092           2.003946           0.001839           1.127481
        5.975976           0.643367           2.015778           0.001845           1.127665
        5.985986           0.633956           2.033977           0.001850           1.127850
        5.995996           0.627784           2.057691           0.001856           1.128035
        6.006006           0.625454           2.086096           0.001862           1.128221
        6.016016           0.627341           2.118463           0.001867           1.128408
        6.026026           0.633680           2.154193           0.001873           1.128595
        6.036036           0.644635           2.192810           0.001879           1.128783
        6.046046           0.660358           2.233957           0.001884           1.128971
        6.056056           0.681017           2.277362           0.001890           1.129160
        6.066066           0.706833           2.322817           0.001896           1.129349
        6.076076           0.738093           2.370159           0.001902           1.129539
        6.086086           0.775173           2.419244           0.001907           1.129730
        6.096096           0.818544           2.469922           0.001913           1.129921
        6.106106           0.868788           2.522011           0.001919           1.130112
        6.116116           0.926610           2.575268           0.001925           1.130305
        6.126126           0.992856           2.629362           0.001931           1.130498
        6.136136           1.068513           2.683819           0.001937           1.130691
        6.146146           1.154726           2.737972           0.001943           1.130885
        6.156156           1.252788           2.790892           0.001949           1.131080
        6.166166           1.364153           2.841303           0.001955           1.131275
        6.176176           1.490368           2.887462           0.001961           1.131471
        6.186186           1.633021           2.927022           0.001967           1.131668
        6.196196           1.793633           2.956892           0.001973           1.131865
        6.206206           1.973409           2.973044           0.001980           1.132063
        6.216216           2.172940           2.970382           0.001986           1.132261
        6.226226           2.391707           2.942661           0.001992           1.132460
        6.236236           2.627475           2.882573           0.001998           1.132660
        6.246246           2.875472           2.782149           0.002005           1.132860
        6.256256           3.127638           2.633612           0.002011           1.133061
        6.266266           3.372110           2.430829           0.002017           1.133262
        6.276276           3.593450           2.171235           0.002024           1.133464
        6.286286           3.773930           1.857980           0.002030           1.133667
        6.296296           3.896251           1.501345           0.002036           1.133870
        6.306306           3.947106           1.118617           0.002043           1.134075
        6.316316           3.920500           0.731757           0.002049           1.134279
        6.326326           3.819368           0.363536           0.002056           1.134485
        6.336336           3.654784           0.033230           0.002063           1.134691
        6.346346           3.443071          -0.246319           0.002069           1.134897
        6.356356           3.202134          -0.469617           0.002076           1.135105
        6.366366           2.948427          -0.637446           0.002082           1.135313
        6.376376           2.695109          -0.754945           0.002089           1.135521
        6.386386           2.451515          -0.829520           0.002096           1.135731
        6.396396           2.223431          -0.869206           0.002103           1.135941
        6.406406           2.013876          -0.881606           0.002110           1.136151
        6.416416           1.823863          -0.873362           0.002116           1.136363
        6.426426           1.653075          -0.849973           0.002123           1.136575
        6.436436           1.500447          -0.815825           0.002130           1.136788
        6.446446           1.364505          -0.774323           0.002137           1.137001
        6.456456           1.243629          -0.728058           0.002144           1.137215
        6.466466           1.136179          -0.678960           0.002151           1.137430
        6.476476           1.040618          -0.628458           0.002158           1.137646
        6.486486           0.955528          -0.577586           0.002165           1.137862
        6.496496           0.879637          -0.527083           0.002172           1.138079
        6.506506           0.811812          -0.477461           0.002179           1.138297
        6.516516           0.751064          -0.429073           0.002187           1.138515
        6.526526           0.696527          -0.382146           0.002194           1.138734
        6.536536           0.647449          -0.336824           0.002201           1.138954
        6.546546           0.603174          -0.293175           0.002208           1.139175
        6.556556           0.563134          -0.251229           0.002216           1.139396
        6.566566           0.526837          -0.210981           0.002223           1.139618
        6.576576           0.493856          -0.172402           0.002231           1.139841
        6.586586           0.463816          -0.135443           0.002238           1.140064
        6.596596           0.436394          -0.100051           0.002246           1.140289
        6.606606           0.411307          -0.066164           0.002253           1.140514
        6.616616           0.388308          -0.033717           0.002261           1.140739
        6.626626           0.367178          -0.002641           0.002268           1.140966
        6.636636           0.347729           0.027130           0.002276           1.141193
        6.646646           0.329791           0.055663           0.002284           1.141421
        6.656656           0.313218           0.083019           0.002291           1.141650
        6.666666           0.297878           0.109263           0.002299           1.141880
        6.676676           0.283654           0.134454           0.002307           1.142110
        6.686686           0.270446           0.158645           0.002315           1.142341
        6.696696           0.258160           0.181894           0.002323           1.142573
        6.706707           0.246715           0.204249           0.002331           1.142806
        6.716716           0.236038           0.225758           0.002339           1.143040
        6.726726           0.226063           0.246465           0.002347           1.143274
        6.736736           0.216732           0.266416           0.002355           1.143509
        6.746747           0.207992           0.285648           0.002363           1.143745
        6.756756           0.199795           0.304200           0.002371           1.143982
        6.766766           0.192099           0.322106           0.002379           1.144219
        6.776776           0.184864           0.339401           0.002387           1.144458
        6.786787           0.178056           0.356116           0.002396           1.144697
        6.796796           0.171641           0.372280           0.002404           1.144937
        6.806807           0.165592           0.387920           0.002412           1.145178
        6.816816           0.159883           0.403062           0.002421           1.145420
        6.826826           0.154488           0.417731           0.002429           1.145662
        6.836837           0.149386           0.431952           0.002438           1.145906
        6.846846           0.144557           0.445744           0.002446           1.146150
        6.856857           0.139982           0.459128           0.002455           1.146395
        6.866867           0.135644           0.472124           0.002464           1.146641
        6.876876           0.131529           0.484749           0.002472           1.146888
        6.886887           0.127621           0.497022           0.002481           1.147136
        6.896896           0.123908           0.508958           0.002490           1.147385
        6.906906           0.120378           0.520572           0.002499           1.147634
        6.916917           0.117018           0.531880           0.002507           1.147884
        6.926927           0.113820           0.542894           0.002516           1.148136
        6.936936           0.110773           0.553627           0.002525           1.148388
        6.946947           0.107868           0.564094           0.002534           1.148641
        6.956956           0.105098           0.574303           0.002544           1.148895
        6.966967           0.102455           0.584268           0.002553           1.149150
        6.976976           0.099932           0.593997           0.002562           1.149406
        6.986986           0.097522           0.603501           0.002571           1.149662
        6.996997           0.095218           0.612791           0.002580           1.149920
        7.007007           0.093017           0.621874           0.002590           1.150179
        7.017016           0.090911           0.630759           0.002599           1.150438
        7.027027           0.088896           0.639455           0.002609           1.150699
        7.037036           0.086968           0.647968           0.002618           1.150960
        7.047047           0.085122           0.656308           0.002628           1.151222
        7.057057           0.083354           0.664479           0.002637           1.151486
        7.067066           0.081660           0.672491           0.002647           1.151750
        7.077077           0.080037           0.680348           0.002657           1.152015
        7.087087           0.078482           0.688057           0.002666           1.152282
        7.097096           0.076991           0.695624           0.002676           1.152549
        7.107107           0.075562           0.703055           0.002686           1.152817
        7.117116           0.074191           0.710355           0.002696           1.153086
        7.127127           0.072876           0.717529           0.002706           1.153356
        7.137137           0.071615           0.724582           0.002716           1.153628
        7.147147           0.070406           0.731519           0.002726           1.153900
        7.157157           0.069245           0.738345           0.002736           1.154173
        7.167167           0.068133           0.745063           0.002747           1.154447
        7.177176           0.067065           0.751678           0.002757           1.154722
        7.187187           0.066041           0.758196           0.002767           1.154999
        7.197196           0.065059           0.764618           0.002778           1.155276
        7.207206           0.064118           0.770948           0.002788           1.155554
        7.217217           0.063215           0.777193           0.002799           1.155834
        7.227227           0.062349           0.783352           0.002809           1.156114
        7.237237           0.061520           0.789432           0.002820           1.156396
        7.247247           0.060726           0.795434           0.002831           1.156678
        7.257257           0.059965           0.801363           0.002841           1.156962
        7.267267           0.059237           0.807220           0.002852           1.157247
        7.277277           0.058541           0.813010           0.002863           1.157533
        7.287286           0.057875           0.818735           0.002874           1.157820
        7.297297           0.057239           0.824398           0.002885           1.158108
        7.307307           0.056631           0.830001           0.002896           1.158397
        7.317317           0.056052           0.835548           0.002907           1.158687
        7.327327           0.055500           0.841040           0.002919           1.158978
        7.337337           0.054974           0.846481           0.002930           1.159271
        7.347347           0.054474           0.851873           0.002941           1.159564
        7.357357           0.053999           0.857218           0.002953           1.159859
        7.367367           0.053549           0.862518           0.002964           1.160155
        7.377377           0.053123           0.867777           0.002976           1.160452
        7.387387           0.052720           0.872996           0.002987           1.160750
        7.397398           0.052340           0.878178           0.002999           1.161050
        7.407407           0.051983           0.883323           0.003011           1.161350
        7.417417           0.051649           0.888436           0.003023           1.161652
        7.427427           0.051336           0.893517           0.003035           1.161955
        7.437437           0.051044           0.898569           0.003047           1.162259
        7.447447           0.050774           0.903594           0.003059           1.162565
        7.457457           0.050525           0.908594           0.003071           1.162871
        7.467467           0.050296           0.913571           0.003083           1.163179
        7.477477           0.050088           0.918526           0.003096           1.163488
        7.487487           0.049901           0.923463           0.003108           1.163798
        7.497497           0.049733           0.928382           0.003120           1.164110
        7.507507           0.049585           0.933285           0.003133           1.164422
        7.517517           0.049457           0.938175           0.003146           1.164736
        7.527527           0.049349           0.943054           0.003158           1.165051
        7.537537           0.049261           0.947923           0.003171           1.165368
        7.547547           0.049193           0.952783           0.003184           1.165686
        7.557557           0.049145           0.957638           0.003197           1.166005
        7.567567           0.049116           0.962489           0.003210           1.166325
        7.577577           0.049107           0.967338           0.003223           1.166647
        7.587587           0.049119           0.972186           0.003236           1.166970
        7.597597           0.049150           0.977036           0.003249           1.167294
        7.607607           0.049202           0.981889           0.003263           1.167620
        7.617618           0.049275           0.986748           0.003276           1.167947
        7.627627           0.049368           0.991614           0.003290           1.168275
        7.637637           0.049483           0.996490           0.003303           1.168605
        7.647647           0.049618           1.001377           0.003317           1.168936
        7.657657           0.049776           1.006277           0.003331           1.169268
        7.667667           0.049956           1.011194           0.003345           1.169602
        7.677677           0.050158           1.016127           0.003359           1.169937
        7.687687           0.050384           1.021080           0.003373           1.170274
        7.697698           0.050633           1.026055           0.003387           1.170612
        7.707707           0.050906           1.031054           0.003401           1.170951
        7.717717           0.051205           1.036079           0.003415           1.171292
        7.727727           0.051528           1.041133           0.003430           1.171635
        7.737737           0.051878           1.046218           0.003444           1.171978
        7.747747           0.052255           1.051336           0.003459           1.172323
        7.757757           0.052660           1.056491           0.003474           1.172670
        7.767767           0.053094           1.061684           0.003488           1.173018
        7.777778           0.053558           1.066918           0.003503           1.173368
        7.787787           0.054052           1.072196           0.003518           1.173719
        7.797797           0.054579           1.077520           0.003534           1.174072
        7.807807           0.055140           1.082895           0.003549           1.174426
        7.817817           0.055735           1.088322           0.003564           1.174781
        7.827827           0.056367           1.093805           0.003579           1.175139
        7.837838           0.057037           1.099348           0.003595           1.175497
        7.847847           0.057747           1.104952           0.003611           1.175858
        7.857858           0.058499           1.110623           0.003626           1.176219
        7.867867           0.059295           1.116363           0.003642           1.176583
        7.877877           0.060137           1.122177           0.003658           1.176948
        7.887887           0.061028           1.128069           0.003674           1.177315
        7.897897           0.061970           1.134042           0.003690           1.177683
        7.907907           0.062966           1.140101           0.003707           1.178053
        7.917918           0.064021           1.146250           0.003723           1.178424
        7.927927           0.065136           1.152495           0.003739           1.178797
        7.937938           0.066316           1.158841           0.003756           1.179172
        7.947948           0.067565           1.165292           0.003773           1.179548
        7.957957           0.068888           1.171853           0.003790           1.179927
        7.967968           0.070290           1.178532           0.003807           1.180306
        7.977977           0.071776           1.185333           0.003824           1.180688
        7.987987           0.073353           1.192264           0.003841           1.181071
        7.997998           0.075027           1.199331           0.003858           1.181456
        8.008007           0.076806           1.206540           0.003876           1.181843
        8.018017           0.078699           1.213899           0.003893           1.182231
        8.028028           0.080714           1.221416           0.003911           1.182621
        8.038037           0.082862           1.229098           0.003929           1.183013
        8.048048           0.085156           1.236955           0.003947           1.183407
        8.058058           0.087607           1.244994           0.003965           1.183802
        8.068068           0.090231           1.253224           0.003983           1.184200
        8.078078           0.093045           1.261655           0.004001           1.184599
        8.088087           0.096066           1.270296           0.004020           1.185000
        8.098097           0.099317           1.279155           0.004038           1.185403
        8.108108           0.102821           1.288243           0.004057           1.185807
        8.118117           0.106606           1.297567           0.004076           1.186214
        8.128128           0.110703           1.307137           0.004095           1.186622
        8.138138           0.115147           1.316957           0.004114           1.187033
        8.148148           0.119980           1.327034           0.004133           1.187445
        8.158158           0.125249           1.337371           0.004152           1.187859
        8.168168           0.131006           1.347965           0.004172           1.188275
        8.178178           0.137312           1.358809           0.004192           1.188694
        8.188188           0.144238           1.369892           0.004211           1.189114
        8.198197           0.151861           1.381187           0.004231           1.189536
        8.208207           0.160271           1.392658           0.004252           1.189960
        8.218218           0.169566           1.404249           0.004272           1.190386
        8.228228           0.179851           1.415878           0.004292           1.190814
        8.238238           0.191243           1.427435           0.004313           1.191244
        8.248248           0.203852           1.438765           0.004334           1.191676
        8.258258           0.217786           1.449665           0.004354           1.192111
        8.268268           0.233125           1.459870           0.004376           1.192547
        8.278277           0.249901           1.469042           0.004397           1.192986
        8.288287           0.268064           1.476775           0.004418           1.193426
        8.298298           0.287442           1.482601           0.004440           1.193869
        8.308308           0.307679           1.486027           0.004461           1.194314
        8.318318           0.328205           1.486601           0.004483           1.194761
        8.328328           0.348202           1.484020           0.004505           1.195210
        8.338338           0.366653           1.478255           0.004527           1.195662
        8.348348           0.382450           1.469682           0.004550           1.196116
        8.358357           0.394588           1.459144           0.004572           1.196572
        8.368367           0.402409           1.447892           0.004595           1.197030
        8.378378           0.405770           1.437393           0.004618           1.197490
        8.388388           0.405104           1.429071           0.004641           1.197953
        8.398398           0.401309           1.424042           0.004664           1.198418
        8.408408           0.395541           1.422985           0.004688           1.198886
        8.418418           0.388990           1.426122           0.004711           1.199356
        8.428429           0.382706           1.433320           0.004735           1.199828
        8.438437           0.377522           1.444217           0.004759           1.200302
        8.448447           0.374041           1.458351           0.004783           1.200779
        8.458458           0.372671           1.475247           0.004807           1.201259
        8.468468           0.373676           1.494469           0.004832           1.201740
        8.478477           0.377226           1.515647           0.004857           1.202225
        8.488488           0.383446           1.538481           0.004882           1.202711
        8.498498           0.392441           1.562727           0.004907           1.203201
        8.508509           0.404329           1.588196           0.004932           1.203692
        8.518518           0.419252           1.614721           0.004958           1.204187
        8.528527           0.437392           1.642163           0.004983           1.204684
        8.538538           0.458981           1.670377           0.005009           1.205183
        8.548548           0.484302           1.699198           0.005036           1.205685
        8.558558           0.513706           1.728425           0.005062           1.206190
        8.568568           0.547607           1.757795           0.005089           1.206697
        8.578578           0.586480           1.786948           0.005115           1.207207
        8.588589           0.630871           1.815404           0.005142           1.207720
        8.598598           0.681361           1.842502           0.005170           1.208235
        8.608608           0.738563           1.867365           0.005197           1.208753
        8.618618           0.803066           1.888828           0.005225           1.209274
        8.628628           0.875338           1.905375           0.005253           1.209798
        8.638638           0.955632           1.915083           0.005281           1.210324
        8.648648           1.043791           1.915593           0.005309           1.210853
        8.658658           1.138982           1.904142           0.005338           1.211385
        8.668669           1.239452           1.877709           0.005367           1.211920
        8.678679           1.342168           1.833350           0.005396           1.212458
        8.688688           1.442682           1.768731           0.005425           1.212999
        8.698698           1.535174           1.682877           0.005455           1.213543
        8.708708           1.612941           1.576997           0.005485           1.214090
        8.718718           1.669458           1.455004           0.005515           1.214639
        8.728728           1.699716           1.323483           0.005546           1.215192
        8.738738           1.701491           1.190862           0.005576           1.215748
        8.748748           1.676001           1.065848           0.005607           1.216306
        8.758759           1.627588           0.955836           0.005638           1.216868
        8.768768           1.562650           0.865783           0.005670           1.217433
        8.778779           1.488226           0.797810           0.005702           1.218002
        8.788788           1.410855           0.751630           0.005734           1.218573
        8.798798           1.335843           0.725245           0.005766           1.219148
        8.808808           1.267076           0.715759           0.005799           1.219726
        8.818818           1.207153           0.719992           0.005831           1.220307
        8.828828           1.157636           0.734861           0.005865           1.220891
        8.838839           1.119374           0.757578           0.005898           1.221479
        8.848848           1.092781           0.785686           0.005932           1.222070
        8.858859           1.078012           0.817021           0.005966           1.222664
        8.868869           1.075113           0.849613           0.006000           1.223262
        8.878878           1.084079           0.881581           0.006035           1.223863
        8.888888           1.104873           0.911008           0.006070           1.224468
        8.898898           1.137367           0.935812           0.006105           1.225077
        8.908908           1.181246           0.953665           0.006141           1.225688
        8.918919           1.235834           0.961913           0.006177           1.226304
        8.928928           1.299831           0.957589           0.006213           1.226923
        8.938939           1.371050           0.937544           0.006250           1.227545
        8.948949           1.446082           0.898763           0.006287           1.228172
        8.958959           1.520144           0.838892           0.006324           1.228802
        8.968968           1.587131           0.756969           0.006362           1.229436
        8.978978           1.640121           0.654238           0.006400           1.230073
        8.988988           1.672424           0.534638           0.006438           1.230714
        8.998999           1.678902           0.404742           0.006477           1.231360
        9.009008           1.657223           0.272914           0.006516           1.232009
        9.019018           1.608453           0.147743           0.006555           1.232661
        9.029029           1.536716           0.036477           0.006595           1.233318
        9.039039           1.448123          -0.056057           0.006635           1.233979
        9.049048           1.349344          -0.127823           0.006676           1.234644
        9.059058           1.246513          -0.179132           0.006717           1.235313
        9.069068           1.144499          -0.211931           0.006758           1.235986
        9.079079           1.046727          -0.229005           0.006800           1.236663
        9.089088           0.955333          -0.233360           0.006842           1.237345
        9.099098           0.871382          -0.227839           0.006884           1.238031
        9.109109           0.795197          -0.214919           0.006927           1.238720
        9.119119           0.726638          -0.196647           0.006971           1.239415
        9.129129           0.665252          -0.174647           0.007015           1.240113
        9.139138           0.610467          -0.150183           0.007059           1.240816
        9.149148           0.561642          -0.124204           0.007104           1.241523
        9.159159           0.518139          -0.097419           0.007149           1.242235
        9.169168           0.479366          -0.070349           0.007194           1.242952
        9.179178           0.444772          -0.043363           0.007240           1.243672
        9.189189           0.413861          -0.016721           0.007287           1.244398
        9.199199           0.386204           0.009393           0.007334           1.245128
        9.209209           0.361413           0.034868           0.007381           1.245863
        9.219219           0.339161           0.059626           0.007429           1.246603
        9.229228           0.319156           0.083631           0.007477           1.247347
        9.239239           0.301147           0.106868           0.007526           1.248096
        9.249249           0.284923           0.129337           0.007576           1.248851
        9.259258           0.270295           0.151052           0.007626           1.249610
        9.269269           0.257104           0.172038           0.007676           1.250374
        9.279279           0.245215           0.192318           0.007727           1.251143
        9.289289           0.234512           0.211925           0.007778           1.251917
        9.299299           0.224894           0.230893           0.007830           1.252697
        9.309309           0.216282           0.249252           0.007883           1.253481
        9.319319           0.208605           0.267038           0.007936           1.254271
        9.329329           0.201810           0.284277           0.007990           1.255066
        9.339338           0.195854           0.301002           0.008044           1.255867
        9.349349           0.190705           0.317239           0.008099           1.256673
        9.359359           0.186342           0.333007           0.008154           1.257484
        9.369369           0.182757           0.348326           0.008210           1.258301
        9.379379           0.179950           0.363206           0.008267           1.259124
        9.389389           0.177932           0.377647           0.008324           1.259952
        9.399399           0.176725           0.391642           0.008382           1.260787
        9.409409           0.176360           0.405168           0.008440           1.261626
        9.419418           0.176878           0.418184           0.008499           1.262472
        9.429429           0.178324           0.430628           0.008559           1.263324
        9.439439           0.180747           0.442404           0.008619           1.264181
        9.449449           0.184191           0.453385           0.008680           1.265045
        9.459459           0.188688           0.463400           0.008742           1.265914
        9.469469           0.194235           0.472224           0.008804           1.266790
        9.479479           0.200778           0.479589           0.008868           1.267672
        9.489489           0.208177           0.485176           0.008931           1.268561
        9.499498           0.216174           0.488651           0.008996           1.269456
        9.509509           0.224362           0.489700           0.009061           1.270357
        9.519519           0.232166           0.488105           0.009127           1.271265
        9.529529           0.238867           0.483829           0.009194           1.272179
        9.539539           0.243679           0.477108           0.009261           1.273100
        9.549549           0.245876           0.468492           0.009330           1.274028
        9.559559           0.244957           0.458816           0.009399           1.274963
        9.569570           0.240767           0.449073           0.009469           1.275905
        9.579578           0.233541           0.440234           0.009539           1.276853
        9.589589           0.223839           0.433068           0.009611           1.277809
        9.599599           0.212402           0.428046           0.009683           1.278772
        9.609609           0.199997           0.425325           0.009757           1.279742
        9.619619           0.187295           0.424811           0.009831           1.280719
        9.629629           0.174818           0.426247           0.009906           1.281704
        9.639639           0.162917           0.429304           0.009982           1.282696
        9.649650           0.151800           0.433641           0.010058           1.283696
        9.659659           0.141567           0.438941           0.010136           1.284704
        9.669669           0.132238           0.444937           0.010215           1.285719
        9.679679           0.123786           0.451409           0.010294           1.286743
        9.689689           0.116154           0.458183           0.010375           1.287774
        9.699699           0.109272           0.465129           0.010456           1.288813
        9.709709           0.103068           0.472146           0.010539           1.289860
        9.719719           0.097470           0.479161           0.010623           1.290916
        9.729730           0.092409           0.486123           0.010707           1.291980
        9.739739           0.087824           0.492992           0.010793           1.293053
        9.749749           0.083660           0.499744           0.010880           1.294134
        9.759759           0.079867           0.506363           0.010967           1.295224
        9.769769           0.076404           0.512838           0.011056           1.296322
        9.779779           0.073232           0.519162           0.011147           1.297430
        9.789789           0.070318           0.525334           0.011238           1.298546
        9.799799           0.067634           0.531354           0.011330           1.299672
        9.809810           0.065155           0.537224           0.011424           1.300806
        9.819819           0.062860           0.542946           0.011519           1.301951
        9.829829           0.060729           0.548525           0.011615           1.303104
        9.839839           0.058745           0.553965           0.011712           1.304268
        9.849849           0.056895           0.559271           0.011811           1.305440
        9.859859           0.055165           0.564447           0.011910           1.306623
        9.869869           0.053545           0.569499           0.012012           1.307816
        9.879879           0.052023           0.574431           0.012114           1.309019
        9.889890           0.050592           0.579249           0.012218           1.310232
        9.899899           0.049245           0.583956           0.012323           1.311456
        9.909909           0.047972           0.588558           0.012430           1.312690
        9.919919           0.046770           0.593058           0.012538           1.313935
        9.929929           0.045632           0.597461           0.012648           1.315190
        9.939939           0.044553           0.601771           0.012759           1.316457
        9.949949           0.043528           0.605992           0.012872           1.317735
        9.959959           0.042555           0.610126           0.012986           1.319023
        9.969970           0.041629           0.614179           0.013102           1.320324
        9.979980           0.040747           0.618152           0.013220           1.321636
        9.989989           0.039905           0.622049           0.013339           1.322959
        10.00000           0.039103           0.625874           0.013459           1.324295
# 
# 11/30/2023 at 13:38 yambo_ph @ unimi-XPS-8930 [start]
# 11/30/2023 at 13:38                           [end]
#  
# Timing   [Min/Max/Average]: 10s/10s/10s
#
# .-Input file  yambo.in
# | optics                           # [R] Linear Response optical properties
# | dipoles                          # [R] Oscillator strenghts (or dipoles)
# | bss                              # [R] BSE solver
# | bse                              # [R][BSE] Bethe Salpeter Equation.
# | BoseTemp= 0.000000         eV    # Bosonic Temperature
# | FFTGvecs=  4653            RL    # [FFT] Plane-waves
# | DIP_Threads= 1                   # [OPENMP/X] Number of threads for dipoles
# | BS_nCPU_LinAlg_INV= 1            # [PARALLEL] CPUs for Linear Algebra (if -1 it is automatically set)
# | BS_nCPU_LinAlg_DIAGO= 1          # [PARALLEL] CPUs for Linear Algebra (if -1 it is automatically set)
# | X_Threads= 1                     # [OPENMP/X] Number of threads for response functions
# | K_Threads= 1                     # [OPENMP/BSK] Number of threads for response functions
# | BSKmod= "HF"                     # [BSE] IP/Hartree/HF/ALDA/SEX/BSfxc
# | BSEmod= "resonant"               # [BSE] resonant/retarded/coupling
# | BSSmod= "d"                      # [BSS] (h)aydock/(d)iagonalization/(s)lepc/(i)nversion/(t)ddft`
# | % DipBands
# |   3 |  6 |                           # [DIP] Bands range for dipoles
# | %
# | DipComputed= "R V P"             # [DIP] [default R P V; extra P2 Spin Orb]
# | BSENGexx= 1005             RL    # [BSK] Exchange components
# | BSENGBlk= 1005             RL    # [BSK] Screened interaction block size [if -1 uses all the G-vectors of W(q,G,Gp)]
# | % KfnQP_E
# |  5.000000 | 1.000000 | 1.000000 |        # [EXTQP BSK BSS] E parameters  (c/v) eV|adim|adim
# | %
# | % BSEQptR
# |   1 |  9 |                           # [BSK] Transferred momenta range
# | %
# | % BSEBands
# |   3 |  6 |                           # [BSK] Bands range
# | %
# | % BEnRange
# |   0.00000 | 10.00000 |         eV    # [BSS] Energy range
# | %
# | % BDmRange
# |  0.100000 | 0.100000 |         eV    # [BSS] Damping range
# | %
# | BEnSteps= 1000                   # [BSS] Energy steps
# | % BLongDir
# |   0.00000    | 0.100000E-4 |  0.00000    # [BSS] [cc] Electric Field
# | %
# | BSEprop= "abs esrt jdos"         # [BSS] Can be any among abs/jdos/kerr/magn/dich/photolum/esrt
# | BSEdips= "none"                  # [BSS] Can be "trace/none" or "xy/xz/yz" to define off-diagonal rotation plane
# | WRbsWF                         # [BSS] Write to disk excitonic the WFs
