#                                                                     
#                                                                     
# Y88b    /   e           e    e      888~~\    ,88~-_                
#  Y88b  /   d8b         d8b  d8b     888   |  d888   \               
#   Y88b/   /Y88b       d888bdY88b    888 _/  88888    |              
#    Y8Y   /  Y88b     / Y88Y Y888b   888  \  88888    |              
#     Y   /____Y88b   /   YY   Y888b  888   |  Y888   /               
#    /   /      Y88b /          Y888b 888__/    `88_-~                
#                                                                     
#                                                                     
# Version 5.2.0 Revision 22184 Hash (prev commit) 2871b0cee           
#                 Branch is devel-excph                               
#         MPI+OpenMP+SLK+SLEPC+HDF5_MPI_IO Build                      
#               http://www.yambo-code.org                             
#
# Joint Density of states @ Q(6):  0.333333373     0.166666687      0.00000000    [iku]
#
# [GEN] GF Energies                               : Slater exchange(X)+Perdew & Zunger(C)
# [GEN] Green`s Function                          : Resonant
#
# DIP band range                                  :   3   6
# DIP band range limits                           :   4   5
# DIP e/h energy range                            :  -1.00000000     -1.00000000    [eV]
# RL vectors in the sum                           :   4653
# [r,Vnl] included                                : yes
# Bands ordered                                   : yes
# Direct v evaluation                             : no
# Approach used                                   : G-space v
# Dipoles computed                                : R V P
# Wavefunctions                                   : Slater exchange(X)+Perdew & Zunger(C)
#
#
# [K] Identifier                                  :  2079
# [K] Q-point                                     :  0.333333373     0.166666687      0.00000000   
# [K] Dimension                                   :   36
# [K] Bands                                       :   3   6
# [K] Exchange res                                : yes
# [K] Correlation res                             : no
# [K] Kernel`s coupling                           : no
# [K] Exchange cpl                                : no
# [K] Correlation cpl                             : no
# [K] W interaction is bare                       : no
# [K] ALDA kernel in R-space                      : no
# [K] RL vectors exchange                         :  1
# [K] E/h energy range                            :  -1.00000000     -1.00000000    [eV]
# [K] Coupling range                              :   100.000000      100.000000    [o/o]
# [K] BSE L kind                                  : BAR
# [X] Response Kind                               : BAR
#
#
#    E[1] [eV]          Im(jdos)           Re(jdos)           Im(jdos_o)         Re(jdos_o)
#
        0.000000           0.005134           0.479199           0.005134           0.479199
        0.010010           0.005146           0.479713           0.005146           0.479713
        0.020020           0.005158           0.480229           0.005158           0.480229
        0.030030           0.005169           0.480746           0.005169           0.480746
        0.040040           0.005181           0.481264           0.005181           0.481264
        0.050050           0.005193           0.481783           0.005193           0.481783
        0.060060           0.005205           0.482303           0.005205           0.482303
        0.070070           0.005216           0.482824           0.005216           0.482824
        0.080080           0.005228           0.483347           0.005228           0.483347
        0.090090           0.005240           0.483871           0.005240           0.483871
        0.100100           0.005252           0.484396           0.005252           0.484396
        0.110110           0.005264           0.484922           0.005264           0.484922
        0.120120           0.005276           0.485449           0.005276           0.485449
        0.130130           0.005288           0.485978           0.005288           0.485978
        0.140140           0.005300           0.486508           0.005300           0.486508
        0.150150           0.005312           0.487039           0.005312           0.487039
        0.160160           0.005325           0.487571           0.005325           0.487571
        0.170170           0.005337           0.488104           0.005337           0.488104
        0.180180           0.005349           0.488639           0.005349           0.488639
        0.190190           0.005362           0.489175           0.005362           0.489175
        0.200200           0.005374           0.489712           0.005374           0.489712
        0.210210           0.005386           0.490251           0.005386           0.490251
        0.220220           0.005399           0.490790           0.005399           0.490790
        0.230230           0.005411           0.491331           0.005411           0.491331
        0.240240           0.005424           0.491873           0.005424           0.491873
        0.250250           0.005437           0.492417           0.005437           0.492417
        0.260260           0.005449           0.492961           0.005449           0.492961
        0.270270           0.005462           0.493507           0.005462           0.493507
        0.280280           0.005475           0.494055           0.005475           0.494055
        0.290290           0.005487           0.494603           0.005487           0.494603
        0.300300           0.005500           0.495153           0.005500           0.495153
        0.310310           0.005513           0.495704           0.005513           0.495704
        0.320320           0.005526           0.496256           0.005526           0.496256
        0.330330           0.005539           0.496810           0.005539           0.496810
        0.340340           0.005552           0.497365           0.005552           0.497365
        0.350350           0.005565           0.497921           0.005565           0.497921
        0.360360           0.005578           0.498479           0.005578           0.498479
        0.370370           0.005591           0.499038           0.005591           0.499038
        0.380380           0.005605           0.499598           0.005605           0.499598
        0.390390           0.005618           0.500159           0.005618           0.500159
        0.400400           0.005631           0.500722           0.005631           0.500722
        0.410410           0.005645           0.501286           0.005645           0.501286
        0.420420           0.005658           0.501852           0.005658           0.501852
        0.430430           0.005672           0.502419           0.005672           0.502419
        0.440440           0.005685           0.502987           0.005685           0.502987
        0.450450           0.005699           0.503557           0.005699           0.503557
        0.460460           0.005712           0.504128           0.005712           0.504128
        0.470470           0.005726           0.504700           0.005726           0.504700
        0.480480           0.005740           0.505274           0.005740           0.505274
        0.490490           0.005753           0.505849           0.005753           0.505849
        0.500500           0.005767           0.506425           0.005767           0.506425
        0.510511           0.005781           0.507003           0.005781           0.507003
        0.520521           0.005795           0.507582           0.005795           0.507582
        0.530531           0.005809           0.508163           0.005809           0.508163
        0.540541           0.005823           0.508745           0.005823           0.508745
        0.550551           0.005837           0.509328           0.005837           0.509328
        0.560561           0.005851           0.509913           0.005851           0.509913
        0.570571           0.005866           0.510499           0.005866           0.510499
        0.580581           0.005880           0.511087           0.005880           0.511087
        0.590591           0.005894           0.511676           0.005894           0.511676
        0.600601           0.005909           0.512267           0.005909           0.512267
        0.610611           0.005923           0.512859           0.005923           0.512859
        0.620621           0.005937           0.513452           0.005937           0.513452
        0.630631           0.005952           0.514047           0.005952           0.514047
        0.640641           0.005967           0.514643           0.005967           0.514643
        0.650651           0.005981           0.515241           0.005981           0.515241
        0.660661           0.005996           0.515840           0.005996           0.515840
        0.670671           0.006011           0.516441           0.006011           0.516441
        0.680681           0.006025           0.517043           0.006025           0.517043
        0.690691           0.006040           0.517647           0.006040           0.517647
        0.700701           0.006055           0.518252           0.006055           0.518252
        0.710711           0.006070           0.518859           0.006070           0.518859
        0.720721           0.006085           0.519467           0.006085           0.519467
        0.730731           0.006100           0.520077           0.006100           0.520077
        0.740741           0.006116           0.520688           0.006116           0.520688
        0.750751           0.006131           0.521301           0.006131           0.521301
        0.760761           0.006146           0.521915           0.006146           0.521915
        0.770771           0.006161           0.522531           0.006161           0.522531
        0.780781           0.006177           0.523148           0.006177           0.523148
        0.790791           0.006192           0.523767           0.006192           0.523767
        0.800801           0.006208           0.524387           0.006208           0.524387
        0.810811           0.006223           0.525009           0.006223           0.525009
        0.820821           0.006239           0.525633           0.006239           0.525633
        0.830831           0.006255           0.526258           0.006255           0.526258
        0.840841           0.006270           0.526885           0.006270           0.526885
        0.850851           0.006286           0.527513           0.006286           0.527513
        0.860861           0.006302           0.528143           0.006302           0.528143
        0.870871           0.006318           0.528774           0.006318           0.528774
        0.880881           0.006334           0.529407           0.006334           0.529407
        0.890891           0.006350           0.530042           0.006350           0.530042
        0.900901           0.006366           0.530678           0.006366           0.530678
        0.910911           0.006383           0.531316           0.006383           0.531316
        0.920921           0.006399           0.531955           0.006399           0.531955
        0.930931           0.006415           0.532597           0.006415           0.532597
        0.940941           0.006432           0.533239           0.006432           0.533239
        0.950951           0.006448           0.533884           0.006448           0.533884
        0.960961           0.006465           0.534530           0.006465           0.534530
        0.970971           0.006481           0.535177           0.006481           0.535177
        0.980981           0.006498           0.535827           0.006498           0.535827
        0.990991           0.006515           0.536478           0.006515           0.536478
        1.001001           0.006531           0.537131           0.006531           0.537131
        1.011011           0.006548           0.537785           0.006548           0.537785
        1.021021           0.006565           0.538441           0.006565           0.538441
        1.031031           0.006582           0.539099           0.006582           0.539099
        1.041041           0.006599           0.539759           0.006599           0.539759
        1.051051           0.006616           0.540420           0.006616           0.540420
        1.061061           0.006634           0.541083           0.006634           0.541083
        1.071071           0.006651           0.541747           0.006651           0.541747
        1.081081           0.006668           0.542414           0.006668           0.542414
        1.091091           0.006686           0.543082           0.006686           0.543082
        1.101101           0.006703           0.543752           0.006703           0.543752
        1.111111           0.006721           0.544423           0.006721           0.544423
        1.121121           0.006739           0.545097           0.006739           0.545097
        1.131131           0.006756           0.545772           0.006756           0.545772
        1.141141           0.006774           0.546449           0.006774           0.546449
        1.151151           0.006792           0.547128           0.006792           0.547128
        1.161161           0.006810           0.547808           0.006810           0.547808
        1.171171           0.006828           0.548490           0.006828           0.548490
        1.181181           0.006846           0.549175           0.006846           0.549175
        1.191191           0.006864           0.549861           0.006864           0.549861
        1.201201           0.006882           0.550548           0.006882           0.550548
        1.211211           0.006901           0.551238           0.006901           0.551238
        1.221221           0.006919           0.551929           0.006919           0.551929
        1.231231           0.006938           0.552622           0.006938           0.552623
        1.241241           0.006956           0.553318           0.006956           0.553318
        1.251251           0.006975           0.554015           0.006975           0.554015
        1.261261           0.006994           0.554714           0.006994           0.554713
        1.271271           0.007012           0.555414           0.007012           0.555414
        1.281281           0.007031           0.556117           0.007031           0.556117
        1.291291           0.007050           0.556821           0.007050           0.556821
        1.301301           0.007069           0.557528           0.007069           0.557528
        1.311311           0.007088           0.558236           0.007088           0.558236
        1.321321           0.007108           0.558946           0.007108           0.558946
        1.331331           0.007127           0.559658           0.007127           0.559658
        1.341341           0.007146           0.560373           0.007146           0.560373
        1.351351           0.007166           0.561089           0.007166           0.561089
        1.361361           0.007185           0.561807           0.007185           0.561807
        1.371371           0.007205           0.562527           0.007205           0.562526
        1.381381           0.007224           0.563248           0.007224           0.563248
        1.391391           0.007244           0.563972           0.007244           0.563972
        1.401401           0.007264           0.564698           0.007264           0.564698
        1.411411           0.007284           0.565426           0.007284           0.565426
        1.421421           0.007304           0.566156           0.007304           0.566156
        1.431431           0.007324           0.566888           0.007324           0.566888
        1.441441           0.007344           0.567621           0.007344           0.567622
        1.451451           0.007365           0.568357           0.007365           0.568357
        1.461461           0.007385           0.569095           0.007385           0.569095
        1.471471           0.007406           0.569835           0.007406           0.569835
        1.481481           0.007426           0.570577           0.007426           0.570577
        1.491491           0.007447           0.571321           0.007447           0.571322
        1.501501           0.007468           0.572068           0.007468           0.572068
        1.511511           0.007488           0.572816           0.007488           0.572816
        1.521521           0.007509           0.573566           0.007509           0.573566
        1.531531           0.007530           0.574319           0.007530           0.574319
        1.541541           0.007551           0.575073           0.007551           0.575073
        1.551551           0.007573           0.575830           0.007573           0.575830
        1.561561           0.007594           0.576589           0.007594           0.576589
        1.571571           0.007615           0.577350           0.007615           0.577350
        1.581581           0.007637           0.578113           0.007637           0.578113
        1.591591           0.007659           0.578878           0.007659           0.578878
        1.601601           0.007680           0.579645           0.007680           0.579645
        1.611611           0.007702           0.580415           0.007702           0.580415
        1.621622           0.007724           0.581187           0.007724           0.581187
        1.631632           0.007746           0.581960           0.007746           0.581960
        1.641642           0.007768           0.582737           0.007768           0.582737
        1.651652           0.007790           0.583515           0.007790           0.583515
        1.661662           0.007812           0.584296           0.007812           0.584296
        1.671672           0.007835           0.585078           0.007835           0.585078
        1.681682           0.007857           0.585863           0.007857           0.585863
        1.691692           0.007880           0.586651           0.007880           0.586651
        1.701702           0.007903           0.587440           0.007903           0.587440
        1.711712           0.007925           0.588232           0.007925           0.588232
        1.721722           0.007948           0.589026           0.007948           0.589026
        1.731732           0.007971           0.589823           0.007971           0.589823
        1.741742           0.007994           0.590621           0.007994           0.590621
        1.751752           0.008018           0.591422           0.008018           0.591422
        1.761762           0.008041           0.592226           0.008041           0.592226
        1.771772           0.008064           0.593031           0.008064           0.593031
        1.781782           0.008088           0.593839           0.008088           0.593839
        1.791792           0.008111           0.594650           0.008111           0.594650
        1.801802           0.008135           0.595463           0.008135           0.595463
        1.811812           0.008159           0.596278           0.008159           0.596278
        1.821822           0.008183           0.597096           0.008183           0.597095
        1.831832           0.008207           0.597915           0.008207           0.597915
        1.841842           0.008231           0.598738           0.008231           0.598738
        1.851852           0.008256           0.599562           0.008256           0.599562
        1.861862           0.008280           0.600390           0.008280           0.600390
        1.871872           0.008305           0.601219           0.008305           0.601219
        1.881882           0.008329           0.602052           0.008329           0.602052
        1.891892           0.008354           0.602886           0.008354           0.602886
        1.901902           0.008379           0.603723           0.008379           0.603723
        1.911912           0.008404           0.604563           0.008404           0.604563
        1.921922           0.008429           0.605405           0.008429           0.605405
        1.931932           0.008454           0.606250           0.008454           0.606250
        1.941942           0.008480           0.607097           0.008480           0.607097
        1.951952           0.008505           0.607947           0.008505           0.607946
        1.961962           0.008531           0.608799           0.008531           0.608799
        1.971972           0.008557           0.609654           0.008557           0.609654
        1.981982           0.008582           0.610511           0.008582           0.610511
        1.991992           0.008608           0.611371           0.008608           0.611371
        2.002002           0.008634           0.612233           0.008634           0.612234
        2.012012           0.008661           0.613099           0.008661           0.613099
        2.022022           0.008687           0.613967           0.008687           0.613967
        2.032032           0.008714           0.614837           0.008714           0.614837
        2.042042           0.008740           0.615710           0.008740           0.615710
        2.052052           0.008767           0.616586           0.008767           0.616586
        2.062062           0.008794           0.617464           0.008794           0.617464
        2.072072           0.008821           0.618345           0.008821           0.618346
        2.082082           0.008848           0.619229           0.008848           0.619230
        2.092092           0.008875           0.620116           0.008875           0.620116
        2.102102           0.008903           0.621005           0.008903           0.621005
        2.112112           0.008930           0.621897           0.008930           0.621897
        2.122122           0.008958           0.622792           0.008958           0.622792
        2.132132           0.008986           0.623690           0.008986           0.623690
        2.142142           0.009014           0.624590           0.009014           0.624590
        2.152152           0.009042           0.625493           0.009042           0.625493
        2.162162           0.009070           0.626400           0.009070           0.626400
        2.172172           0.009098           0.627308           0.009098           0.627308
        2.182182           0.009127           0.628220           0.009127           0.628220
        2.192192           0.009155           0.629135           0.009155           0.629134
        2.202202           0.009184           0.630052           0.009184           0.630052
        2.212212           0.009213           0.630972           0.009213           0.630972
        2.222222           0.009242           0.631896           0.009242           0.631896
        2.232232           0.009271           0.632822           0.009271           0.632822
        2.242242           0.009301           0.633751           0.009301           0.633751
        2.252252           0.009330           0.634682           0.009330           0.634683
        2.262262           0.009360           0.635618           0.009360           0.635618
        2.272272           0.009390           0.636555           0.009390           0.636555
        2.282282           0.009420           0.637496           0.009420           0.637496
        2.292292           0.009450           0.638440           0.009450           0.638440
        2.302302           0.009480           0.639387           0.009480           0.639387
        2.312312           0.009511           0.640337           0.009511           0.640337
        2.322322           0.009541           0.641290           0.009541           0.641290
        2.332332           0.009572           0.642246           0.009572           0.642246
        2.342342           0.009603           0.643206           0.009603           0.643206
        2.352352           0.009634           0.644168           0.009634           0.644168
        2.362362           0.009665           0.645133           0.009665           0.645133
        2.372372           0.009696           0.646102           0.009696           0.646102
        2.382382           0.009728           0.647073           0.009728           0.647073
        2.392392           0.009760           0.648048           0.009760           0.648048
        2.402402           0.009792           0.649026           0.009792           0.649026
        2.412412           0.009824           0.650007           0.009824           0.650007
        2.422422           0.009856           0.650992           0.009856           0.650992
        2.432432           0.009888           0.651979           0.009888           0.651979
        2.442442           0.009921           0.652970           0.009921           0.652970
        2.452452           0.009953           0.653964           0.009953           0.653964
        2.462462           0.009986           0.654962           0.009986           0.654962
        2.472472           0.010019           0.655962           0.010019           0.655962
        2.482482           0.010053           0.656966           0.010053           0.656966
        2.492492           0.010086           0.657974           0.010086           0.657974
        2.502502           0.010120           0.658985           0.010120           0.658984
        2.512512           0.010153           0.659998           0.010153           0.659999
        2.522522           0.010187           0.661016           0.010187           0.661016
        2.532532           0.010222           0.662037           0.010222           0.662037
        2.542542           0.010256           0.663061           0.010256           0.663061
        2.552552           0.010290           0.664089           0.010290           0.664089
        2.562562           0.010325           0.665120           0.010325           0.665120
        2.572572           0.010360           0.666155           0.010360           0.666155
        2.582582           0.010395           0.667193           0.010395           0.667193
        2.592592           0.010430           0.668234           0.010430           0.668234
        2.602602           0.010466           0.669280           0.010466           0.669280
        2.612612           0.010501           0.670328           0.010501           0.670328
        2.622622           0.010537           0.671381           0.010537           0.671381
        2.632632           0.010573           0.672436           0.010573           0.672437
        2.642642           0.010609           0.673496           0.010609           0.673496
        2.652653           0.010646           0.674559           0.010646           0.674559
        2.662663           0.010682           0.675626           0.010682           0.675626
        2.672673           0.010719           0.676697           0.010719           0.676697
        2.682683           0.010756           0.677771           0.010756           0.677771
        2.692693           0.010793           0.678849           0.010793           0.678849
        2.702703           0.010831           0.679930           0.010831           0.679930
        2.712713           0.010869           0.681016           0.010869           0.681016
        2.722723           0.010906           0.682105           0.010906           0.682105
        2.732733           0.010944           0.683198           0.010944           0.683198
        2.742743           0.010983           0.684294           0.010983           0.684294
        2.752753           0.011021           0.685395           0.011021           0.685395
        2.762763           0.011060           0.686499           0.011060           0.686499
        2.772773           0.011099           0.687608           0.011099           0.687608
        2.782783           0.011138           0.688720           0.011138           0.688720
        2.792793           0.011177           0.689836           0.011177           0.689836
        2.802803           0.011217           0.690956           0.011217           0.690956
        2.812813           0.011257           0.692080           0.011257           0.692080
        2.822823           0.011297           0.693208           0.011297           0.693208
        2.832833           0.011337           0.694340           0.011337           0.694340
        2.842843           0.011378           0.695476           0.011378           0.695476
        2.852853           0.011418           0.696617           0.011418           0.696617
        2.862863           0.011459           0.697761           0.011459           0.697761
        2.872873           0.011501           0.698909           0.011501           0.698909
        2.882883           0.011542           0.700062           0.011542           0.700062
        2.892893           0.011584           0.701218           0.011584           0.701218
        2.902903           0.011626           0.702379           0.011626           0.702379
        2.912913           0.011668           0.703544           0.011668           0.703544
        2.922923           0.011710           0.704713           0.011710           0.704713
        2.932933           0.011753           0.705887           0.011753           0.705887
        2.942943           0.011796           0.707065           0.011796           0.707065
        2.952953           0.011839           0.708247           0.011839           0.708247
        2.962963           0.011882           0.709433           0.011882           0.709433
        2.972973           0.011926           0.710624           0.011926           0.710624
        2.982983           0.011970           0.711819           0.011970           0.711819
        2.992993           0.012014           0.713019           0.012014           0.713018
        3.003003           0.012059           0.714222           0.012059           0.714222
        3.013013           0.012103           0.715431           0.012103           0.715431
        3.023023           0.012148           0.716644           0.012148           0.716644
        3.033033           0.012194           0.717861           0.012194           0.717861
        3.043043           0.012239           0.719083           0.012239           0.719083
        3.053053           0.012285           0.720310           0.012285           0.720310
        3.063063           0.012331           0.721541           0.012331           0.721541
        3.073073           0.012377           0.722776           0.012377           0.722776
        3.083083           0.012424           0.724017           0.012424           0.724017
        3.093093           0.012471           0.725262           0.012471           0.725262
        3.103103           0.012518           0.726512           0.012518           0.726512
        3.113113           0.012566           0.727766           0.012566           0.727766
        3.123123           0.012613           0.729025           0.012613           0.729025
        3.133133           0.012661           0.730289           0.012661           0.730289
        3.143143           0.012710           0.731558           0.012710           0.731558
        3.153153           0.012759           0.732832           0.012759           0.732832
        3.163163           0.012808           0.734111           0.012808           0.734111
        3.173173           0.012857           0.735394           0.012857           0.735394
        3.183183           0.012906           0.736683           0.012906           0.736682
        3.193193           0.012956           0.737976           0.012956           0.737976
        3.203203           0.013006           0.739274           0.013006           0.739274
        3.213213           0.013057           0.740578           0.013057           0.740577
        3.223223           0.013108           0.741886           0.013108           0.741886
        3.233233           0.013159           0.743200           0.013159           0.743200
        3.243243           0.013210           0.744518           0.013210           0.744518
        3.253253           0.013262           0.745842           0.013262           0.745842
        3.263263           0.013314           0.747171           0.013314           0.747171
        3.273273           0.013367           0.748505           0.013367           0.748505
        3.283283           0.013420           0.749845           0.013420           0.749845
        3.293293           0.013473           0.751190           0.013473           0.751190
        3.303303           0.013526           0.752540           0.013526           0.752540
        3.313313           0.013580           0.753896           0.013580           0.753896
        3.323323           0.013634           0.755256           0.013634           0.755256
        3.333333           0.013689           0.756623           0.013689           0.756623
        3.343343           0.013744           0.757995           0.013744           0.757995
        3.353353           0.013799           0.759372           0.013799           0.759372
        3.363363           0.013854           0.760755           0.013854           0.760755
        3.373373           0.013910           0.762143           0.013910           0.762143
        3.383383           0.013967           0.763537           0.013967           0.763537
        3.393393           0.014023           0.764937           0.014023           0.764937
        3.403403           0.014080           0.766342           0.014080           0.766342
        3.413413           0.014138           0.767753           0.014138           0.767753
        3.423423           0.014196           0.769170           0.014196           0.769170
        3.433433           0.014254           0.770593           0.014254           0.770593
        3.443443           0.014313           0.772021           0.014313           0.772021
        3.453453           0.014371           0.773456           0.014371           0.773456
        3.463463           0.014431           0.774896           0.014431           0.774896
        3.473473           0.014491           0.776342           0.014491           0.776342
        3.483483           0.014551           0.777794           0.014551           0.777794
        3.493493           0.014611           0.779252           0.014611           0.779252
        3.503503           0.014672           0.780717           0.014672           0.780717
        3.513513           0.014734           0.782187           0.014734           0.782187
        3.523524           0.014796           0.783664           0.014796           0.783664
        3.533533           0.014858           0.785146           0.014858           0.785146
        3.543543           0.014920           0.786635           0.014920           0.786635
        3.553553           0.014984           0.788131           0.014984           0.788131
        3.563564           0.015047           0.789632           0.015047           0.789632
        3.573573           0.015111           0.791140           0.015111           0.791140
        3.583583           0.015175           0.792655           0.015175           0.792654
        3.593593           0.015240           0.794175           0.015240           0.794175
        3.603603           0.015306           0.795702           0.015306           0.795703
        3.613613           0.015371           0.797236           0.015371           0.797236
        3.623623           0.015438           0.798777           0.015438           0.798777
        3.633634           0.015504           0.800324           0.015504           0.800324
        3.643643           0.015571           0.801877           0.015571           0.801878
        3.653653           0.015639           0.803438           0.015639           0.803438
        3.663663           0.015707           0.805005           0.015707           0.805005
        3.673674           0.015776           0.806580           0.015776           0.806580
        3.683683           0.015845           0.808161           0.015845           0.808160
        3.693693           0.015914           0.809748           0.015914           0.809748
        3.703704           0.015984           0.811343           0.015984           0.811343
        3.713714           0.016055           0.812945           0.016055           0.812945
        3.723723           0.016126           0.814554           0.016126           0.814554
        3.733733           0.016198           0.816170           0.016198           0.816170
        3.743744           0.016270           0.817793           0.016270           0.817793
        3.753754           0.016342           0.819424           0.016342           0.819424
        3.763763           0.016416           0.821062           0.016416           0.821062
        3.773773           0.016489           0.822707           0.016489           0.822707
        3.783784           0.016563           0.824359           0.016563           0.824359
        3.793794           0.016638           0.826019           0.016638           0.826019
        3.803803           0.016714           0.827687           0.016714           0.827686
        3.813814           0.016789           0.829362           0.016789           0.829361
        3.823824           0.016866           0.831044           0.016866           0.831044
        3.833834           0.016943           0.832734           0.016943           0.832735
        3.843843           0.017021           0.834432           0.017021           0.834432
        3.853854           0.017099           0.836138           0.017099           0.836138
        3.863864           0.017177           0.837852           0.017177           0.837851
        3.873873           0.017257           0.839573           0.017257           0.839573
        3.883883           0.017337           0.841302           0.017337           0.841302
        3.893894           0.017417           0.843040           0.017417           0.843040
        3.903904           0.017499           0.844785           0.017499           0.844785
        3.913913           0.017580           0.846539           0.017580           0.846539
        3.923924           0.017663           0.848301           0.017663           0.848301
        3.933934           0.017746           0.850071           0.017746           0.850071
        3.943944           0.017830           0.851849           0.017830           0.851849
        3.953954           0.017914           0.853636           0.017914           0.853636
        3.963964           0.017999           0.855431           0.017999           0.855431
        3.973974           0.018085           0.857235           0.018085           0.857235
        3.983984           0.018171           0.859047           0.018171           0.859047
        3.993994           0.018258           0.860868           0.018258           0.860868
        4.004004           0.018346           0.862698           0.018346           0.862698
        4.014014           0.018434           0.864537           0.018434           0.864537
        4.024024           0.018523           0.866384           0.018523           0.866384
        4.034034           0.018613           0.868240           0.018613           0.868240
        4.044044           0.018703           0.870106           0.018703           0.870106
        4.054054           0.018795           0.871980           0.018795           0.871980
        4.064064           0.018887           0.873863           0.018887           0.873863
        4.074074           0.018979           0.875756           0.018979           0.875756
        4.084084           0.019073           0.877658           0.019073           0.877658
        4.094094           0.019167           0.879569           0.019167           0.879569
        4.104104           0.019262           0.881490           0.019262           0.881490
        4.114114           0.019358           0.883420           0.019358           0.883420
        4.124124           0.019454           0.885360           0.019454           0.885360
        4.134134           0.019551           0.887310           0.019551           0.887310
        4.144144           0.019650           0.889269           0.019650           0.889269
        4.154154           0.019749           0.891238           0.019749           0.891238
        4.164164           0.019848           0.893217           0.019848           0.893218
        4.174174           0.019949           0.895206           0.019949           0.895206
        4.184184           0.020050           0.897205           0.020050           0.897205
        4.194194           0.020153           0.899215           0.020153           0.899215
        4.204204           0.020256           0.901234           0.020256           0.901234
        4.214214           0.020360           0.903264           0.020360           0.903264
        4.224224           0.020465           0.905304           0.020465           0.905304
        4.234234           0.020570           0.907355           0.020570           0.907355
        4.244244           0.020677           0.909417           0.020677           0.909417
        4.254254           0.020785           0.911489           0.020785           0.911489
        4.264264           0.020893           0.913572           0.020893           0.913572
        4.274274           0.021003           0.915666           0.021003           0.915666
        4.284284           0.021113           0.917770           0.021113           0.917770
        4.294294           0.021224           0.919886           0.021224           0.919886
        4.304304           0.021337           0.922013           0.021337           0.922013
        4.314314           0.021450           0.924151           0.021450           0.924151
        4.324324           0.021564           0.926301           0.021564           0.926300
        4.334334           0.021680           0.928461           0.021680           0.928461
        4.344344           0.021796           0.930634           0.021796           0.930634
        4.354354           0.021913           0.932818           0.021913           0.932818
        4.364364           0.022032           0.935014           0.022032           0.935014
        4.374374           0.022151           0.937222           0.022151           0.937222
        4.384384           0.022272           0.939442           0.022272           0.939442
        4.394394           0.022393           0.941674           0.022394           0.941674
        4.404404           0.022516           0.943918           0.022516           0.943918
        4.414414           0.022640           0.946174           0.022640           0.946174
        4.424424           0.022765           0.948443           0.022765           0.948443
        4.434434           0.022891           0.950724           0.022891           0.950724
        4.444444           0.023019           0.953018           0.023019           0.953018
        4.454454           0.023147           0.955324           0.023147           0.955324
        4.464464           0.023277           0.957644           0.023277           0.957644
        4.474474           0.023408           0.959976           0.023408           0.959976
        4.484484           0.023540           0.962322           0.023540           0.962322
        4.494494           0.023673           0.964681           0.023673           0.964681
        4.504504           0.023808           0.967053           0.023808           0.967053
        4.514514           0.023944           0.969439           0.023944           0.969439
        4.524524           0.024081           0.971838           0.024081           0.971838
        4.534534           0.024219           0.974251           0.024219           0.974251
        4.544544           0.024359           0.976678           0.024359           0.976678
        4.554554           0.024500           0.979119           0.024500           0.979119
        4.564565           0.024643           0.981574           0.024643           0.981574
        4.574574           0.024786           0.984043           0.024786           0.984043
        4.584584           0.024932           0.986527           0.024932           0.986527
        4.594594           0.025078           0.989025           0.025078           0.989025
        4.604605           0.025227           0.991538           0.025227           0.991538
        4.614614           0.025376           0.994066           0.025376           0.994065
        4.624624           0.025527           0.996608           0.025527           0.996608
        4.634634           0.025680           0.999166           0.025680           0.999166
        4.644644           0.025834           1.001739           0.025834           1.001739
        4.654655           0.025990           1.004328           0.025990           1.004328
        4.664664           0.026147           1.006932           0.026147           1.006932
        4.674675           0.026306           1.009552           0.026306           1.009552
        4.684684           0.026466           1.012187           0.026466           1.012187
        4.694695           0.026628           1.014839           0.026628           1.014840
        4.704704           0.026792           1.017508           0.026792           1.017507
        4.714715           0.026957           1.020192           0.026957           1.020192
        4.724724           0.027124           1.022893           0.027124           1.022893
        4.734735           0.027293           1.025611           0.027293           1.025611
        4.744744           0.027464           1.028346           0.027464           1.028345
        4.754755           0.027636           1.031097           0.027636           1.031097
        4.764764           0.027811           1.033866           0.027811           1.033866
        4.774775           0.027987           1.036653           0.027987           1.036653
        4.784785           0.028165           1.039457           0.028165           1.039457
        4.794795           0.028344           1.042279           0.028344           1.042279
        4.804804           0.028526           1.045118           0.028526           1.045118
        4.814815           0.028710           1.047976           0.028710           1.047976
        4.824825           0.028896           1.050853           0.028896           1.050853
        4.834835           0.029083           1.053748           0.029083           1.053748
        4.844844           0.029273           1.056662           0.029273           1.056662
        4.854855           0.029465           1.059595           0.029465           1.059595
        4.864865           0.029659           1.062547           0.029659           1.062547
        4.874875           0.029855           1.065518           0.029855           1.065518
        4.884884           0.030053           1.068509           0.030053           1.068509
        4.894895           0.030254           1.071520           0.030254           1.071520
        4.904905           0.030457           1.074551           0.030457           1.074551
        4.914915           0.030662           1.077602           0.030662           1.077602
        4.924924           0.030869           1.080674           0.030869           1.080674
        4.934935           0.031079           1.083766           0.031079           1.083766
        4.944945           0.031291           1.086880           0.031291           1.086880
        4.954955           0.031506           1.090015           0.031506           1.090015
        4.964964           0.031723           1.093171           0.031723           1.093171
        4.974975           0.031943           1.096349           0.031943           1.096349
        4.984985           0.032165           1.099549           0.032165           1.099549
        4.994995           0.032390           1.102771           0.032390           1.102771
        5.005005           0.032617           1.106015           0.032617           1.106016
        5.015015           0.032847           1.109283           0.032847           1.109283
        5.025025           0.033080           1.112574           0.033080           1.112574
        5.035035           0.033316           1.115887           0.033316           1.115887
        5.045045           0.033555           1.119224           0.033555           1.119224
        5.055055           0.033796           1.122585           0.033796           1.122586
        5.065065           0.034041           1.125971           0.034041           1.125971
        5.075075           0.034288           1.129380           0.034288           1.129380
        5.085085           0.034538           1.132815           0.034538           1.132815
        5.095095           0.034792           1.136275           0.034792           1.136274
        5.105105           0.035049           1.139759           0.035049           1.139759
        5.115115           0.035309           1.143270           0.035309           1.143270
        5.125125           0.035572           1.146807           0.035572           1.146807
        5.135135           0.035839           1.150370           0.035839           1.150369
        5.145144           0.036109           1.153959           0.036109           1.153959
        5.155155           0.036382           1.157575           0.036382           1.157575
        5.165165           0.036659           1.161219           0.036659           1.161219
        5.175175           0.036940           1.164891           0.036940           1.164891
        5.185184           0.037224           1.168590           0.037224           1.168590
        5.195195           0.037512           1.172318           0.037512           1.172318
        5.205205           0.037803           1.176075           0.037803           1.176075
        5.215215           0.038099           1.179861           0.038099           1.179861
        5.225225           0.038399           1.183676           0.038399           1.183676
        5.235235           0.038702           1.187521           0.038702           1.187521
        5.245245           0.039010           1.191397           0.039010           1.191397
        5.255255           0.039322           1.195303           0.039322           1.195303
        5.265265           0.039638           1.199241           0.039638           1.199241
        5.275275           0.039958           1.203210           0.039958           1.203210
        5.285285           0.040283           1.207211           0.040283           1.207211
        5.295295           0.040613           1.211244           0.040613           1.211244
        5.305305           0.040947           1.215311           0.040947           1.215311
        5.315315           0.041285           1.219411           0.041285           1.219411
        5.325325           0.041629           1.223544           0.041629           1.223544
        5.335335           0.041977           1.227712           0.041977           1.227712
        5.345345           0.042331           1.231915           0.042331           1.231915
        5.355355           0.042689           1.236153           0.042689           1.236153
        5.365365           0.043053           1.240427           0.043053           1.240427
        5.375375           0.043422           1.244737           0.043422           1.244737
        5.385385           0.043797           1.249083           0.043797           1.249084
        5.395395           0.044177           1.253468           0.044177           1.253468
        5.405405           0.044563           1.257890           0.044563           1.257890
        5.415415           0.044954           1.262351           0.044954           1.262351
        5.425425           0.045351           1.266851           0.045351           1.266850
        5.435435           0.045755           1.271390           0.045755           1.271390
        5.445445           0.046165           1.275970           0.046165           1.275970
        5.455455           0.046581           1.280590           0.046581           1.280590
        5.465465           0.047003           1.285252           0.047003           1.285252
        5.475475           0.047432           1.289956           0.047432           1.289956
        5.485485           0.047868           1.294703           0.047868           1.294703
        5.495495           0.048311           1.299493           0.048311           1.299493
        5.505505           0.048761           1.304327           0.048761           1.304327
        5.515515           0.049218           1.309207           0.049218           1.309207
        5.525526           0.049682           1.314132           0.049682           1.314132
        5.535535           0.050154           1.319103           0.050154           1.319103
        5.545545           0.050634           1.324121           0.050634           1.324121
        5.555555           0.051122           1.329187           0.051122           1.329187
        5.565566           0.051618           1.334301           0.051618           1.334301
        5.575575           0.052122           1.339465           0.052122           1.339465
        5.585585           0.052635           1.344679           0.052635           1.344679
        5.595595           0.053156           1.349945           0.053156           1.349944
        5.605606           0.053687           1.355261           0.053687           1.355262
        5.615615           0.054227           1.360631           0.054227           1.360631
        5.625625           0.054776           1.366055           0.054776           1.366055
        5.635635           0.055335           1.371533           0.055335           1.371533
        5.645645           0.055903           1.377066           0.055903           1.377067
        5.655655           0.056482           1.382657           0.056482           1.382657
        5.665665           0.057071           1.388305           0.057071           1.388305
        5.675675           0.057671           1.394012           0.057671           1.394011
        5.685685           0.058282           1.399777           0.058282           1.399777
        5.695695           0.058905           1.405604           0.058905           1.405604
        5.705705           0.059539           1.411493           0.059539           1.411493
        5.715715           0.060184           1.417445           0.060184           1.417445
        5.725725           0.060842           1.423461           0.060842           1.423460
        5.735735           0.061513           1.429541           0.061513           1.429541
        5.745746           0.062196           1.435689           0.062196           1.435689
        5.755755           0.062893           1.441905           0.062893           1.441904
        5.765765           0.063603           1.448189           0.063603           1.448189
        5.775775           0.064328           1.454545           0.064328           1.454544
        5.785786           0.065067           1.460971           0.065067           1.460971
        5.795795           0.065820           1.467472           0.065820           1.467472
        5.805805           0.066589           1.474047           0.066589           1.474047
        5.815815           0.067374           1.480698           0.067374           1.480698
        5.825826           0.068175           1.487427           0.068175           1.487426
        5.835835           0.068993           1.494235           0.068993           1.494235
        5.845845           0.069828           1.501124           0.069828           1.501124
        5.855855           0.070680           1.508096           0.070680           1.508096
        5.865866           0.071551           1.515152           0.071551           1.515152
        5.875876           0.072441           1.522294           0.072441           1.522294
        5.885885           0.073350           1.529525           0.073350           1.529525
        5.895895           0.074279           1.536845           0.074279           1.536844
        5.905906           0.075229           1.544257           0.075229           1.544257
        5.915915           0.076201           1.551763           0.076201           1.551762
        5.925925           0.077194           1.559364           0.077194           1.559364
        5.935935           0.078210           1.567064           0.078210           1.567064
        5.945946           0.079250           1.574865           0.079250           1.574864
        5.955956           0.080314           1.582767           0.080314           1.582767
        5.965966           0.081404           1.590774           0.081404           1.590774
        5.975976           0.082520           1.598889           0.082520           1.598889
        5.985986           0.083662           1.607114           0.083662           1.607114
        5.995996           0.084833           1.615451           0.084833           1.615451
        6.006006           0.086032           1.623903           0.086032           1.623904
        6.016016           0.087261           1.632474           0.087261           1.632474
        6.026026           0.088522           1.641165           0.088522           1.641165
        6.036036           0.089815           1.649979           0.089815           1.649980
        6.046046           0.091141           1.658921           0.091141           1.658921
        6.056056           0.092501           1.667994           0.092501           1.667994
        6.066066           0.093898           1.677199           0.093898           1.677199
        6.076076           0.095332           1.686541           0.095332           1.686541
        6.086086           0.096805           1.696023           0.096805           1.696024
        6.096096           0.098319           1.705650           0.098319           1.705650
        6.106106           0.099874           1.715425           0.099874           1.715425
        6.116116           0.101473           1.725352           0.101473           1.725352
        6.126126           0.103117           1.735434           0.103117           1.735434
        6.136136           0.104809           1.745677           0.104809           1.745677
        6.146146           0.106550           1.756086           0.106550           1.756086
        6.156156           0.108342           1.766663           0.108342           1.766662
        6.166166           0.110188           1.777414           0.110188           1.777415
        6.176176           0.112090           1.788346           0.112090           1.788346
        6.186186           0.114051           1.799461           0.114051           1.799461
        6.196196           0.116072           1.810768           0.116072           1.810767
        6.206206           0.118157           1.822269           0.118157           1.822269
        6.216216           0.120309           1.833972           0.120309           1.833972
        6.226226           0.122530           1.845883           0.122530           1.845883
        6.236236           0.124824           1.858010           0.124825           1.858009
        6.246246           0.127195           1.870356           0.127195           1.870356
        6.256256           0.129647           1.882931           0.129647           1.882931
        6.266266           0.132182           1.895742           0.132182           1.895742
        6.276276           0.134806           1.908796           0.134806           1.908795
        6.286286           0.137522           1.922101           0.137522           1.922100
        6.296296           0.140336           1.935665           0.140336           1.935666
        6.306306           0.143252           1.949500           0.143252           1.949499
        6.316316           0.146277           1.963611           0.146277           1.963611
        6.326326           0.149416           1.978010           0.149416           1.978010
        6.336336           0.152674           1.992706           0.152674           1.992707
        6.346346           0.156059           2.007712           0.156059           2.007712
        6.356356           0.159578           2.023037           0.159578           2.023038
        6.366366           0.163238           2.038695           0.163238           2.038695
        6.376376           0.167048           2.054697           0.167048           2.054696
        6.386386           0.171016           2.071054           0.171016           2.071054
        6.396396           0.175153           2.087783           0.175153           2.087783
        6.406406           0.179467           2.104898           0.179467           2.104898
        6.416416           0.183971           2.122413           0.183971           2.122413
        6.426426           0.188676           2.140346           0.188676           2.140346
        6.436436           0.193595           2.158712           0.193595           2.158712
        6.446446           0.198742           2.177530           0.198742           2.177531
        6.456456           0.204133           2.196820           0.204133           2.196820
        6.466466           0.209784           2.216600           0.209784           2.216600
        6.476476           0.215713           2.236892           0.215713           2.236892
        6.486486           0.221939           2.257720           0.221939           2.257720
        6.496496           0.228484           2.279105           0.228484           2.279105
        6.506506           0.235372           2.301075           0.235372           2.301075
        6.516516           0.242628           2.323655           0.242628           2.323656
        6.526526           0.250280           2.346875           0.250280           2.346875
        6.536536           0.258359           2.370761           0.258359           2.370762
        6.546546           0.266900           2.395351           0.266900           2.395351
        6.556556           0.275939           2.420673           0.275939           2.420674
        6.566566           0.285518           2.446767           0.285518           2.446767
        6.576576           0.295683           2.473667           0.295683           2.473667
        6.586586           0.306485           2.501417           0.306485           2.501416
        6.596596           0.317981           2.530057           0.317981           2.530057
        6.606606           0.330234           2.559632           0.330234           2.559633
        6.616616           0.343313           2.590190           0.343313           2.590190
        6.626626           0.357298           2.621781           0.357298           2.621781
        6.636636           0.372277           2.654458           0.372277           2.654459
        6.646646           0.388350           2.688276           0.388350           2.688276
        6.656656           0.405626           2.723288           0.405626           2.723289
        6.666666           0.424235           2.759560           0.424235           2.759559
        6.676676           0.444317           2.797148           0.444317           2.797147
        6.686686           0.466035           2.836113           0.466035           2.836113
        6.696696           0.489573           2.876521           0.489573           2.876520
        6.706707           0.515141           2.918427           0.515141           2.918427
        6.716716           0.542978           2.961891           0.542978           2.961891
        6.726726           0.573358           3.006959           0.573358           3.006959
        6.736736           0.606596           3.053677           0.606596           3.053677
        6.746747           0.643052           3.102067           0.643052           3.102067
        6.756756           0.683140           3.152133           0.683140           3.152133
        6.766766           0.727334           3.203845           0.727334           3.203845
        6.776776           0.776183           3.257135           0.776183           3.257135
        6.786787           0.830313           3.311871           0.830313           3.311872
        6.796796           0.890439           3.367838           0.890439           3.367838
        6.806807           0.957372           3.424706           0.957372           3.424706
        6.816816           1.032027           3.481995           1.032026           3.481995
        6.826826           1.115420           3.539023           1.115420           3.539024
        6.836837           1.208668           3.594845           1.208668           3.594845
        6.846846           1.312920           3.648146           1.312920           3.648147
        6.856857           1.429355           3.697186           1.429355           3.697186
        6.866867           1.559009           3.739646           1.559009           3.739646
        6.876876           1.702665           3.772551           1.702665           3.772552
        6.886887           1.860570           3.792175           1.860570           3.792176
        6.896896           2.032017           3.794020           2.032016           3.794021
        6.906906           2.214955           3.772979           2.214954           3.772979
        6.916917           2.405413           3.723709           2.405413           3.723710
        6.926927           2.596995           3.641411           2.596995           3.641410
        6.936936           2.780805           3.522932           2.780806           3.522933
        6.946947           2.945864           3.368194           2.945863           3.368194
        6.956956           3.080388           3.181506           3.080388           3.181504
        6.966967           3.174040           2.972020           3.174040           2.972021
        6.976976           3.220279           2.753113           3.220278           2.753113
        6.986986           3.218241           2.540117           3.218241           2.540117
        6.996997           3.173080           2.347479           3.173079           2.347479
        7.007007           3.094713           2.186240           3.094714           2.186240
        7.017016           2.995542           2.062543           2.995541           2.062542
        7.027027           2.888072           1.977721           2.888072           1.977722
        7.037036           2.783279           1.929335           2.783280           1.929335
        7.047047           2.689733           1.912497           2.689733           1.912497
        7.057057           2.613598           1.921138           2.613600           1.921138
        7.067066           2.558943           1.948842           2.558943           1.948842
        7.077077           2.528246           1.989302           2.528247           1.989302
        7.087087           2.522843           2.036441           2.522843           2.036441
        7.097096           2.543194           2.084359           2.543194           2.084359
        7.107107           2.589012           2.127163           2.589011           2.127163
        7.117116           2.659146           2.158791           2.659145           2.158791
        7.127127           2.751337           2.172954           2.751338           2.172954
        7.137137           2.861755           2.163233           2.861755           2.163233
        7.147147           2.984545           2.123518           2.984545           2.123519
        7.157157           3.111450           2.048812           3.111449           2.048812
        7.167167           3.231804           1.936465           3.231805           1.936465
        7.177176           3.333351           1.787516           3.333350           1.787516
        7.187187           3.403827           1.607762           3.403828           1.607763
        7.197196           3.433308           1.407916           3.433310           1.407916
        7.207206           3.416555           1.202216           3.416554           1.202216
        7.217217           3.354329           1.005952           3.354328           1.005952
        7.227227           3.253184           0.832581           3.253184           0.832581
        7.237237           3.123679           0.691401           3.123679           0.691401
        7.247247           2.978005           0.586796           2.978005           0.586796
        7.257257           2.827727           0.518595           2.827728           0.518595
        7.267267           2.682430           0.483350           2.682429           0.483350
        7.277277           2.549224           0.475701           2.549223           0.475700
        7.287286           2.432786           0.489480           2.432786           0.489480
        7.297297           2.335804           0.518453           2.335804           0.518453
        7.307307           2.259445           0.556656           2.259445           0.556656
        7.317317           2.203675           0.598527           2.203675           0.598527
        7.327327           2.167509           0.638864           2.167510           0.638864
        7.337337           2.149023           0.672810           2.149023           0.672810
        7.347347           2.145282           0.695891           2.145282           0.695891
        7.357357           2.152194           0.704230           2.152195           0.704230
        7.367367           2.164440           0.694972           2.164440           0.694972
        7.377377           2.175628           0.666878           2.175628           0.666878
        7.387387           2.178846           0.620954           2.178846           0.620954
        7.397398           2.167642           0.560790           2.167642           0.560790
        7.407407           2.137240           0.492362           2.137240           0.492362
        7.417417           2.085566           0.423084           2.085566           0.423084
        7.427427           2.013634           0.360403           2.013634           0.360403
        7.437437           1.925135           0.310424           1.925135           0.310425
        7.447447           1.825337           0.276992           1.825338           0.276992
        7.457457           1.719877           0.261548           1.719877           0.261548
        7.467467           1.613811           0.263546           1.613811           0.263545
        7.477477           1.511050           0.281125           1.511050           0.281125
        7.487487           1.414251           0.311798           1.414252           0.311798
        7.497497           1.324988           0.352948           1.324989           0.352947
        7.507507           1.243943           0.402159           1.243943           0.402160
        7.517517           1.171225           0.457350           1.171225           0.457350
        7.527527           1.106545           0.516833           1.106545           0.516833
        7.537537           1.049402           0.579292           1.049402           0.579292
        7.547547           0.999211           0.643714           0.999211           0.643714
        7.557557           0.955349           0.709364           0.955348           0.709364
        7.567567           0.917211           0.775715           0.917211           0.775715
        7.577577           0.884251           0.842389           0.884251           0.842389
        7.587587           0.855962           0.909152           0.855962           0.909151
        7.597597           0.831909           0.975842           0.831909           0.975842
        7.607607           0.811709           1.042386           0.811710           1.042386
        7.617618           0.795036           1.108763           0.795036           1.108763
        7.627627           0.781616           1.174972           0.781616           1.174972
        7.637637           0.771222           1.241061           0.771222           1.241061
        7.647647           0.763669           1.307097           0.763668           1.307097
        7.657657           0.758811           1.373149           0.758811           1.373149
        7.667667           0.756540           1.439317           0.756540           1.439316
        7.677677           0.756779           1.505689           0.756779           1.505689
        7.687687           0.759482           1.572377           0.759483           1.572377
        7.697698           0.764637           1.639498           0.764637           1.639498
        7.707707           0.772256           1.707154           0.772256           1.707154
        7.717717           0.782383           1.775469           0.782383           1.775469
        7.727727           0.795096           1.844567           0.795096           1.844567
        7.737737           0.810496           1.914556           0.810496           1.914556
        7.747747           0.828725           1.985560           0.828725           1.985560
        7.757757           0.849959           2.057700           0.849959           2.057700
        7.767767           0.874410           2.131078           0.874410           2.131078
        7.777778           0.902341           2.205811           0.902341           2.205811
        7.787787           0.934055           2.281980           0.934055           2.281980
        7.797797           0.969919           2.359668           0.969918           2.359668
        7.807807           1.010361           2.438936           1.010361           2.438936
        7.817817           1.055873           2.519794           1.055873           2.519794
        7.827827           1.107038           2.602223           1.107038           2.602223
        7.837838           1.164527           2.686144           1.164527           2.686143
        7.847847           1.229102           2.771364           1.229102           2.771365
        7.857858           1.301651           2.857611           1.301651           2.857611
        7.867867           1.383155           2.944414           1.383155           2.944414
        7.877877           1.474726           3.031121           1.474726           3.031121
        7.887887           1.577580           3.116791           1.577580           3.116791
        7.897897           1.692979           3.200103           1.692979           3.200103
        7.907907           1.822210           3.279286           1.822211           3.279288
        7.917918           1.966468           3.351995           1.966468           3.351995
        7.927927           2.126618           3.415170           2.126619           3.415171
        7.937938           2.303023           3.465009           2.303023           3.465009
        7.947948           2.495054           3.496920           2.495054           3.496919
        7.957957           2.700704           3.505720           2.700704           3.505721
        7.967968           2.916024           3.486053           2.916025           3.486053
        7.977977           3.134636           3.433175           3.134636           3.433174
        7.987987           3.347741           3.344143           3.347741           3.344142
        7.997998           3.544647           3.219196           3.544647           3.219196
        8.008007           3.714166           3.062997           3.714166           3.062997
        8.018017           3.846956           2.884932           3.846956           2.884932
        8.028028           3.937862           2.698147           3.937861           2.698147
        8.038037           3.987559           2.517249           3.987558           2.517250
        8.048048           4.002700           2.355223           4.002700           2.355223
        8.058058           3.994378           2.220995           3.994378           2.220995
        8.068068           3.975682           2.118075           3.975682           2.118075
        8.078078           3.959234           2.044704           3.959235           2.044705
        8.088087           3.955385           1.994918           3.955384           1.994918
        8.098097           3.971159           1.959893           3.971159           1.959892
        8.108108           4.009859           1.929316           4.009859           1.929316
        8.118117           4.070913           1.892576           4.070914           1.892576
        8.128128           4.149951           1.839892           4.149950           1.839892
        8.138138           4.239016           1.763589           4.239016           1.763589
        8.148148           4.327314           1.659463           4.327313           1.659464
        8.158158           4.402597           1.528070           4.402596           1.528069
        8.168168           4.453350           1.375405           4.453350           1.375405
        8.178178           4.471403           1.212296           4.471403           1.212296
        8.188188           4.454036           1.052448           4.454035           1.052448
        8.198197           4.404763           0.909556           4.404763           0.909557
        8.208207           4.332451           0.794365           4.332451           0.794365
        8.218218           4.249152           0.712903           4.249151           0.712903
        8.228228           4.167689           0.666104           4.167689           0.666103
        8.238238           4.099671           0.650490           4.099671           0.650490
        8.248248           4.054425           0.659438           4.054425           0.659437
        8.258258           4.038589           0.684328           4.038589           0.684328
        8.268268           4.056179           0.715409           4.056179           0.715410
        8.278277           4.108694           0.742285           4.108694           0.742285
        8.288287           4.195129           0.754223           4.195128           0.754223
        8.298298           4.311752           0.740455           4.311752           0.740455
        8.308308           4.451684           0.690717           4.451684           0.690717
        8.318318           4.604616           0.596196           4.604617           0.596196
        8.328328           4.756738           0.450990           4.756738           0.450989
        8.338338           4.891610           0.253758           4.891610           0.253759
        8.348348           4.991930           0.009196           4.991930           0.009195
        8.358357           5.042233          -0.271388           5.042233          -0.271388
        8.368367           5.031883          -0.571186           5.031884          -0.571186
        8.378378           4.957232          -0.870364           4.957230          -0.870364
        8.388388           4.822267          -1.149350           4.822267          -1.149351
        8.398398           4.637446          -1.392151           4.637446          -1.392151
        8.408408           4.417382          -1.588225           4.417382          -1.588225
        8.418418           4.177946          -1.733196           4.177947          -1.733196
        8.428429           3.933916          -1.828063           3.933917          -1.828063
        8.438437           3.697529          -1.877727           3.697530          -1.877726
        8.448447           3.477760          -1.889412           3.477760          -1.889412
        8.458458           3.280498          -1.871276           3.280498          -1.871276
        8.468468           3.109086          -1.831502           3.109085          -1.831502
        8.478477           2.964802          -1.777800           2.964802          -1.777801
        8.488488           2.847414          -1.717233           2.847414          -1.717232
        8.498498           2.755523          -1.656231           2.755522          -1.656232
        8.508509           2.686623          -1.600612           2.686623          -1.600612
        8.518518           2.637150          -1.555576           2.637151          -1.555576
        8.528527           2.602344          -1.525484           2.602344          -1.525485
        8.538538           2.576232          -1.513473           2.576233          -1.513473
        8.548548           2.551865          -1.520866           2.551866          -1.520865
        8.558558           2.521897          -1.546593           2.521897          -1.546593
        8.568568           2.479613          -1.586924           2.479613          -1.586924
        8.578578           2.420165          -1.635762           2.420164          -1.635763
        8.588589           2.341511          -1.685681           2.341510          -1.685681
        8.598598           2.244758          -1.729346           2.244758          -1.729346
        8.608608           2.133590          -1.760907           2.133590          -1.760907
        8.618618           2.013163          -1.776795           2.013164          -1.776795
        8.628628           1.888935          -1.775814           1.888934          -1.775814
        8.638638           1.765669          -1.758690           1.765669          -1.758690
        8.648648           1.646989          -1.727365           1.646989          -1.727365
        8.658658           1.535318          -1.684356           1.535318          -1.684355
        8.668669           1.431971          -1.632240           1.431971          -1.632240
        8.678679           1.337479          -1.573401           1.337479          -1.573400
        8.688688           1.251781          -1.509848           1.251781          -1.509849
        8.698698           1.174473          -1.443213           1.174473          -1.443213
        8.708708           1.104973          -1.374778           1.104973          -1.374778
        8.718718           1.042602          -1.305497           1.042602          -1.305497
        8.728728           0.986664          -1.236075           0.986664          -1.236075
        8.738738           0.936506          -1.167030           0.936506          -1.167030
        8.748748           0.891507          -1.098708           0.891507          -1.098708
        8.758759           0.851106          -1.031338           0.851106          -1.031338
        8.768768           0.814812          -0.965079           0.814812          -0.965079
        8.778779           0.782180          -0.900000           0.782180          -0.900000
        8.788788           0.752828          -0.836146           0.752828          -0.836146
        8.798798           0.726417          -0.773510           0.726417          -0.773510
        8.808808           0.702651          -0.712062           0.702652          -0.712062
        8.818818           0.681279          -0.651768           0.681279          -0.651768
        8.828828           0.662076          -0.592568           0.662076          -0.592568
        8.838839           0.644848          -0.534393           0.644848          -0.534393
        8.848848           0.629433          -0.477184           0.629433          -0.477184
        8.858859           0.615682          -0.420857           0.615682          -0.420857
        8.868869           0.603474          -0.365350           0.603474          -0.365350
        8.878878           0.592700          -0.310580           0.592700          -0.310580
        8.888888           0.583268          -0.256469           0.583268          -0.256469
        8.898898           0.575100          -0.202951           0.575100          -0.202951
        8.908908           0.568129          -0.149947           0.568129          -0.149947
        8.918919           0.562300          -0.097378           0.562300          -0.097378
        8.928928           0.557568          -0.045180           0.557568          -0.045180
        8.938939           0.553897           0.006728           0.553897           0.006728
        8.948949           0.551259           0.058409           0.551258           0.058409
        8.958959           0.549633           0.109939           0.549633           0.109939
        8.968968           0.549010           0.161393           0.549010           0.161393
        8.978978           0.549383           0.212835           0.549383           0.212835
        8.988988           0.550757           0.264340           0.550757           0.264340
        8.998999           0.553141           0.315983           0.553141           0.315983
        9.009008           0.556555           0.367829           0.556555           0.367829
        9.019018           0.561022           0.419955           0.561022           0.419955
        9.029029           0.566580           0.472440           0.566580           0.472440
        9.039039           0.573268           0.525350           0.573268           0.525350
        9.049048           0.581140           0.578772           0.581141           0.578772
        9.059058           0.590259           0.632774           0.590259           0.632774
        9.069068           0.600698           0.687441           0.600698           0.687441
        9.079079           0.612544           0.742860           0.612544           0.742860
        9.089088           0.625895           0.799105           0.625895           0.799105
        9.099098           0.640869           0.856266           0.640869           0.856265
        9.109109           0.657600           0.914433           0.657600           0.914433
        9.119119           0.676240           0.973684           0.676240           0.973684
        9.129129           0.696968           1.034116           0.696968           1.034116
        9.139138           0.719985           1.095805           0.719985           1.095805
        9.149148           0.745528           1.158838           0.745528           1.158838
        9.159159           0.773866           1.223298           0.773866           1.223297
        9.169168           0.805306           1.289242           0.805306           1.289243
        9.179178           0.840206           1.356734           0.840206           1.356733
        9.189189           0.878980           1.425812           0.878980           1.425812
        9.199199           0.922095           1.496476           0.922095           1.496476
        9.209209           0.970101           1.568706           0.970101           1.568706
        9.219219           1.023616           1.642403           1.023616           1.642403
        9.229228           1.083358           1.717415           1.083358           1.717415
        9.239239           1.150148           1.793483           1.150148           1.793483
        9.249249           1.224897           1.870194           1.224897           1.870194
        9.259258           1.308642           1.946964           1.308642           1.946964
        9.269269           1.402524           2.022964           1.402524           2.022963
        9.279279           1.507737           2.097020           1.507738           2.097020
        9.289289           1.625534           2.167560           1.625534           2.167560
        9.299299           1.757108           2.232484           1.757108           2.232484
        9.309309           1.903417           2.289037           1.903417           2.289037
        9.319319           2.065027           2.333743           2.065027           2.333743
        9.329329           2.241686           2.362336           2.241686           2.362336
        9.339338           2.431972           2.369862           2.431972           2.369862
        9.349349           2.632737           2.350964           2.632737           2.350964
        9.359359           2.838548           2.300519           2.838547           2.300519
        9.369369           3.041502           2.214650           3.041503           2.214650
        9.379379           3.231423           2.092051           3.231423           2.092051
        9.389389           3.396842           1.935403           3.396842           1.935404
        9.399399           3.527044           1.752122           3.527043           1.752122
        9.409409           3.614382           1.554125           3.614382           1.554124
        9.419418           3.656480           1.355959           3.656479           1.355959
        9.429429           3.657026           1.172049           3.657026           1.172049
        9.439439           3.624968           1.013907           3.624968           1.013907
        9.449449           3.572380           0.888186           3.572379           0.888186
        9.459459           3.511927           0.796312           3.511926           0.796312
        9.469469           3.454795           0.735266           3.454795           0.735265
        9.479479           3.409391           0.698907           3.409390           0.698907
        9.489489           3.380871           0.679472           3.380871           0.679472
        9.499498           3.371135           0.668808           3.371135           0.668808
        9.509509           3.379153           0.659449           3.379153           0.659449
        9.519519           3.401477           0.645515           3.401477           0.645515
        9.529529           3.433043           0.623482           3.433044           0.623481
        9.539539           3.468302           0.592678           3.468302           0.592677
        9.549549           3.502587           0.555270           3.502587           0.555270
        9.559559           3.533476           0.515496           3.533475           0.515495
        9.569570           3.561599           0.478257           3.561599           0.478257
        9.579578           3.590596           0.447454           3.590596           0.447454
        9.589589           3.626249           0.424574           3.626249           0.424574
        9.599599           3.675093           0.407989           3.675093           0.407989
        9.609609           3.743032           0.392913           3.743033           0.392913
        9.619619           3.834174           0.371859           3.834173           0.371859
        9.629629           3.949906           0.335350           3.949905           0.335351
        9.639639           4.088235           0.272759           4.088235           0.272759
        9.649650           4.243183           0.173370           4.243184           0.173370
        9.659659           4.404345           0.027863           4.404345           0.027862
        9.669669           4.557095          -0.169868           4.557094          -0.169869
        9.679679           4.683576          -0.420481           4.683575          -0.420480
        9.689689           4.765144          -0.717523           4.765145          -0.717523
        9.699699           4.785774          -1.046934           4.785775          -1.046935
        9.709709           4.735722          -1.388505           4.735722          -1.388505
        9.719719           4.613975          -1.719584           4.613974          -1.719585
        9.729730           4.428324          -2.019411           4.428324          -2.019411
        9.739739           4.193178          -2.272673           4.193178          -2.272672
        9.749749           3.925903          -2.471351           3.925903          -2.471351
        9.759759           3.643428          -2.614244           3.643429          -2.614243
        9.769769           3.359992          -2.705214           3.359992          -2.705213
        9.779779           3.086005          -2.751142           3.086006          -2.751142
        9.789789           2.828283          -2.760028           2.828283          -2.760028
        9.799799           2.590506          -2.739753           2.590505          -2.739752
        9.809810           2.374090          -2.697352           2.374090          -2.697351
        9.819819           2.178984          -2.638747           2.178984          -2.638747
        9.829829           2.004149          -2.568702           2.004150          -2.568702
        9.839839           1.848056          -2.490925           1.848056          -2.490926
        9.849849           1.708996          -2.408266           1.708996          -2.408265
        9.859859           1.585183          -2.322824           1.585183          -2.322824
        9.869869           1.474947          -2.236170           1.474947          -2.236170
        9.879879           1.376715          -2.149418           1.376714          -2.149418
        9.889890           1.289066          -2.063351           1.289066          -2.063351
        9.899899           1.210761          -1.978529           1.210761          -1.978529
        9.909909           1.140686          -1.895305           1.140685          -1.895305
        9.919919           1.077867          -1.813896           1.077867          -1.813896
        9.929929           1.021473          -1.734442           1.021473          -1.734442
        9.939939           0.970761          -1.656982           0.970761          -1.656982
        9.949949           0.925102          -1.581529           0.925102          -1.581529
        9.959959           0.883941          -1.508043           0.883941          -1.508043
        9.969970           0.846793          -1.436454           0.846793          -1.436455
        9.979980           0.813248          -1.366697           0.813248          -1.366698
        9.989989           0.782941          -1.298675           0.782941          -1.298675
        10.00000           0.755554          -1.232284           0.755554          -1.232284
# 
# 11/30/2023 at 13:38 yambo_ph @ unimi-XPS-8930 [start]
# 11/30/2023 at 13:38                           [end]
#  
# Timing   [Min/Max/Average]: 08s/08s/08s
#
# .-Input file  yambo.in
# | optics                           # [R] Linear Response optical properties
# | dipoles                          # [R] Oscillator strenghts (or dipoles)
# | bss                              # [R] BSE solver
# | bse                              # [R][BSE] Bethe Salpeter Equation.
# | BoseTemp= 0.000000         eV    # Bosonic Temperature
# | FFTGvecs=  4653            RL    # [FFT] Plane-waves
# | DIP_Threads= 1                   # [OPENMP/X] Number of threads for dipoles
# | BS_nCPU_LinAlg_INV= 1            # [PARALLEL] CPUs for Linear Algebra (if -1 it is automatically set)
# | BS_nCPU_LinAlg_DIAGO= 1          # [PARALLEL] CPUs for Linear Algebra (if -1 it is automatically set)
# | X_Threads= 1                     # [OPENMP/X] Number of threads for response functions
# | K_Threads= 1                     # [OPENMP/BSK] Number of threads for response functions
# | BSKmod= "HARTREE"                # [BSE] IP/Hartree/HF/ALDA/SEX/BSfxc
# | BSEmod= "resonant"               # [BSE] resonant/retarded/coupling
# | BSSmod= "d"                      # [BSS] (h)aydock/(d)iagonalization/(s)lepc/(i)nversion/(t)ddft`
# | % DipBands
# |   3 |  6 |                           # [DIP] Bands range for dipoles
# | %
# | DipComputed= "R V P"             # [DIP] [default R P V; extra P2 Spin Orb]
# | BSENGexx= 1                RL    # [BSK] Exchange components
# | % BSEQptR
# |   1 |  9 |                           # [BSK] Transferred momenta range
# | %
# | % BSEBands
# |   3 |  6 |                           # [BSK] Bands range
# | %
# | % BEnRange
# |   0.00000 | 10.00000 |         eV    # [BSS] Energy range
# | %
# | % BDmRange
# |  0.100000 | 0.100000 |         eV    # [BSS] Damping range
# | %
# | BEnSteps= 1000                   # [BSS] Energy steps
# | % BLongDir
# |   0.00000    | 0.100000E-4 |  0.00000    # [BSS] [cc] Electric Field
# | %
# | BSEprop= "abs esrt jdos"         # [BSS] Can be any among abs/jdos/kerr/magn/dich/photolum/esrt
# | BSEdips= "none"                  # [BSS] Can be "trace/none" or "xy/xz/yz" to define off-diagonal rotation plane
# | WRbsWF                         # [BSS] Write to disk excitonic the WFs
