#                                                                     
#  __  __   ________   ___ __ __    _______   ______                  
# /_/\/_/\ /_______/\ /__//_//_/\ /_______/\ /_____/\                 
# \ \ \ \ \\::: _  \ \\::\| \| \ \\::: _  \ \\:::_ \ \                
#  \:\_\ \ \\::(_)  \ \\:.      \ \\::(_)  \/_\:\ \ \ \               
#   \::::_\/ \:: __  \ \\:.\-/\  \ \\::  _  \ \\:\ \ \ \              
#     \::\ \  \:.\ \  \ \\. \  \  \ \\::(_)  \ \\:\_\ \ \             
#      \__\/   \__\/\__\/ \__\/ \__\/ \_______\/ \_____\/             
#                                                                     
#                                                                     
# Version 5.2.0 Revision 22184 Hash (prev commit) 2871b0cee           
#                  Branch is devel-excph                              
#         MPI+OpenMP+SLK+SLEPC+HDF5_MPI_IO Build                      
#                http://www.yambo-code.org                            
#
# Absorption @ Q(7): -0.333333373     0.166666687      0.00000000    [iku]
#
# [GEN] GF Energies                               : Slater exchange(X)+Perdew & Zunger(C)
# [GEN] Green`s Function                          : Resonant
#
# DIP band range                                  :   3   6
# DIP band range limits                           :   4   5
# DIP e/h energy range                            :  -1.00000000     -1.00000000    [eV]
# RL vectors in the sum                           :   4653
# [r,Vnl] included                                : yes
# Bands ordered                                   : yes
# Direct v evaluation                             : no
# Approach used                                   : G-space v
# Dipoles computed                                : R V P
# Wavefunctions                                   : Slater exchange(X)+Perdew & Zunger(C)
#
#
# [K] Identifier                                  :   8811
# [K] Q-point                                     : -0.333333373     0.166666687      0.00000000   
# [K] Dimension                                   :   36
# [K] Bands                                       :   3   6
# [K] Exchange res                                : yes
# [K] Correlation res                             : yes
# [K] Kernel`s coupling                           : no
# [K] Exchange cpl                                : no
# [K] Correlation cpl                             : no
# [K] W interaction is bare                       : yes
# [K] ALDA kernel in R-space                      : no
# [K] RL vectors exchange                         :  1005
# [K] RL vectors correlation                      :  1005
# [K] E/h energy range                            :  -1.00000000     -1.00000000    [eV]
# [K] Coupling range                              :   100.000000      100.000000    [o/o]
# [K] BSE L kind                                  : BAR
# [W] Interaction is diagonal                     : yes
# [W] Matrix size                                 :  1
# [RIM] RL components col                         : 0
# [RIM] Random points col                         : 0
# [SOC] Perturbative SOC                          : no
# [X] Response Kind                               : BAR
#
# Diamagnetic term                                
# Ao                                              :  -7.19457006    [nel]
# A                                               :   0.00000000    [nel]
#
#    E[1] [eV]          Im(eps)            Re(eps)            Im(eps_o)          Re(eps_o)
#
        0.000000           0.001637           1.119967           0.523575E-3        1.069183
        0.010010           0.001641           1.120131           0.524383E-3        1.069236
        0.020020           0.001646           1.120296           0.525194E-3        1.069288
        0.030030           0.001651           1.120461           0.526006E-3        1.069341
        0.040040           0.001656           1.120626           0.526819E-3        1.069393
        0.050050           0.001660           1.120792           0.527635E-3        1.069446
        0.060060           0.001665           1.120958           0.528453E-3        1.069499
        0.070070           0.001670           1.121125           0.529273E-3        1.069552
        0.080080           0.001675           1.121292           0.530095E-3        1.069605
        0.090090           0.001680           1.121460           0.530918E-3        1.069658
        0.100100           0.001684           1.121628           0.531744E-3        1.069711
        0.110110           0.001689           1.121797           0.532571E-3        1.069764
        0.120120           0.001694           1.121966           0.533401E-3        1.069818
        0.130130           0.001699           1.122136           0.534232E-3        1.069871
        0.140140           0.001704           1.122307           0.535066E-3        1.069925
        0.150150           0.001709           1.122477           0.535901E-3        1.069978
        0.160160           0.001714           1.122649           0.536739E-3        1.070032
        0.170170           0.001719           1.122820           0.537578E-3        1.070086
        0.180180           0.001724           1.122993           0.538419E-3        1.070140
        0.190190           0.001729           1.123165           0.539263E-3        1.070194
        0.200200           0.001735           1.123339           0.540108E-3        1.070248
        0.210210           0.001740           1.123513           0.540955E-3        1.070302
        0.220220           0.001745           1.123687           0.541805E-3        1.070356
        0.230230           0.001750           1.123862           0.542656E-3        1.070410
        0.240240           0.001755           1.124037           0.543510E-3        1.070464
        0.250250           0.001760           1.124213           0.544365E-3        1.070519
        0.260260           0.001766           1.124389           0.545223E-3        1.070573
        0.270270           0.001771           1.124566           0.546083E-3        1.070628
        0.280280           0.001776           1.124744           0.546945E-3        1.070683
        0.290290           0.001782           1.124922           0.547808E-3        1.070738
        0.300300           0.001787           1.125100           0.548674E-3        1.070792
        0.310310           0.001792           1.125279           0.549542E-3        1.070847
        0.320320           0.001798           1.125459           0.550412E-3        1.070902
        0.330330           0.001803           1.125639           0.551284E-3        1.070958
        0.340340           0.001809           1.125820           0.552159E-3        1.071013
        0.350350           0.001814           1.126001           0.553035E-3        1.071068
        0.360360           0.001820           1.126183           0.553913E-3        1.071124
        0.370370           0.001825           1.126365           0.554794E-3        1.071179
        0.380380           0.001831           1.126548           0.555677E-3        1.071235
        0.390390           0.001836           1.126731           0.556562E-3        1.071290
        0.400400           0.001842           1.126915           0.557449E-3        1.071346
        0.410410           0.001847           1.127100           0.558338E-3        1.071402
        0.420420           0.001853           1.127285           0.559229E-3        1.071458
        0.430430           0.001859           1.127471           0.560123E-3        1.071514
        0.440440           0.001864           1.127657           0.561018E-3        1.071570
        0.450450           0.001870           1.127844           0.561916E-3        1.071626
        0.460460           0.001876           1.128031           0.562816E-3        1.071682
        0.470470           0.001882           1.128219           0.563719E-3        1.071739
        0.480480           0.001888           1.128408           0.564623E-3        1.071795
        0.490490           0.001893           1.128597           0.565530E-3        1.071852
        0.500500           0.001899           1.128787           0.566439E-3        1.071908
        0.510511           0.001905           1.128977           0.567350E-3        1.071965
        0.520521           0.001911           1.129168           0.568263E-3        1.072022
        0.530531           0.001917           1.129359           0.569179E-3        1.072079
        0.540541           0.001923           1.129551           0.570096E-3        1.072136
        0.550551           0.001929           1.129744           0.571017E-3        1.072193
        0.560561           0.001935           1.129937           0.571939E-3        1.072250
        0.570571           0.001941           1.130131           0.572864E-3        1.072307
        0.580581           0.001947           1.130326           0.573791E-3        1.072365
        0.590591           0.001954           1.130521           0.574720E-3        1.072422
        0.600601           0.001960           1.130717           0.575651E-3        1.072480
        0.610611           0.001966           1.130913           0.576585E-3        1.072538
        0.620621           0.001972           1.131110           0.577521E-3        1.072595
        0.630631           0.001978           1.131308           0.578459E-3        1.072653
        0.640641           0.001985           1.131506           0.579400E-3        1.072711
        0.650651           0.001991           1.131705           0.580343E-3        1.072769
        0.660661           0.001997           1.131904           0.581289E-3        1.072827
        0.670671           0.002004           1.132105           0.582236E-3        1.072886
        0.680681           0.002010           1.132305           0.583186E-3        1.072944
        0.690691           0.002017           1.132507           0.584139E-3        1.073002
        0.700701           0.002023           1.132709           0.585094E-3        1.073061
        0.710711           0.002030           1.132912           0.586051E-3        1.073119
        0.720721           0.002036           1.133115           0.587010E-3        1.073178
        0.730731           0.002043           1.133319           0.587972E-3        1.073237
        0.740741           0.002049           1.133524           0.588937E-3        1.073296
        0.750751           0.002056           1.133729           0.589904E-3        1.073355
        0.760761           0.002063           1.133935           0.590873E-3        1.073414
        0.770771           0.002069           1.134142           0.591845E-3        1.073473
        0.780781           0.002076           1.134349           0.592819E-3        1.073532
        0.790791           0.002083           1.134557           0.593795E-3        1.073592
        0.800801           0.002090           1.134766           0.594774E-3        1.073651
        0.810811           0.002097           1.134975           0.595756E-3        1.073711
        0.820821           0.002104           1.135185           0.596739E-3        1.073771
        0.830831           0.002110           1.135396           0.597726E-3        1.073830
        0.840841           0.002117           1.135608           0.598715E-3        1.073890
        0.850851           0.002124           1.135820           0.599706E-3        1.073950
        0.860861           0.002131           1.136033           0.600700E-3        1.074010
        0.870871           0.002138           1.136246           0.601696E-3        1.074070
        0.880881           0.002146           1.136461           0.602695E-3        1.074131
        0.890891           0.002153           1.136676           0.603697E-3        1.074191
        0.900901           0.002160           1.136891           0.604701E-3        1.074251
        0.910911           0.002167           1.137108           0.605707E-3        1.074312
        0.920921           0.002174           1.137325           0.606716E-3        1.074373
        0.930931           0.002182           1.137543           0.607728E-3        1.074433
        0.940941           0.002189           1.137761           0.608742E-3        1.074494
        0.950951           0.002196           1.137981           0.609759E-3        1.074555
        0.960961           0.002204           1.138201           0.610778E-3        1.074616
        0.970971           0.002211           1.138422           0.611800E-3        1.074678
        0.980981           0.002219           1.138643           0.612824E-3        1.074739
        0.990991           0.002226           1.138866           0.613852E-3        1.074800
        1.001001           0.002234           1.139089           0.614882E-3        1.074862
        1.011011           0.002241           1.139313           0.615914E-3        1.074923
        1.021021           0.002249           1.139537           0.616949E-3        1.074985
        1.031031           0.002257           1.139763           0.617987E-3        1.075047
        1.041041           0.002264           1.139989           0.619027E-3        1.075109
        1.051051           0.002272           1.140216           0.620070E-3        1.075171
        1.061061           0.002280           1.140443           0.621116E-3        1.075233
        1.071071           0.002288           1.140672           0.622164E-3        1.075295
        1.081081           0.002296           1.140901           0.623216E-3        1.075357
        1.091091           0.002304           1.141131           0.624269E-3        1.075420
        1.101101           0.002312           1.141362           0.625326E-3        1.075482
        1.111111           0.002320           1.141594           0.626385E-3        1.075545
        1.121121           0.002328           1.141826           0.627447E-3        1.075608
        1.131131           0.002336           1.142060           0.628512E-3        1.075671
        1.141141           0.002344           1.142294           0.629579E-3        1.075734
        1.151151           0.002352           1.142529           0.630650E-3        1.075797
        1.161161           0.002361           1.142764           0.631723E-3        1.075860
        1.171171           0.002369           1.143001           0.632799E-3        1.075923
        1.181181           0.002377           1.143238           0.633877E-3        1.075987
        1.191191           0.002386           1.143476           0.634959E-3        1.076050
        1.201201           0.002394           1.143715           0.636043E-3        1.076114
        1.211211           0.002402           1.143955           0.637130E-3        1.076177
        1.221221           0.002411           1.144196           0.638220E-3        1.076241
        1.231231           0.002419           1.144438           0.639313E-3        1.076305
        1.241241           0.002428           1.144680           0.640408E-3        1.076369
        1.251251           0.002437           1.144923           0.641507E-3        1.076433
        1.261261           0.002445           1.145168           0.642608E-3        1.076497
        1.271271           0.002454           1.145413           0.643712E-3        1.076562
        1.281281           0.002463           1.145659           0.644819E-3        1.076626
        1.291291           0.002472           1.145905           0.645929E-3        1.076691
        1.301301           0.002481           1.146153           0.647042E-3        1.076756
        1.311311           0.002490           1.146402           0.648158E-3        1.076820
        1.321321           0.002499           1.146651           0.649277E-3        1.076885
        1.331331           0.002508           1.146902           0.650399E-3        1.076950
        1.341341           0.002517           1.147153           0.651524E-3        1.077016
        1.351351           0.002526           1.147405           0.652651E-3        1.077081
        1.361361           0.002535           1.147658           0.653782E-3        1.077146
        1.371371           0.002545           1.147913           0.654916E-3        1.077212
        1.381381           0.002554           1.148168           0.656052E-3        1.077277
        1.391391           0.002563           1.148423           0.657192E-3        1.077343
        1.401401           0.002573           1.148680           0.658334E-3        1.077409
        1.411411           0.002582           1.148938           0.659480E-3        1.077475
        1.421421           0.002592           1.149197           0.660629E-3        1.077541
        1.431431           0.002601           1.149457           0.661781E-3        1.077607
        1.441441           0.002611           1.149717           0.662936E-3        1.077673
        1.451451           0.002621           1.149979           0.664093E-3        1.077740
        1.461461           0.002630           1.150242           0.665254E-3        1.077806
        1.471471           0.002640           1.150505           0.666419E-3        1.077873
        1.481481           0.002650           1.150770           0.667586E-3        1.077940
        1.491491           0.002660           1.151035           0.668756E-3        1.078007
        1.501501           0.002670           1.151302           0.669930E-3        1.078074
        1.511511           0.002680           1.151570           0.671106E-3        1.078141
        1.521521           0.002690           1.151838           0.672286E-3        1.078208
        1.531531           0.002700           1.152108           0.673469E-3        1.078275
        1.541541           0.002711           1.152378           0.674655E-3        1.078343
        1.551551           0.002721           1.152650           0.675844E-3        1.078410
        1.561561           0.002731           1.152923           0.677037E-3        1.078478
        1.571571           0.002742           1.153196           0.678233E-3        1.078546
        1.581581           0.002752           1.153471           0.679431E-3        1.078614
        1.591591           0.002763           1.153747           0.680634E-3        1.078682
        1.601601           0.002773           1.154024           0.681839E-3        1.078750
        1.611611           0.002784           1.154302           0.683048E-3        1.078818
        1.621622           0.002795           1.154581           0.684260E-3        1.078887
        1.631632           0.002805           1.154861           0.685475E-3        1.078955
        1.641642           0.002816           1.155142           0.686693E-3        1.079024
        1.651652           0.002827           1.155424           0.687915E-3        1.079093
        1.661662           0.002838           1.155707           0.689140E-3        1.079162
        1.671672           0.002849           1.155992           0.690369E-3        1.079231
        1.681682           0.002860           1.156277           0.691601E-3        1.079300
        1.691692           0.002872           1.156564           0.692836E-3        1.079369
        1.701702           0.002883           1.156852           0.694074E-3        1.079438
        1.711712           0.002894           1.157141           0.695316E-3        1.079508
        1.721722           0.002906           1.157431           0.696562E-3        1.079578
        1.731732           0.002917           1.157722           0.697810E-3        1.079647
        1.741742           0.002929           1.158014           0.699062E-3        1.079717
        1.751752           0.002940           1.158308           0.700318E-3        1.079787
        1.761762           0.002952           1.158602           0.701577E-3        1.079857
        1.771772           0.002964           1.158898           0.702839E-3        1.079928
        1.781782           0.002975           1.159195           0.704105E-3        1.079998
        1.791792           0.002987           1.159494           0.705375E-3        1.080069
        1.801802           0.002999           1.159793           0.706648E-3        1.080139
        1.811812           0.003011           1.160094           0.707924E-3        1.080210
        1.821822           0.003024           1.160395           0.709204E-3        1.080281
        1.831832           0.003036           1.160698           0.710487E-3        1.080352
        1.841842           0.003048           1.161003           0.711774E-3        1.080423
        1.851852           0.003060           1.161308           0.713065E-3        1.080495
        1.861862           0.003073           1.161615           0.714359E-3        1.080566
        1.871872           0.003085           1.161923           0.715657E-3        1.080638
        1.881882           0.003098           1.162232           0.716958E-3        1.080709
        1.891892           0.003111           1.162542           0.718263E-3        1.080781
        1.901902           0.003123           1.162854           0.719571E-3        1.080853
        1.911912           0.003136           1.163167           0.720884E-3        1.080925
        1.921922           0.003149           1.163481           0.722200E-3        1.080997
        1.931932           0.003162           1.163797           0.723519E-3        1.081070
        1.941942           0.003175           1.164114           0.724842E-3        1.081142
        1.951952           0.003188           1.164432           0.726169E-3        1.081215
        1.961962           0.003202           1.164752           0.727500E-3        1.081288
        1.971972           0.003215           1.165072           0.728834E-3        1.081360
        1.981982           0.003228           1.165395           0.730172E-3        1.081433
        1.991992           0.003242           1.165718           0.731514E-3        1.081506
        2.002002           0.003256           1.166043           0.732860E-3        1.081580
        2.012012           0.003269           1.166369           0.734209E-3        1.081653
        2.022022           0.003283           1.166697           0.735562E-3        1.081727
        2.032032           0.003297           1.167026           0.736919E-3        1.081800
        2.042042           0.003311           1.167356           0.738280E-3        1.081874
        2.052052           0.003325           1.167688           0.739645E-3        1.081948
        2.062062           0.003339           1.168022           0.741013E-3        1.082022
        2.072072           0.003354           1.168356           0.742385E-3        1.082097
        2.082082           0.003368           1.168692           0.743762E-3        1.082171
        2.092092           0.003382           1.169030           0.745142E-3        1.082245
        2.102102           0.003397           1.169369           0.746526E-3        1.082320
        2.112112           0.003412           1.169709           0.747914E-3        1.082395
        2.122122           0.003426           1.170051           0.749306E-3        1.082470
        2.132132           0.003441           1.170395           0.750702E-3        1.082545
        2.142142           0.003456           1.170739           0.752101E-3        1.082620
        2.152152           0.003471           1.171086           0.753505E-3        1.082695
        2.162162           0.003486           1.171434           0.754913E-3        1.082771
        2.172172           0.003502           1.171783           0.756325E-3        1.082847
        2.182182           0.003517           1.172134           0.757741E-3        1.082922
        2.192192           0.003532           1.172486           0.759161E-3        1.082998
        2.202202           0.003548           1.172840           0.760585E-3        1.083074
        2.212212           0.003564           1.173196           0.762013E-3        1.083150
        2.222222           0.003580           1.173553           0.763445E-3        1.083227
        2.232232           0.003595           1.173912           0.764881E-3        1.083303
        2.242242           0.003611           1.174272           0.766322E-3        1.083380
        2.252252           0.003628           1.174634           0.767766E-3        1.083457
        2.262262           0.003644           1.174998           0.769215E-3        1.083534
        2.272272           0.003660           1.175363           0.770668E-3        1.083611
        2.282282           0.003677           1.175730           0.772125E-3        1.083688
        2.292292           0.003693           1.176098           0.773586E-3        1.083765
        2.302302           0.003710           1.176468           0.775052E-3        1.083843
        2.312312           0.003727           1.176840           0.776522E-3        1.083920
        2.322322           0.003744           1.177214           0.777996E-3        1.083998
        2.332332           0.003761           1.177589           0.779474E-3        1.084076
        2.342342           0.003778           1.177966           0.780956E-3        1.084154
        2.352352           0.003795           1.178344           0.782444E-3        1.084232
        2.362362           0.003813           1.178725           0.783935E-3        1.084311
        2.372372           0.003830           1.179107           0.785430E-3        1.084389
        2.382382           0.003848           1.179491           0.786930E-3        1.084468
        2.392392           0.003866           1.179876           0.788435E-3        1.084547
        2.402402           0.003884           1.180264           0.789943E-3        1.084626
        2.412412           0.003902           1.180653           0.791456E-3        1.084705
        2.422422           0.003920           1.181044           0.792974E-3        1.084784
        2.432432           0.003938           1.181437           0.794496E-3        1.084864
        2.442442           0.003957           1.181832           0.796022E-3        1.084943
        2.452452           0.003976           1.182228           0.797553E-3        1.085023
        2.462462           0.003994           1.182627           0.799089E-3        1.085103
        2.472472           0.004013           1.183027           0.800629E-3        1.085183
        2.482482           0.004032           1.183429           0.802173E-3        1.085263
        2.492492           0.004052           1.183833           0.803722E-3        1.085343
        2.502502           0.004071           1.184239           0.805276E-3        1.085424
        2.512512           0.004090           1.184647           0.806834E-3        1.085505
        2.522522           0.004110           1.185057           0.808397E-3        1.085585
        2.532532           0.004130           1.185469           0.809965E-3        1.085666
        2.542542           0.004150           1.185883           0.811537E-3        1.085748
        2.552552           0.004170           1.186299           0.813113E-3        1.085829
        2.562562           0.004190           1.186717           0.814695E-3        1.085910
        2.572572           0.004210           1.187137           0.816281E-3        1.085992
        2.582582           0.004231           1.187559           0.817872E-3        1.086074
        2.592592           0.004252           1.187983           0.819468E-3        1.086156
        2.602602           0.004272           1.188409           0.821068E-3        1.086238
        2.612612           0.004293           1.188837           0.822673E-3        1.086320
        2.622622           0.004315           1.189267           0.824283E-3        1.086402
        2.632632           0.004336           1.189700           0.825898E-3        1.086485
        2.642642           0.004357           1.190134           0.827517E-3        1.086568
        2.652653           0.004379           1.190571           0.829142E-3        1.086651
        2.662663           0.004401           1.191010           0.830771E-3        1.086734
        2.672673           0.004423           1.191451           0.832405E-3        1.086817
        2.682683           0.004445           1.191894           0.834045E-3        1.086900
        2.692693           0.004468           1.192340           0.835689E-3        1.086984
        2.702703           0.004490           1.192787           0.837338E-3        1.087068
        2.712713           0.004513           1.193237           0.838992E-3        1.087152
        2.722723           0.004536           1.193690           0.840651E-3        1.087236
        2.732733           0.004559           1.194144           0.842315E-3        1.087320
        2.742743           0.004582           1.194601           0.843984E-3        1.087404
        2.752753           0.004606           1.195060           0.845658E-3        1.087489
        2.762763           0.004629           1.195522           0.847337E-3        1.087573
        2.772773           0.004653           1.195986           0.849022E-3        1.087658
        2.782783           0.004677           1.196452           0.850711E-3        1.087743
        2.792793           0.004701           1.196921           0.852406E-3        1.087829
        2.802803           0.004726           1.197392           0.854105E-3        1.087914
        2.812813           0.004750           1.197866           0.855810E-3        1.087999
        2.822823           0.004775           1.198342           0.857520E-3        1.088085
        2.832833           0.004800           1.198820           0.859236E-3        1.088171
        2.842843           0.004826           1.199301           0.860956E-3        1.088257
        2.852853           0.004851           1.199785           0.862682E-3        1.088344
        2.862863           0.004877           1.200271           0.864414E-3        1.088430
        2.872873           0.004903           1.200760           0.866150E-3        1.088516
        2.882883           0.004929           1.201251           0.867892E-3        1.088603
        2.892893           0.004955           1.201745           0.869639E-3        1.088690
        2.902903           0.004982           1.202242           0.871392E-3        1.088777
        2.912913           0.005008           1.202741           0.873150E-3        1.088865
        2.922923           0.005035           1.203243           0.874913E-3        1.088952
        2.932933           0.005063           1.203748           0.876682E-3        1.089040
        2.942943           0.005090           1.204255           0.878456E-3        1.089128
        2.952953           0.005118           1.204765           0.880236E-3        1.089216
        2.962963           0.005146           1.205278           0.882021E-3        1.089304
        2.972973           0.005174           1.205794           0.883812E-3        1.089392
        2.982983           0.005202           1.206312           0.885609E-3        1.089481
        2.992993           0.005231           1.206833           0.887411E-3        1.089569
        3.003003           0.005260           1.207358           0.889218E-3        1.089658
        3.013013           0.005289           1.207885           0.891032E-3        1.089747
        3.023023           0.005318           1.208415           0.892851E-3        1.089837
        3.033033           0.005348           1.208948           0.894675E-3        1.089926
        3.043043           0.005378           1.209484           0.896506E-3        1.090016
        3.053053           0.005408           1.210023           0.898342E-3        1.090106
        3.063063           0.005439           1.210565           0.900183E-3        1.090196
        3.073073           0.005470           1.211110           0.902031E-3        1.090286
        3.083083           0.005501           1.211658           0.903884E-3        1.090376
        3.093093           0.005532           1.212209           0.905744E-3        1.090467
        3.103103           0.005564           1.212764           0.907609E-3        1.090557
        3.113113           0.005595           1.213321           0.909480E-3        1.090648
        3.123123           0.005628           1.213882           0.911357E-3        1.090739
        3.133133           0.005660           1.214446           0.913239E-3        1.090831
        3.143143           0.005693           1.215013           0.915128E-3        1.090922
        3.153153           0.005726           1.215584           0.917023E-3        1.091014
        3.163163           0.005759           1.216157           0.918924E-3        1.091106
        3.173173           0.005793           1.216735           0.920830E-3        1.091198
        3.183183           0.005827           1.217315           0.922743E-3        1.091290
        3.193193           0.005861           1.217899           0.924662E-3        1.091383
        3.203203           0.005896           1.218486           0.926587E-3        1.091475
        3.213213           0.005931           1.219077           0.928518E-3        1.091568
        3.223223           0.005966           1.219671           0.930456E-3        1.091661
        3.233233           0.006002           1.220269           0.932399E-3        1.091754
        3.243243           0.006037           1.220871           0.934349E-3        1.091848
        3.253253           0.006074           1.221476           0.936305E-3        1.091941
        3.263263           0.006110           1.222084           0.938267E-3        1.092035
        3.273273           0.006147           1.222697           0.940236E-3        1.092129
        3.283283           0.006185           1.223313           0.942210E-3        1.092223
        3.293293           0.006222           1.223933           0.944191E-3        1.092318
        3.303303           0.006260           1.224556           0.946179E-3        1.092412
        3.313313           0.006299           1.225183           0.948173E-3        1.092507
        3.323323           0.006338           1.225815           0.950174E-3        1.092602
        3.333333           0.006377           1.226450           0.952180E-3        1.092697
        3.343343           0.006416           1.227089           0.954194E-3        1.092793
        3.353353           0.006456           1.227732           0.956214E-3        1.092888
        3.363363           0.006497           1.228379           0.958240E-3        1.092984
        3.373373           0.006537           1.229030           0.960273E-3        1.093080
        3.383383           0.006579           1.229685           0.962313E-3        1.093176
        3.393393           0.006620           1.230344           0.964359E-3        1.093273
        3.403403           0.006662           1.231007           0.966412E-3        1.093369
        3.413413           0.006704           1.231675           0.968471E-3        1.093466
        3.423423           0.006747           1.232347           0.970538E-3        1.093563
        3.433433           0.006790           1.233023           0.972611E-3        1.093660
        3.443443           0.006834           1.233703           0.974691E-3        1.093758
        3.453453           0.006878           1.234388           0.976777E-3        1.093855
        3.463463           0.006923           1.235077           0.978871E-3        1.093953
        3.473473           0.006968           1.235771           0.980971E-3        1.094051
        3.483483           0.007013           1.236469           0.983079E-3        1.094150
        3.493493           0.007059           1.237172           0.985193E-3        1.094248
        3.503503           0.007106           1.237879           0.987314E-3        1.094347
        3.513513           0.007153           1.238591           0.989443E-3        1.094446
        3.523524           0.007200           1.239308           0.991578E-3        1.094545
        3.533533           0.007248           1.240030           0.993720E-3        1.094644
        3.543543           0.007297           1.240756           0.995869E-3        1.094744
        3.553553           0.007346           1.241487           0.998026E-3        1.094843
        3.563564           0.007395           1.242223           0.001000           1.094943
        3.573573           0.007445           1.242964           0.001002           1.095044
        3.583583           0.007496           1.243710           0.001005           1.095144
        3.593593           0.007547           1.244461           0.001007           1.095245
        3.603603           0.007598           1.245217           0.001009           1.095345
        3.613613           0.007651           1.245978           0.001011           1.095447
        3.623623           0.007703           1.246745           0.001013           1.095548
        3.633634           0.007757           1.247517           0.001016           1.095649
        3.643643           0.007811           1.248294           0.001018           1.095751
        3.653653           0.007865           1.249077           0.001020           1.095853
        3.663663           0.007920           1.249865           0.001022           1.095955
        3.673674           0.007976           1.250658           0.001024           1.096058
        3.683683           0.008033           1.251457           0.001027           1.096160
        3.693693           0.008090           1.252262           0.001029           1.096263
        3.703704           0.008147           1.253073           0.001031           1.096366
        3.713714           0.008206           1.253889           0.001034           1.096470
        3.723723           0.008265           1.254711           0.001036           1.096573
        3.733733           0.008324           1.255539           0.001038           1.096677
        3.743744           0.008385           1.256373           0.001040           1.096781
        3.753754           0.008446           1.257213           0.001043           1.096885
        3.763763           0.008507           1.258059           0.001045           1.096990
        3.773773           0.008570           1.258911           0.001047           1.097094
        3.783784           0.008633           1.259770           0.001050           1.097199
        3.793794           0.008697           1.260635           0.001052           1.097304
        3.803803           0.008761           1.261506           0.001054           1.097410
        3.813814           0.008827           1.262384           0.001057           1.097515
        3.823824           0.008893           1.263268           0.001059           1.097621
        3.833834           0.008960           1.264159           0.001061           1.097727
        3.843843           0.009028           1.265056           0.001064           1.097834
        3.853854           0.009097           1.265961           0.001066           1.097940
        3.863864           0.009166           1.266872           0.001069           1.098047
        3.873873           0.009236           1.267790           0.001071           1.098154
        3.883883           0.009307           1.268715           0.001073           1.098262
        3.893894           0.009380           1.269648           0.001076           1.098369
        3.903904           0.009452           1.270587           0.001078           1.098477
        3.913913           0.009526           1.271534           0.001081           1.098585
        3.923924           0.009601           1.272488           0.001083           1.098693
        3.933934           0.009677           1.273450           0.001086           1.098802
        3.943944           0.009753           1.274419           0.001088           1.098910
        3.953954           0.009831           1.275396           0.001091           1.099020
        3.963964           0.009909           1.276381           0.001093           1.099129
        3.973974           0.009989           1.277374           0.001095           1.099238
        3.983984           0.010070           1.278374           0.001098           1.099348
        3.993994           0.010151           1.279382           0.001100           1.099458
        4.004004           0.010234           1.280399           0.001103           1.099568
        4.014014           0.010318           1.281424           0.001106           1.099679
        4.024024           0.010402           1.282458           0.001108           1.099790
        4.034034           0.010488           1.283499           0.001111           1.099900
        4.044044           0.010575           1.284550           0.001113           1.100012
        4.054054           0.010664           1.285609           0.001116           1.100123
        4.064064           0.010753           1.286677           0.001118           1.100235
        4.074074           0.010844           1.287754           0.001121           1.100347
        4.084084           0.010935           1.288840           0.001123           1.100459
        4.094094           0.011028           1.289935           0.001126           1.100572
        4.104104           0.011123           1.291039           0.001129           1.100685
        4.114114           0.011218           1.292153           0.001131           1.100798
        4.124124           0.011315           1.293276           0.001134           1.100911
        4.134134           0.011413           1.294410           0.001136           1.101025
        4.144144           0.011513           1.295552           0.001139           1.101139
        4.154154           0.011614           1.296705           0.001142           1.101253
        4.164164           0.011716           1.297868           0.001144           1.101367
        4.174174           0.011820           1.299041           0.001147           1.101482
        4.184184           0.011926           1.300225           0.001150           1.101597
        4.194194           0.012032           1.301419           0.001152           1.101712
        4.204204           0.012141           1.302624           0.001155           1.101827
        4.214214           0.012250           1.303839           0.001158           1.101943
        4.224224           0.012362           1.305066           0.001161           1.102059
        4.234234           0.012475           1.306303           0.001163           1.102175
        4.244244           0.012590           1.307552           0.001166           1.102292
        4.254254           0.012706           1.308812           0.001169           1.102409
        4.264264           0.012824           1.310085           0.001172           1.102526
        4.274274           0.012944           1.311368           0.001174           1.102643
        4.284284           0.013066           1.312664           0.001177           1.102761
        4.294294           0.013189           1.313972           0.001180           1.102879
        4.304304           0.013314           1.315292           0.001183           1.102997
        4.314314           0.013442           1.316625           0.001185           1.103116
        4.324324           0.013571           1.317970           0.001188           1.103234
        4.334334           0.013702           1.319329           0.001191           1.103354
        4.344344           0.013835           1.320700           0.001194           1.103473
        4.354354           0.013970           1.322085           0.001197           1.103592
        4.364364           0.014108           1.323483           0.001200           1.103712
        4.374374           0.014247           1.324895           0.001203           1.103832
        4.384384           0.014389           1.326320           0.001205           1.103953
        4.394394           0.014533           1.327760           0.001208           1.104074
        4.404404           0.014679           1.329215           0.001211           1.104195
        4.414414           0.014828           1.330683           0.001214           1.104316
        4.424424           0.014979           1.332167           0.001217           1.104438
        4.434434           0.015132           1.333666           0.001220           1.104560
        4.444444           0.015288           1.335180           0.001223           1.104682
        4.454454           0.015447           1.336709           0.001226           1.104805
        4.464464           0.015608           1.338255           0.001229           1.104927
        4.474474           0.015772           1.339816           0.001232           1.105050
        4.484484           0.015938           1.341394           0.001235           1.105174
        4.494494           0.016108           1.342988           0.001238           1.105298
        4.504504           0.016280           1.344600           0.001241           1.105422
        4.514514           0.016455           1.346228           0.001244           1.105546
        4.524524           0.016633           1.347874           0.001247           1.105671
        4.534534           0.016815           1.349538           0.001250           1.105796
        4.544544           0.016999           1.351219           0.001253           1.105921
        4.554554           0.017187           1.352919           0.001256           1.106046
        4.564565           0.017378           1.354638           0.001259           1.106172
        4.574574           0.017572           1.356376           0.001262           1.106298
        4.584584           0.017770           1.358133           0.001265           1.106425
        4.594594           0.017971           1.359910           0.001268           1.106552
        4.604605           0.018177           1.361706           0.001272           1.106679
        4.614614           0.018385           1.363523           0.001275           1.106806
        4.624624           0.018598           1.365361           0.001278           1.106934
        4.634634           0.018815           1.367221           0.001281           1.107062
        4.644644           0.019035           1.369101           0.001284           1.107190
        4.654655           0.019260           1.371004           0.001287           1.107319
        4.664664           0.019489           1.372929           0.001291           1.107448
        4.674675           0.019722           1.374877           0.001294           1.107577
        4.684684           0.019960           1.376848           0.001297           1.107707
        4.694695           0.020203           1.378842           0.001300           1.107837
        4.704704           0.020450           1.380861           0.001303           1.107967
        4.714715           0.020702           1.382904           0.001307           1.108097
        4.724724           0.020959           1.384972           0.001310           1.108228
        4.734735           0.021221           1.387066           0.001313           1.108360
        4.744744           0.021488           1.389185           0.001317           1.108491
        4.754755           0.021761           1.391332           0.001320           1.108623
        4.764764           0.022039           1.393505           0.001323           1.108755
        4.774775           0.022323           1.395706           0.001327           1.108888
        4.784785           0.022613           1.397935           0.001330           1.109021
        4.794795           0.022908           1.400193           0.001333           1.109154
        4.804804           0.023210           1.402480           0.001337           1.109288
        4.814815           0.023519           1.404797           0.001340           1.109422
        4.824825           0.023834           1.407144           0.001343           1.109556
        4.834835           0.024156           1.409523           0.001347           1.109690
        4.844844           0.024484           1.411934           0.001350           1.109825
        4.854855           0.024820           1.414377           0.001354           1.109961
        4.864865           0.025163           1.416853           0.001357           1.110096
        4.874875           0.025514           1.419364           0.001361           1.110232
        4.884884           0.025873           1.421909           0.001364           1.110369
        4.894895           0.026240           1.424489           0.001368           1.110505
        4.904905           0.026615           1.427106           0.001371           1.110642
        4.914915           0.026999           1.429760           0.001375           1.110780
        4.924924           0.027392           1.432452           0.001378           1.110917
        4.934935           0.027794           1.435183           0.001382           1.111055
        4.944945           0.028205           1.437953           0.001385           1.111194
        4.954955           0.028626           1.440764           0.001389           1.111333
        4.964964           0.029057           1.443616           0.001392           1.111472
        4.974975           0.029499           1.446511           0.001396           1.111611
        4.984985           0.029952           1.449450           0.001400           1.111751
        4.994995           0.030415           1.452433           0.001403           1.111892
        5.005005           0.030891           1.455461           0.001407           1.112032
        5.015015           0.031378           1.458537           0.001411           1.112173
        5.025025           0.031878           1.461660           0.001414           1.112314
        5.035035           0.032390           1.464833           0.001418           1.112456
        5.045045           0.032916           1.468055           0.001422           1.112598
        5.055055           0.033455           1.471330           0.001425           1.112741
        5.065065           0.034009           1.474658           0.001429           1.112883
        5.075075           0.034578           1.478039           0.001433           1.113027
        5.085085           0.035162           1.481477           0.001437           1.113170
        5.095095           0.035762           1.484972           0.001440           1.113314
        5.105105           0.036378           1.488525           0.001444           1.113459
        5.115115           0.037012           1.492139           0.001448           1.113603
        5.125125           0.037663           1.495815           0.001452           1.113748
        5.135135           0.038333           1.499554           0.001456           1.113894
        5.145144           0.039023           1.503359           0.001460           1.114040
        5.155155           0.039732           1.507231           0.001463           1.114186
        5.165165           0.040463           1.511173           0.001467           1.114333
        5.175175           0.041215           1.515185           0.001471           1.114480
        5.185184           0.041990           1.519271           0.001475           1.114627
        5.195195           0.042789           1.523432           0.001479           1.114775
        5.205205           0.043613           1.527671           0.001483           1.114923
        5.215215           0.044462           1.531989           0.001487           1.115072
        5.225225           0.045339           1.536390           0.001491           1.115221
        5.235235           0.046243           1.540876           0.001495           1.115370
        5.245245           0.047177           1.545449           0.001499           1.115520
        5.255255           0.048142           1.550112           0.001503           1.115670
        5.265265           0.049139           1.554868           0.001507           1.115821
        5.275275           0.050170           1.559721           0.001511           1.115972
        5.285285           0.051237           1.564672           0.001515           1.116123
        5.295295           0.052341           1.569726           0.001519           1.116275
        5.305305           0.053484           1.574886           0.001524           1.116427
        5.315315           0.054667           1.580155           0.001528           1.116580
        5.325325           0.055895           1.585537           0.001532           1.116733
        5.335335           0.057167           1.591036           0.001536           1.116886
        5.345345           0.058488           1.596655           0.001540           1.117040
        5.355355           0.059859           1.602401           0.001544           1.117195
        5.365365           0.061283           1.608276           0.001549           1.117349
        5.375375           0.062764           1.614286           0.001553           1.117505
        5.385385           0.064304           1.620435           0.001557           1.117660
        5.395395           0.065907           1.626728           0.001562           1.117816
        5.405405           0.067576           1.633172           0.001566           1.117973
        5.415415           0.069317           1.639771           0.001570           1.118130
        5.425425           0.071132           1.646533           0.001574           1.118287
        5.435435           0.073028           1.653462           0.001579           1.118445
        5.445445           0.075008           1.660567           0.001583           1.118603
        5.455455           0.077079           1.667853           0.001588           1.118762
        5.465465           0.079246           1.675329           0.001592           1.118921
        5.475475           0.081517           1.683002           0.001596           1.119080
        5.485485           0.083898           1.690880           0.001601           1.119240
        5.495495           0.086397           1.698972           0.001605           1.119401
        5.505505           0.089024           1.707288           0.001610           1.119561
        5.515515           0.091787           1.715836           0.001614           1.119723
        5.525526           0.094697           1.724628           0.001619           1.119884
        5.535535           0.097766           1.733673           0.001623           1.120047
        5.545545           0.101006           1.742984           0.001628           1.120209
        5.555555           0.104432           1.752571           0.001633           1.120372
        5.565566           0.108059           1.762448           0.001637           1.120536
        5.575575           0.111905           1.772628           0.001642           1.120700
        5.585585           0.115989           1.783124           0.001646           1.120865
        5.595595           0.120335           1.793951           0.001651           1.121030
        5.605606           0.124965           1.805123           0.001656           1.121195
        5.615615           0.129908           1.816655           0.001661           1.121361
        5.625625           0.135195           1.828564           0.001665           1.121527
        5.635635           0.140862           1.840865           0.001670           1.121694
        5.645645           0.146949           1.853573           0.001675           1.121861
        5.655655           0.153500           1.866705           0.001680           1.122029
        5.665665           0.160568           1.880274           0.001684           1.122198
        5.675675           0.168212           1.894293           0.001689           1.122366
        5.685685           0.176499           1.908772           0.001694           1.122536
        5.695695           0.185507           1.923718           0.001699           1.122705
        5.705705           0.195324           1.939132           0.001704           1.122876
        5.715715           0.206051           1.955007           0.001709           1.123046
        5.725725           0.217802           1.971325           0.001714           1.123218
        5.735735           0.230709           1.988055           0.001719           1.123389
        5.745746           0.244921           2.005142           0.001724           1.123562
        5.755755           0.260603           2.022506           0.001729           1.123734
        5.765765           0.277937           2.040030           0.001734           1.123907
        5.775775           0.297122           2.057548           0.001739           1.124081
        5.785786           0.318362           2.074829           0.001744           1.124255
        5.795795           0.341858           2.091563           0.001749           1.124430
        5.805805           0.367783           2.107339           0.001754           1.124605
        5.815815           0.396255           2.121630           0.001759           1.124781
        5.825826           0.427281           2.133779           0.001764           1.124957
        5.835835           0.460691           2.143003           0.001770           1.125134
        5.845845           0.496051           2.148433           0.001775           1.125311
        5.855855           0.532580           2.149193           0.001780           1.125489
        5.865866           0.569071           2.144546           0.001785           1.125668
        5.875876           0.603893           2.134111           0.001791           1.125847
        5.885885           0.635109           2.118105           0.001796           1.126026
        5.895895           0.660753           2.097530           0.001801           1.126206
        5.905906           0.679210           2.074219           0.001807           1.126387
        5.915915           0.689626           2.050631           0.001812           1.126567
        5.925925           0.692155           2.029434           0.001817           1.126749
        5.935935           0.687937           2.013016           0.001823           1.126931
        5.945946           0.678814           2.003093           0.001828           1.127114
        5.955956           0.666926           2.000553           0.001834           1.127297
        5.965966           0.654327           2.005517           0.001839           1.127481
        5.975976           0.642752           2.017560           0.001845           1.127665
        5.985986           0.633514           2.035942           0.001850           1.127850
        5.995996           0.627529           2.059811           0.001856           1.128035
        6.006006           0.625395           2.088347           0.001862           1.128221
        6.016016           0.627482           2.120827           0.001867           1.128408
        6.026026           0.634025           2.156655           0.001873           1.128595
        6.036036           0.645188           2.195360           0.001879           1.128783
        6.046046           0.661123           2.236588           0.001884           1.128971
        6.056056           0.682003           2.280069           0.001890           1.129160
        6.066066           0.708051           2.325596           0.001896           1.129349
        6.076076           0.739557           2.373006           0.001902           1.129539
        6.086086           0.776901           2.422157           0.001907           1.129730
        6.096096           0.820558           2.472897           0.001913           1.129921
        6.106106           0.871117           2.525040           0.001919           1.130112
        6.116116           0.929286           2.578342           0.001925           1.130305
        6.126126           0.995919           2.632467           0.001931           1.130498
        6.136136           1.072009           2.686932           0.001937           1.130691
        6.146146           1.158707           2.741063           0.001943           1.130885
        6.156156           1.257315           2.793916           0.001949           1.131080
        6.166166           1.369289           2.844201           0.001955           1.131275
        6.176176           1.496182           2.890149           0.001961           1.131471
        6.186186           1.639582           2.929390           0.001967           1.131668
        6.196196           1.801003           2.958794           0.001973           1.131865
        6.206206           1.981633           2.974293           0.001980           1.132063
        6.216216           2.182029           2.970743           0.001986           1.132261
        6.226226           2.401614           2.941850           0.001992           1.132460
        6.236236           2.638070           2.880269           0.001998           1.132660
        6.246246           2.886503           2.778013           0.002005           1.132860
        6.256256           3.138703           2.627339           0.002011           1.133061
        6.266266           3.382652           2.422215           0.002017           1.133262
        6.276276           3.602778           2.160263           0.002024           1.133464
        6.286286           3.781304           1.844903           0.002030           1.133667
        6.296296           3.901014           1.486714           0.002036           1.133870
        6.306306           3.948833           1.103240           0.002043           1.134075
        6.316316           3.919107           0.716562           0.002049           1.134279
        6.326326           3.815134           0.349398           0.002056           1.134485
        6.336336           3.648263           0.020814           0.002063           1.134691
        6.346346           3.434960          -0.256635           0.002069           1.134897
        6.356356           3.193130          -0.477732           0.002076           1.135105
        6.366366           2.939125          -0.643480           0.002082           1.135313
        6.376376           2.685957          -0.759148           0.002089           1.135521
        6.386386           2.442815          -0.832196           0.002096           1.135731
        6.396396           2.215357          -0.870662           0.002103           1.135941
        6.406406           2.006507          -0.882120           0.002110           1.136151
        6.416416           1.817215          -0.873171           0.002116           1.136363
        6.426426           1.647124          -0.849268           0.002123           1.136575
        6.436436           1.495146          -0.814757           0.002130           1.136788
        6.446446           1.359796          -0.773009           0.002137           1.137001
        6.456456           1.239450          -0.726584           0.002144           1.137215
        6.466466           1.132471          -0.677392           0.002151           1.137430
        6.476476           1.037325          -0.626844           0.002158           1.137646
        6.486486           0.952600          -0.575960           0.002165           1.137862
        6.496496           0.877029          -0.525470           0.002172           1.138079
        6.506506           0.809484          -0.475878           0.002179           1.138297
        6.516516           0.748981          -0.427531           0.002187           1.138515
        6.526526           0.694660          -0.380655           0.002194           1.138734
        6.536536           0.645771          -0.335386           0.002201           1.138954
        6.546546           0.601662          -0.291794           0.002208           1.139175
        6.556556           0.561768          -0.249905           0.002216           1.139396
        6.566566           0.525600          -0.209713           0.002223           1.139618
        6.576576           0.492734          -0.171189           0.002231           1.139841
        6.586586           0.462795          -0.134285           0.002238           1.140064
        6.596596           0.435464          -0.098946           0.002246           1.140289
        6.606606           0.410457          -0.065109           0.002253           1.140514
        6.616616           0.387530          -0.032710           0.002261           1.140739
        6.626626           0.366465          -0.001680           0.002268           1.140966
        6.636636           0.347073           0.028048           0.002276           1.141193
        6.646646           0.329187           0.056539           0.002284           1.141421
        6.656656           0.312660           0.083857           0.002291           1.141650
        6.666666           0.297362           0.110064           0.002299           1.141880
        6.676676           0.283177           0.135220           0.002307           1.142110
        6.686686           0.270004           0.159378           0.002315           1.142341
        6.696696           0.257749           0.182595           0.002323           1.142573
        6.706707           0.246333           0.204921           0.002331           1.142806
        6.716716           0.235682           0.226402           0.002339           1.143040
        6.726726           0.225731           0.247083           0.002347           1.143274
        6.736736           0.216422           0.267009           0.002355           1.143509
        6.746747           0.207702           0.286217           0.002363           1.143745
        6.756756           0.199523           0.304747           0.002371           1.143982
        6.766766           0.191844           0.322631           0.002379           1.144219
        6.776776           0.184624           0.339906           0.002387           1.144458
        6.786787           0.177830           0.356602           0.002396           1.144697
        6.796796           0.171429           0.372747           0.002404           1.144937
        6.806807           0.165393           0.388370           0.002412           1.145178
        6.816816           0.159694           0.403496           0.002421           1.145420
        6.826826           0.154310           0.418150           0.002429           1.145662
        6.836837           0.149218           0.432356           0.002438           1.145906
        6.846846           0.144398           0.446134           0.002446           1.146150
        6.856857           0.139831           0.459505           0.002455           1.146395
        6.866867           0.135502           0.472488           0.002464           1.146641
        6.876876           0.131394           0.485101           0.002472           1.146888
        6.886887           0.127493           0.497363           0.002481           1.147136
        6.896896           0.123786           0.509287           0.002490           1.147385
        6.906906           0.120262           0.520891           0.002499           1.147634
        6.916917           0.116908           0.532189           0.002507           1.147884
        6.926927           0.113715           0.543193           0.002516           1.148136
        6.936936           0.110673           0.553918           0.002525           1.148388
        6.946947           0.107773           0.564375           0.002534           1.148641
        6.956956           0.105007           0.574576           0.002544           1.148895
        6.966967           0.102368           0.584533           0.002553           1.149150
        6.976976           0.099849           0.594254           0.002562           1.149406
        6.986986           0.097442           0.603751           0.002571           1.149662
        6.996997           0.095142           0.613034           0.002580           1.149920
        7.007007           0.092944           0.622110           0.002590           1.150179
        7.017016           0.090841           0.630988           0.002599           1.150438
        7.027027           0.088829           0.639678           0.002609           1.150699
        7.037036           0.086904           0.648185           0.002618           1.150960
        7.047047           0.085061           0.656519           0.002628           1.151222
        7.057057           0.083295           0.664685           0.002637           1.151486
        7.067066           0.081604           0.672691           0.002647           1.151750
        7.077077           0.079983           0.680544           0.002657           1.152015
        7.087087           0.078430           0.688248           0.002666           1.152282
        7.097096           0.076941           0.695810           0.002676           1.152549
        7.107107           0.075514           0.703237           0.002686           1.152817
        7.117116           0.074145           0.710532           0.002696           1.153086
        7.127127           0.072832           0.717702           0.002706           1.153356
        7.137137           0.071573           0.724750           0.002716           1.153628
        7.147147           0.070365           0.731683           0.002726           1.153900
        7.157157           0.069206           0.738505           0.002736           1.154173
        7.167167           0.068094           0.745220           0.002747           1.154447
        7.177176           0.067028           0.751832           0.002757           1.154722
        7.187187           0.066006           0.758346           0.002767           1.154999
        7.197196           0.065025           0.764764           0.002778           1.155276
        7.207206           0.064085           0.771092           0.002788           1.155554
        7.217217           0.063183           0.777333           0.002799           1.155834
        7.227227           0.062319           0.783490           0.002809           1.156114
        7.237237           0.061491           0.789567           0.002820           1.156396
        7.247247           0.060697           0.795566           0.002831           1.156678
        7.257257           0.059938           0.801492           0.002841           1.156962
        7.267267           0.059211           0.807347           0.002852           1.157247
        7.277277           0.058515           0.813134           0.002863           1.157533
        7.287286           0.057850           0.818856           0.002874           1.157820
        7.297297           0.057215           0.824517           0.002885           1.158108
        7.307307           0.056608           0.830118           0.002896           1.158397
        7.317317           0.056029           0.835663           0.002907           1.158687
        7.327327           0.055478           0.841153           0.002919           1.158978
        7.337337           0.054953           0.846592           0.002930           1.159271
        7.347347           0.054454           0.851982           0.002941           1.159564
        7.357357           0.053980           0.857325           0.002953           1.159859
        7.367367           0.053530           0.862623           0.002964           1.160155
        7.377377           0.053104           0.867881           0.002976           1.160452
        7.387387           0.052702           0.873098           0.002987           1.160750
        7.397398           0.052323           0.878277           0.002999           1.161050
        7.407407           0.051967           0.883422           0.003011           1.161350
        7.417417           0.051633           0.888532           0.003023           1.161652
        7.427427           0.051321           0.893612           0.003035           1.161955
        7.437437           0.051030           0.898663           0.003047           1.162259
        7.447447           0.050760           0.903686           0.003059           1.162565
        7.457457           0.050511           0.908685           0.003071           1.162871
        7.467467           0.050283           0.913660           0.003083           1.163179
        7.477477           0.050076           0.918615           0.003096           1.163488
        7.487487           0.049888           0.923550           0.003108           1.163798
        7.497497           0.049721           0.928468           0.003120           1.164110
        7.507507           0.049574           0.933370           0.003133           1.164422
        7.517517           0.049447           0.938259           0.003146           1.164736
        7.527527           0.049339           0.943136           0.003158           1.165051
        7.537537           0.049251           0.948004           0.003171           1.165368
        7.547547           0.049183           0.952864           0.003184           1.165686
        7.557557           0.049135           0.957718           0.003197           1.166005
        7.567567           0.049107           0.962568           0.003210           1.166325
        7.577577           0.049099           0.967416           0.003223           1.166647
        7.587587           0.049111           0.972264           0.003236           1.166970
        7.597597           0.049143           0.977113           0.003249           1.167294
        7.607607           0.049195           0.981965           0.003263           1.167620
        7.617618           0.049268           0.986823           0.003276           1.167947
        7.627627           0.049362           0.991689           0.003290           1.168275
        7.637637           0.049477           0.996564           0.003303           1.168605
        7.647647           0.049613           1.001451           0.003317           1.168936
        7.657657           0.049771           1.006350           0.003331           1.169268
        7.667667           0.049951           1.011266           0.003345           1.169602
        7.677677           0.050154           1.016199           0.003359           1.169937
        7.687687           0.050380           1.021151           0.003373           1.170274
        7.697698           0.050630           1.026126           0.003387           1.170612
        7.707707           0.050903           1.031124           0.003401           1.170951
        7.717717           0.051202           1.036149           0.003415           1.171292
        7.727727           0.051526           1.041203           0.003430           1.171635
        7.737737           0.051877           1.046288           0.003444           1.171978
        7.747747           0.052254           1.051406           0.003459           1.172324
        7.757757           0.052659           1.056561           0.003474           1.172670
        7.767767           0.053094           1.061753           0.003488           1.173018
        7.777778           0.053558           1.066988           0.003503           1.173368
        7.787787           0.054053           1.072266           0.003518           1.173719
        7.797797           0.054581           1.077590           0.003534           1.174072
        7.807807           0.055142           1.082965           0.003549           1.174426
        7.817817           0.055738           1.088392           0.003564           1.174781
        7.827827           0.056370           1.093875           0.003579           1.175139
        7.837838           0.057041           1.099418           0.003595           1.175497
        7.847847           0.057752           1.105023           0.003611           1.175858
        7.857858           0.058504           1.110694           0.003626           1.176220
        7.867867           0.059301           1.116435           0.003642           1.176583
        7.877877           0.060144           1.122249           0.003658           1.176948
        7.887887           0.061035           1.128141           0.003674           1.177315
        7.897897           0.061978           1.134115           0.003690           1.177683
        7.907907           0.062976           1.140174           0.003707           1.178053
        7.917918           0.064031           1.146325           0.003723           1.178424
        7.927927           0.065147           1.152571           0.003739           1.178797
        7.937938           0.066328           1.158917           0.003756           1.179172
        7.947948           0.067578           1.165369           0.003773           1.179548
        7.957957           0.068902           1.171932           0.003790           1.179927
        7.967968           0.070305           1.178612           0.003807           1.180306
        7.977977           0.071793           1.185414           0.003824           1.180688
        7.987987           0.073371           1.192346           0.003841           1.181071
        7.997998           0.075047           1.199414           0.003858           1.181456
        8.008007           0.076828           1.206625           0.003876           1.181843
        8.018017           0.078722           1.213986           0.003893           1.182231
        8.028028           0.080739           1.221505           0.003911           1.182621
        8.038037           0.082890           1.229189           0.003929           1.183013
        8.048048           0.085185           1.237048           0.003947           1.183407
        8.058058           0.087639           1.245090           0.003965           1.183802
        8.068068           0.090266           1.253322           0.003983           1.184200
        8.078078           0.093082           1.261756           0.004001           1.184599
        8.088087           0.096106           1.270399           0.004020           1.185000
        8.098097           0.099360           1.279262           0.004038           1.185403
        8.108108           0.102868           1.288353           0.004057           1.185807
        8.118117           0.106657           1.297681           0.004076           1.186214
        8.128128           0.110759           1.307254           0.004095           1.186623
        8.138138           0.115208           1.317079           0.004114           1.187033
        8.148148           0.120047           1.327160           0.004133           1.187445
        8.158158           0.125321           1.337502           0.004152           1.187859
        8.168168           0.131085           1.348101           0.004172           1.188275
        8.178178           0.137399           1.358951           0.004192           1.188694
        8.188188           0.144333           1.370039           0.004211           1.189114
        8.198197           0.151965           1.381341           0.004231           1.189536
        8.208207           0.160385           1.392818           0.004252           1.189960
        8.218218           0.169691           1.404416           0.004272           1.190386
        8.228228           0.179990           1.416052           0.004292           1.190814
        8.238238           0.191396           1.427618           0.004313           1.191244
        8.248248           0.204023           1.438957           0.004334           1.191676
        8.258258           0.217976           1.449866           0.004354           1.192111
        8.268268           0.233339           1.460081           0.004376           1.192547
        8.278277           0.250142           1.469262           0.004397           1.192986
        8.288287           0.268338           1.477004           0.004418           1.193426
        8.298298           0.287755           1.482838           0.004440           1.193869
        8.308308           0.308039           1.486269           0.004461           1.194314
        8.318318           0.328620           1.486842           0.004483           1.194761
        8.328328           0.348682           1.484249           0.004505           1.195210
        8.338338           0.367205           1.478458           0.004527           1.195662
        8.348348           0.383076           1.469842           0.004550           1.196116
        8.358357           0.395287           1.459239           0.004572           1.196572
        8.368367           0.403169           1.447900           0.004595           1.197030
        8.378378           0.406574           1.437298           0.004618           1.197491
        8.388388           0.405927           1.428861           0.004641           1.197953
        8.398398           0.402125           1.423716           0.004664           1.198418
        8.408408           0.396329           1.422548           0.004688           1.198886
        8.418418           0.389729           1.425587           0.004711           1.199356
        8.428429           0.383383           1.432702           0.004735           1.199828
        8.438437           0.378131           1.443531           0.004759           1.200302
        8.448447           0.374578           1.457611           0.004783           1.200779
        8.458458           0.373136           1.474466           0.004807           1.201259
        8.468468           0.374071           1.493657           0.004832           1.201740
        8.478477           0.377555           1.514812           0.004857           1.202225
        8.488488           0.383712           1.537629           0.004882           1.202711
        8.498498           0.392649           1.561862           0.004907           1.203201
        8.508509           0.404481           1.587320           0.004932           1.203692
        8.518518           0.419351           1.613838           0.004958           1.204187
        8.528527           0.437440           1.641272           0.004983           1.204684
        8.538538           0.458979           1.669480           0.005009           1.205183
        8.548548           0.484252           1.698294           0.005036           1.205685
        8.558558           0.513607           1.727515           0.005062           1.206190
        8.568568           0.547459           1.756879           0.005089           1.206697
        8.578578           0.586281           1.786025           0.005115           1.207207
        8.588589           0.630618           1.814474           0.005142           1.207720
        8.598598           0.681051           1.841566           0.005170           1.208235
        8.608608           0.738193           1.866424           0.005197           1.208753
        8.618618           0.802631           1.887885           0.005225           1.209274
        8.628628           0.874834           1.904432           0.005253           1.209798
        8.638638           0.955052           1.914146           0.005281           1.210324
        8.648648           1.043129           1.914668           0.005309           1.210853
        8.658658           1.138234           1.903237           0.005338           1.211385
        8.668669           1.238612           1.876837           0.005367           1.211920
        8.678679           1.341234           1.832523           0.005396           1.212458
        8.688688           1.441654           1.767965           0.005425           1.212999
        8.698698           1.534057           1.682190           0.005455           1.213543
        8.708708           1.611746           1.576407           0.005485           1.214090
        8.718718           1.668199           1.454527           0.005515           1.214639
        8.728728           1.698415           1.323127           0.005546           1.215192
        8.738738           1.700171           1.190632           0.005576           1.215748
        8.748748           1.674685           1.065742           0.005607           1.216307
        8.758759           1.626296           0.955842           0.005638           1.216869
        8.768768           1.561398           0.865885           0.005670           1.217434
        8.778779           1.487023           0.797993           0.005702           1.218002
        8.788788           1.409703           0.751875           0.005734           1.218573
        8.798798           1.334741           0.725535           0.005766           1.219148
        8.808808           1.266017           0.716082           0.005799           1.219726
        8.818818           1.206128           0.720337           0.005831           1.220307
        8.828828           1.156634           0.735221           0.005865           1.220891
        8.838839           1.118383           0.757952           0.005898           1.221479
        8.848848           1.091787           0.786072           0.005932           1.222070
        8.858859           1.077002           0.817425           0.005966           1.222664
        8.868869           1.074074           0.850043           0.006000           1.223262
        8.878878           1.082999           0.882049           0.006035           1.223864
        8.888888           1.103741           0.911532           0.006070           1.224468
        8.898898           1.136175           0.936417           0.006105           1.225077
        8.908908           1.179993           0.954380           0.006141           1.225688
        8.918919           1.234525           0.962775           0.006177           1.226304
        8.928928           1.298485           0.958639           0.006213           1.226923
        8.938939           1.369703           0.938823           0.006250           1.227546
        8.948949           1.444789           0.900308           0.006287           1.228172
        8.958959           1.518981           0.840723           0.006324           1.228802
        8.968968           1.586191           0.759081           0.006362           1.229436
        8.978978           1.639502           0.656587           0.006400           1.230073
        8.988988           1.672207           0.537139           0.006438           1.230714
        8.998999           1.679137           0.407276           0.006477           1.231360
        9.009008           1.657907           0.275349           0.006516           1.232009
        9.019018           1.609535           0.149958           0.006555           1.232662
        9.029029           1.538106           0.038385           0.006595           1.233318
        9.039039           1.449713          -0.054503           0.006635           1.233979
        9.049048           1.351030          -0.126628           0.006676           1.234644
        9.059058           1.248208          -0.178268           0.006717           1.235313
        9.069068           1.146137          -0.211356           0.006758           1.235986
        9.079079           1.048268          -0.228667           0.006800           1.236664
        9.089088           0.956753          -0.233210           0.006842           1.237345
        9.099098           0.872673          -0.227833           0.006884           1.238031
        9.109109           0.796359          -0.215019           0.006927           1.238720
        9.119119           0.727677          -0.196823           0.006971           1.239415
        9.129129           0.666178          -0.174876           0.007015           1.240113
        9.139138           0.611290          -0.150446           0.007059           1.240816
        9.149148           0.562373          -0.124489           0.007104           1.241523
        9.159159           0.518789          -0.097714           0.007149           1.242235
        9.169168           0.479944          -0.070648           0.007194           1.242952
        9.179178           0.445287          -0.043661           0.007240           1.243672
        9.189189           0.414321          -0.017014           0.007287           1.244398
        9.199199           0.386615           0.009108           0.007334           1.245128
        9.209209           0.361782           0.034592           0.007381           1.245863
        9.219219           0.339492           0.059360           0.007429           1.246603
        9.229228           0.319454           0.083376           0.007477           1.247347
        9.239239           0.301417           0.106624           0.007526           1.248097
        9.249249           0.285167           0.129104           0.007576           1.248851
        9.259258           0.270516           0.150830           0.007626           1.249610
        9.269269           0.257305           0.171827           0.007676           1.250374
        9.279279           0.245399           0.192117           0.007727           1.251143
        9.289289           0.234680           0.211734           0.007778           1.251917
        9.299299           0.225048           0.230711           0.007830           1.252697
        9.309309           0.216423           0.249079           0.007883           1.253481
        9.319319           0.208735           0.266873           0.007936           1.254271
        9.329329           0.201931           0.284121           0.007990           1.255066
        9.339338           0.195965           0.300853           0.008044           1.255867
        9.349349           0.190808           0.317097           0.008099           1.256673
        9.359359           0.186438           0.332873           0.008154           1.257485
        9.369369           0.182846           0.348198           0.008210           1.258301
        9.379379           0.180033           0.363084           0.008267           1.259124
        9.389389           0.178010           0.377531           0.008324           1.259953
        9.399399           0.176798           0.391532           0.008382           1.260787
        9.409409           0.176429           0.405063           0.008440           1.261626
        9.419418           0.176943           0.418084           0.008499           1.262472
        9.429429           0.178386           0.430532           0.008559           1.263324
        9.439439           0.180806           0.442313           0.008619           1.264181
        9.449449           0.184248           0.453299           0.008680           1.265045
        9.459459           0.188743           0.463317           0.008742           1.265914
        9.469469           0.194288           0.472145           0.008804           1.266790
        9.479479           0.200829           0.479513           0.008868           1.267673
        9.489489           0.208227           0.485104           0.008931           1.268561
        9.499498           0.216223           0.488582           0.008996           1.269456
        9.509509           0.224411           0.489633           0.009061           1.270357
        9.519519           0.232213           0.488040           0.009127           1.271265
        9.529529           0.238914           0.483766           0.009194           1.272179
        9.539539           0.243726           0.477046           0.009261           1.273100
        9.549549           0.245924           0.468430           0.009330           1.274028
        9.559559           0.245004           0.458755           0.009399           1.274963
        9.569570           0.240813           0.449012           0.009469           1.275905
        9.579578           0.233586           0.440172           0.009539           1.276853
        9.589589           0.223882           0.433006           0.009611           1.277809
        9.599599           0.212443           0.427984           0.009683           1.278772
        9.609609           0.200036           0.425263           0.009757           1.279742
        9.619619           0.187332           0.424748           0.009831           1.280719
        9.629629           0.174852           0.426185           0.009906           1.281704
        9.639639           0.162948           0.429243           0.009982           1.282696
        9.649650           0.151829           0.433580           0.010058           1.283696
        9.659659           0.141595           0.438882           0.010136           1.284704
        9.669669           0.132263           0.444879           0.010215           1.285719
        9.679679           0.123809           0.451352           0.010294           1.286743
        9.689689           0.116176           0.458128           0.010375           1.287774
        9.699699           0.109293           0.465075           0.010456           1.288813
        9.709709           0.103088           0.472093           0.010539           1.289860
        9.719719           0.097488           0.479110           0.010623           1.290916
        9.729730           0.092426           0.486072           0.010707           1.291980
        9.739739           0.087840           0.492943           0.010793           1.293053
        9.749749           0.083675           0.499696           0.010880           1.294134
        9.759759           0.079881           0.506317           0.010967           1.295224
        9.769769           0.076417           0.512792           0.011056           1.296322
        9.779779           0.073244           0.519118           0.011147           1.297430
        9.789789           0.070330           0.525290           0.011238           1.298546
        9.799799           0.067646           0.531311           0.011330           1.299672
        9.809810           0.065166           0.537182           0.011424           1.300807
        9.819819           0.062870           0.542905           0.011519           1.301951
        9.829829           0.060738           0.548485           0.011615           1.303104
        9.839839           0.058754           0.553926           0.011712           1.304268
        9.849849           0.056904           0.559232           0.011811           1.305441
        9.859859           0.055173           0.564410           0.011910           1.306623
        9.869869           0.053552           0.569462           0.012012           1.307816
        9.879879           0.052031           0.574395           0.012114           1.309019
        9.889890           0.050600           0.579214           0.012218           1.310232
        9.899899           0.049251           0.583921           0.012323           1.311456
        9.909909           0.047979           0.588523           0.012430           1.312690
        9.919919           0.046776           0.593025           0.012538           1.313935
        9.929929           0.045638           0.597428           0.012648           1.315190
        9.939939           0.044558           0.601739           0.012759           1.316457
        9.949949           0.043534           0.605960           0.012872           1.317735
        9.959959           0.042560           0.610095           0.012986           1.319024
        9.969970           0.041634           0.614148           0.013102           1.320324
        9.979980           0.040751           0.618121           0.013220           1.321636
        9.989989           0.039910           0.622019           0.013339           1.322959
        10.00000           0.039107           0.625844           0.013459           1.324295
# 
# 11/30/2023 at 13:38 yambo_ph @ unimi-XPS-8930 [start]
# 11/30/2023 at 13:38                           [end]
#  
# Timing   [Min/Max/Average]: 10s/10s/10s
#
# .-Input file  yambo.in
# | optics                           # [R] Linear Response optical properties
# | dipoles                          # [R] Oscillator strenghts (or dipoles)
# | bss                              # [R] BSE solver
# | bse                              # [R][BSE] Bethe Salpeter Equation.
# | BoseTemp= 0.000000         eV    # Bosonic Temperature
# | FFTGvecs=  4653            RL    # [FFT] Plane-waves
# | DIP_Threads= 1                   # [OPENMP/X] Number of threads for dipoles
# | BS_nCPU_LinAlg_INV= 1            # [PARALLEL] CPUs for Linear Algebra (if -1 it is automatically set)
# | BS_nCPU_LinAlg_DIAGO= 1          # [PARALLEL] CPUs for Linear Algebra (if -1 it is automatically set)
# | X_Threads= 1                     # [OPENMP/X] Number of threads for response functions
# | K_Threads= 1                     # [OPENMP/BSK] Number of threads for response functions
# | BSKmod= "HF"                     # [BSE] IP/Hartree/HF/ALDA/SEX/BSfxc
# | BSEmod= "resonant"               # [BSE] resonant/retarded/coupling
# | BSSmod= "d"                      # [BSS] (h)aydock/(d)iagonalization/(s)lepc/(i)nversion/(t)ddft`
# | % DipBands
# |   3 |  6 |                           # [DIP] Bands range for dipoles
# | %
# | DipComputed= "R V P"             # [DIP] [default R P V; extra P2 Spin Orb]
# | BSENGexx= 1005             RL    # [BSK] Exchange components
# | BSENGBlk= 1005             RL    # [BSK] Screened interaction block size [if -1 uses all the G-vectors of W(q,G,Gp)]
# | % KfnQP_E
# |  5.000000 | 1.000000 | 1.000000 |        # [EXTQP BSK BSS] E parameters  (c/v) eV|adim|adim
# | %
# | % BSEQptR
# |   1 |  9 |                           # [BSK] Transferred momenta range
# | %
# | % BSEBands
# |   3 |  6 |                           # [BSK] Bands range
# | %
# | % BEnRange
# |   0.00000 | 10.00000 |         eV    # [BSS] Energy range
# | %
# | % BDmRange
# |  0.100000 | 0.100000 |         eV    # [BSS] Damping range
# | %
# | BEnSteps= 1000                   # [BSS] Energy steps
# | % BLongDir
# |   0.00000    | 0.100000E-4 |  0.00000    # [BSS] [cc] Electric Field
# | %
# | BSEprop= "abs esrt jdos"         # [BSS] Can be any among abs/jdos/kerr/magn/dich/photolum/esrt
# | BSEdips= "none"                  # [BSS] Can be "trace/none" or "xy/xz/yz" to define off-diagonal rotation plane
# | WRbsWF                         # [BSS] Write to disk excitonic the WFs
