#                                                                     
#                                                                     
# Y88b    /   e           e    e      888~~\    ,88~-_                
#  Y88b  /   d8b         d8b  d8b     888   |  d888   \               
#   Y88b/   /Y88b       d888bdY88b    888 _/  88888    |              
#    Y8Y   /  Y88b     / Y88Y Y888b   888  \  88888    |              
#     Y   /____Y88b   /   YY   Y888b  888   |  Y888   /               
#    /   /      Y88b /          Y888b 888__/    `88_-~                
#                                                                     
#                                                                     
# Version 5.2.0 Revision 22184 Hash (prev commit) 2871b0cee           
#                 Branch is devel-excph                               
#         MPI+OpenMP+SLK+SLEPC+HDF5_MPI_IO Build                      
#               http://www.yambo-code.org                             
#
# Absorption @ Q(2):   0.00000000     0.333333373      0.00000000    [iku]
#
# [GEN] GF Energies                               : Slater exchange(X)+Perdew & Zunger(C)
# [GEN] Green`s Function                          : Resonant
#
# DIP band range                                  :   3   6
# DIP band range limits                           :   4   5
# DIP e/h energy range                            :  -1.00000000     -1.00000000    [eV]
# RL vectors in the sum                           :   4653
# [r,Vnl] included                                : yes
# Bands ordered                                   : yes
# Direct v evaluation                             : no
# Approach used                                   : G-space v
# Dipoles computed                                : R V P
# Wavefunctions                                   : Slater exchange(X)+Perdew & Zunger(C)
#
#
# [K] Identifier                                  :   8460
# [K] Q-point                                     :   0.00000000     0.333333373      0.00000000   
# [K] Dimension                                   :   36
# [K] Bands                                       :   3   6
# [K] Exchange res                                : yes
# [K] Correlation res                             : no
# [K] Kernel`s coupling                           : no
# [K] Exchange cpl                                : no
# [K] Correlation cpl                             : no
# [K] W interaction is bare                       : no
# [K] ALDA kernel in R-space                      : no
# [K] RL vectors exchange                         :  1
# [K] E/h energy range                            :  -1.00000000     -1.00000000    [eV]
# [K] Coupling range                              :   100.000000      100.000000    [o/o]
# [K] BSE L kind                                  : BAR
# [X] Response Kind                               : BAR
#
# Diamagnetic term                                
# Ao                                              :  -7.48481941    [nel]
# A                                               :   0.00000000    [nel]
#
#    E[1] [eV]          Im(eps)            Re(eps)            Im(eps_o)          Re(eps_o)
#
        0.000000           0.001405           1.111962           0.001405           1.111962
        0.010010           0.001409           1.112103           0.001409           1.112103
        0.020020           0.001412           1.112244           0.001412           1.112244
        0.030030           0.001416           1.112385           0.001416           1.112385
        0.040040           0.001420           1.112527           0.001420           1.112527
        0.050050           0.001424           1.112669           0.001424           1.112669
        0.060060           0.001427           1.112812           0.001427           1.112812
        0.070070           0.001431           1.112955           0.001431           1.112955
        0.080080           0.001435           1.113099           0.001435           1.113099
        0.090090           0.001439           1.113242           0.001439           1.113242
        0.100100           0.001442           1.113386           0.001442           1.113386
        0.110110           0.001446           1.113531           0.001446           1.113531
        0.120120           0.001450           1.113676           0.001450           1.113676
        0.130130           0.001454           1.113821           0.001454           1.113821
        0.140140           0.001458           1.113967           0.001458           1.113967
        0.150150           0.001462           1.114113           0.001462           1.114113
        0.160160           0.001465           1.114259           0.001465           1.114259
        0.170170           0.001469           1.114406           0.001469           1.114406
        0.180180           0.001473           1.114553           0.001473           1.114553
        0.190190           0.001477           1.114701           0.001477           1.114701
        0.200200           0.001481           1.114849           0.001481           1.114849
        0.210210           0.001485           1.114997           0.001485           1.114997
        0.220220           0.001489           1.115146           0.001489           1.115146
        0.230230           0.001493           1.115295           0.001493           1.115295
        0.240240           0.001497           1.115445           0.001497           1.115445
        0.250250           0.001501           1.115595           0.001501           1.115595
        0.260260           0.001505           1.115745           0.001505           1.115745
        0.270270           0.001509           1.115896           0.001509           1.115896
        0.280280           0.001513           1.116047           0.001513           1.116047
        0.290290           0.001517           1.116199           0.001517           1.116199
        0.300300           0.001522           1.116351           0.001522           1.116351
        0.310310           0.001526           1.116503           0.001526           1.116503
        0.320320           0.001530           1.116656           0.001530           1.116656
        0.330330           0.001534           1.116810           0.001534           1.116810
        0.340340           0.001538           1.116963           0.001538           1.116963
        0.350350           0.001542           1.117118           0.001542           1.117118
        0.360360           0.001547           1.117272           0.001547           1.117272
        0.370370           0.001551           1.117427           0.001551           1.117427
        0.380380           0.001555           1.117582           0.001555           1.117582
        0.390390           0.001559           1.117738           0.001559           1.117738
        0.400400           0.001564           1.117894           0.001564           1.117894
        0.410410           0.001568           1.118051           0.001568           1.118051
        0.420420           0.001572           1.118208           0.001572           1.118208
        0.430430           0.001577           1.118366           0.001577           1.118366
        0.440440           0.001581           1.118524           0.001581           1.118524
        0.450450           0.001585           1.118682           0.001585           1.118682
        0.460460           0.001590           1.118841           0.001590           1.118841
        0.470470           0.001594           1.119000           0.001594           1.119000
        0.480480           0.001599           1.119160           0.001599           1.119160
        0.490490           0.001603           1.119320           0.001603           1.119320
        0.500500           0.001608           1.119481           0.001608           1.119481
        0.510511           0.001612           1.119642           0.001612           1.119642
        0.520521           0.001617           1.119804           0.001617           1.119804
        0.530531           0.001621           1.119966           0.001621           1.119966
        0.540541           0.001626           1.120128           0.001626           1.120128
        0.550551           0.001630           1.120291           0.001630           1.120291
        0.560561           0.001635           1.120454           0.001635           1.120454
        0.570571           0.001640           1.120618           0.001640           1.120618
        0.580581           0.001644           1.120782           0.001644           1.120782
        0.590591           0.001649           1.120947           0.001649           1.120947
        0.600601           0.001653           1.121112           0.001653           1.121112
        0.610611           0.001658           1.121278           0.001658           1.121278
        0.620621           0.001663           1.121444           0.001663           1.121444
        0.630631           0.001668           1.121611           0.001668           1.121611
        0.640641           0.001672           1.121778           0.001672           1.121778
        0.650651           0.001677           1.121945           0.001677           1.121945
        0.660661           0.001682           1.122113           0.001682           1.122113
        0.670671           0.001687           1.122282           0.001687           1.122282
        0.680681           0.001692           1.122451           0.001692           1.122451
        0.690691           0.001697           1.122620           0.001697           1.122620
        0.700701           0.001701           1.122790           0.001701           1.122790
        0.710711           0.001706           1.122961           0.001706           1.122961
        0.720721           0.001711           1.123132           0.001711           1.123132
        0.730731           0.001716           1.123303           0.001716           1.123303
        0.740741           0.001721           1.123475           0.001721           1.123475
        0.750751           0.001726           1.123648           0.001726           1.123648
        0.760761           0.001731           1.123821           0.001731           1.123821
        0.770771           0.001736           1.123994           0.001736           1.123994
        0.780781           0.001741           1.124168           0.001741           1.124168
        0.790791           0.001746           1.124343           0.001746           1.124343
        0.800801           0.001751           1.124518           0.001751           1.124518
        0.810811           0.001757           1.124693           0.001757           1.124693
        0.820821           0.001762           1.124869           0.001762           1.124869
        0.830831           0.001767           1.125046           0.001767           1.125046
        0.840841           0.001772           1.125223           0.001772           1.125223
        0.850851           0.001777           1.125400           0.001777           1.125400
        0.860861           0.001783           1.125579           0.001783           1.125579
        0.870871           0.001788           1.125757           0.001788           1.125757
        0.880881           0.001793           1.125936           0.001793           1.125936
        0.890891           0.001799           1.126116           0.001799           1.126116
        0.900901           0.001804           1.126296           0.001804           1.126296
        0.910911           0.001809           1.126477           0.001809           1.126477
        0.920921           0.001815           1.126658           0.001815           1.126658
        0.930931           0.001820           1.126840           0.001820           1.126840
        0.940941           0.001826           1.127023           0.001826           1.127023
        0.950951           0.001831           1.127205           0.001831           1.127205
        0.960961           0.001837           1.127389           0.001837           1.127389
        0.970971           0.001842           1.127573           0.001842           1.127573
        0.980981           0.001848           1.127757           0.001848           1.127757
        0.990991           0.001853           1.127943           0.001853           1.127943
        1.001001           0.001859           1.128128           0.001859           1.128128
        1.011011           0.001864           1.128315           0.001864           1.128315
        1.021021           0.001870           1.128501           0.001870           1.128501
        1.031031           0.001876           1.128689           0.001876           1.128689
        1.041041           0.001881           1.128877           0.001881           1.128877
        1.051051           0.001887           1.129065           0.001887           1.129065
        1.061061           0.001893           1.129254           0.001893           1.129254
        1.071071           0.001899           1.129444           0.001899           1.129444
        1.081081           0.001905           1.129634           0.001905           1.129634
        1.091091           0.001910           1.129825           0.001910           1.129825
        1.101101           0.001916           1.130017           0.001916           1.130017
        1.111111           0.001922           1.130209           0.001922           1.130209
        1.121121           0.001928           1.130401           0.001928           1.130401
        1.131131           0.001934           1.130594           0.001934           1.130594
        1.141141           0.001940           1.130788           0.001940           1.130788
        1.151151           0.001946           1.130983           0.001946           1.130983
        1.161161           0.001952           1.131178           0.001952           1.131178
        1.171171           0.001958           1.131373           0.001958           1.131373
        1.181181           0.001964           1.131569           0.001964           1.131569
        1.191191           0.001970           1.131766           0.001970           1.131766
        1.201201           0.001976           1.131964           0.001976           1.131964
        1.211211           0.001983           1.132162           0.001983           1.132162
        1.221221           0.001989           1.132360           0.001989           1.132360
        1.231231           0.001995           1.132560           0.001995           1.132560
        1.241241           0.002001           1.132760           0.002001           1.132760
        1.251251           0.002008           1.132960           0.002008           1.132960
        1.261261           0.002014           1.133161           0.002014           1.133161
        1.271271           0.002020           1.133363           0.002020           1.133363
        1.281281           0.002027           1.133566           0.002027           1.133566
        1.291291           0.002033           1.133769           0.002033           1.133769
        1.301301           0.002040           1.133972           0.002040           1.133973
        1.311311           0.002046           1.134177           0.002046           1.134177
        1.321321           0.002053           1.134382           0.002053           1.134382
        1.331331           0.002059           1.134588           0.002059           1.134588
        1.341341           0.002066           1.134794           0.002066           1.134794
        1.351351           0.002072           1.135001           0.002072           1.135001
        1.361361           0.002079           1.135209           0.002079           1.135209
        1.371371           0.002086           1.135417           0.002086           1.135417
        1.381381           0.002093           1.135626           0.002093           1.135626
        1.391391           0.002099           1.135836           0.002099           1.135836
        1.401401           0.002106           1.136046           0.002106           1.136046
        1.411411           0.002113           1.136257           0.002113           1.136257
        1.421421           0.002120           1.136469           0.002120           1.136469
        1.431431           0.002127           1.136681           0.002127           1.136681
        1.441441           0.002134           1.136894           0.002134           1.136894
        1.451451           0.002141           1.137108           0.002141           1.137108
        1.461461           0.002148           1.137323           0.002148           1.137323
        1.471471           0.002155           1.137538           0.002155           1.137538
        1.481481           0.002162           1.137754           0.002162           1.137754
        1.491491           0.002169           1.137970           0.002169           1.137970
        1.501501           0.002176           1.138188           0.002176           1.138188
        1.511511           0.002183           1.138406           0.002183           1.138406
        1.521521           0.002190           1.138625           0.002190           1.138625
        1.531531           0.002198           1.138844           0.002198           1.138844
        1.541541           0.002205           1.139064           0.002205           1.139064
        1.551551           0.002212           1.139285           0.002212           1.139285
        1.561561           0.002219           1.139507           0.002219           1.139507
        1.571571           0.002227           1.139729           0.002227           1.139729
        1.581581           0.002234           1.139952           0.002234           1.139952
        1.591591           0.002242           1.140176           0.002242           1.140176
        1.601601           0.002249           1.140401           0.002249           1.140401
        1.611611           0.002257           1.140626           0.002257           1.140626
        1.621622           0.002264           1.140853           0.002264           1.140853
        1.631632           0.002272           1.141080           0.002272           1.141079
        1.641642           0.002280           1.141307           0.002280           1.141307
        1.651652           0.002287           1.141536           0.002287           1.141536
        1.661662           0.002295           1.141765           0.002295           1.141765
        1.671672           0.002303           1.141995           0.002303           1.141995
        1.681682           0.002311           1.142226           0.002311           1.142226
        1.691692           0.002319           1.142457           0.002319           1.142457
        1.701702           0.002327           1.142690           0.002327           1.142690
        1.711712           0.002335           1.142923           0.002335           1.142923
        1.721722           0.002343           1.143157           0.002343           1.143157
        1.731732           0.002351           1.143391           0.002351           1.143391
        1.741742           0.002359           1.143627           0.002359           1.143627
        1.751752           0.002367           1.143863           0.002367           1.143863
        1.761762           0.002375           1.144101           0.002375           1.144101
        1.771772           0.002383           1.144339           0.002383           1.144339
        1.781782           0.002392           1.144578           0.002392           1.144578
        1.791792           0.002400           1.144817           0.002400           1.144817
        1.801802           0.002408           1.145058           0.002408           1.145058
        1.811812           0.002417           1.145299           0.002417           1.145299
        1.821822           0.002425           1.145541           0.002425           1.145541
        1.831832           0.002433           1.145784           0.002433           1.145784
        1.841842           0.002442           1.146028           0.002442           1.146028
        1.851852           0.002451           1.146273           0.002451           1.146273
        1.861862           0.002459           1.146518           0.002459           1.146518
        1.871872           0.002468           1.146765           0.002468           1.146765
        1.881882           0.002477           1.147012           0.002477           1.147012
        1.891892           0.002485           1.147260           0.002485           1.147260
        1.901902           0.002494           1.147509           0.002494           1.147509
        1.911912           0.002503           1.147759           0.002503           1.147759
        1.921922           0.002512           1.148010           0.002512           1.148010
        1.931932           0.002521           1.148262           0.002521           1.148262
        1.941942           0.002530           1.148514           0.002530           1.148514
        1.951952           0.002539           1.148768           0.002539           1.148768
        1.961962           0.002548           1.149022           0.002548           1.149022
        1.971972           0.002557           1.149278           0.002557           1.149278
        1.981982           0.002566           1.149534           0.002566           1.149534
        1.991992           0.002576           1.149791           0.002576           1.149791
        2.002002           0.002585           1.150049           0.002585           1.150049
        2.012012           0.002594           1.150308           0.002594           1.150308
        2.022022           0.002604           1.150568           0.002604           1.150568
        2.032032           0.002613           1.150829           0.002613           1.150829
        2.042042           0.002623           1.151091           0.002623           1.151091
        2.052052           0.002632           1.151354           0.002632           1.151354
        2.062062           0.002642           1.151618           0.002642           1.151618
        2.072072           0.002652           1.151883           0.002652           1.151883
        2.082082           0.002661           1.152148           0.002661           1.152148
        2.092092           0.002671           1.152415           0.002671           1.152415
        2.102102           0.002681           1.152683           0.002681           1.152683
        2.112112           0.002691           1.152951           0.002691           1.152951
        2.122122           0.002701           1.153221           0.002701           1.153221
        2.132132           0.002711           1.153492           0.002711           1.153492
        2.142142           0.002721           1.153764           0.002721           1.153764
        2.152152           0.002731           1.154036           0.002731           1.154036
        2.162162           0.002741           1.154310           0.002741           1.154310
        2.172172           0.002752           1.154585           0.002752           1.154585
        2.182182           0.002762           1.154860           0.002762           1.154860
        2.192192           0.002772           1.155137           0.002772           1.155137
        2.202202           0.002783           1.155415           0.002783           1.155415
        2.212212           0.002793           1.155694           0.002793           1.155694
        2.222222           0.002804           1.155974           0.002804           1.155974
        2.232232           0.002815           1.156255           0.002815           1.156255
        2.242242           0.002825           1.156537           0.002825           1.156537
        2.252252           0.002836           1.156820           0.002836           1.156820
        2.262262           0.002847           1.157104           0.002847           1.157104
        2.272272           0.002858           1.157390           0.002858           1.157390
        2.282282           0.002869           1.157676           0.002869           1.157676
        2.292292           0.002880           1.157963           0.002880           1.157963
        2.302302           0.002891           1.158252           0.002891           1.158252
        2.312312           0.002902           1.158542           0.002902           1.158542
        2.322322           0.002913           1.158832           0.002913           1.158833
        2.332332           0.002924           1.159124           0.002924           1.159124
        2.342342           0.002936           1.159417           0.002936           1.159418
        2.352352           0.002947           1.159712           0.002947           1.159712
        2.362362           0.002958           1.160007           0.002958           1.160007
        2.372372           0.002970           1.160303           0.002970           1.160303
        2.382382           0.002982           1.160601           0.002982           1.160601
        2.392392           0.002993           1.160900           0.002993           1.160900
        2.402402           0.003005           1.161200           0.003005           1.161200
        2.412412           0.003017           1.161501           0.003017           1.161501
        2.422422           0.003029           1.161803           0.003029           1.161803
        2.432432           0.003041           1.162107           0.003041           1.162107
        2.442442           0.003053           1.162412           0.003053           1.162412
        2.452452           0.003065           1.162718           0.003065           1.162718
        2.462462           0.003077           1.163025           0.003077           1.163025
        2.472472           0.003089           1.163333           0.003089           1.163333
        2.482482           0.003102           1.163643           0.003102           1.163643
        2.492492           0.003114           1.163954           0.003114           1.163954
        2.502502           0.003127           1.164266           0.003127           1.164266
        2.512512           0.003139           1.164579           0.003139           1.164579
        2.522522           0.003152           1.164894           0.003152           1.164894
        2.532532           0.003165           1.165210           0.003165           1.165210
        2.542542           0.003177           1.165527           0.003177           1.165527
        2.552552           0.003190           1.165845           0.003190           1.165845
        2.562562           0.003203           1.166165           0.003203           1.166165
        2.572572           0.003216           1.166486           0.003216           1.166486
        2.582582           0.003230           1.166808           0.003230           1.166808
        2.592592           0.003243           1.167132           0.003243           1.167132
        2.602602           0.003256           1.167457           0.003256           1.167457
        2.612612           0.003269           1.167783           0.003269           1.167783
        2.622622           0.003283           1.168111           0.003283           1.168111
        2.632632           0.003297           1.168440           0.003297           1.168440
        2.642642           0.003310           1.168770           0.003310           1.168770
        2.652653           0.003324           1.169102           0.003324           1.169102
        2.662663           0.003338           1.169435           0.003338           1.169435
        2.672673           0.003352           1.169770           0.003352           1.169770
        2.682683           0.003366           1.170106           0.003366           1.170106
        2.692693           0.003380           1.170443           0.003380           1.170443
        2.702703           0.003394           1.170782           0.003394           1.170782
        2.712713           0.003408           1.171122           0.003408           1.171122
        2.722723           0.003423           1.171463           0.003423           1.171463
        2.732733           0.003437           1.171806           0.003437           1.171806
        2.742743           0.003452           1.172151           0.003452           1.172151
        2.752753           0.003466           1.172497           0.003466           1.172497
        2.762763           0.003481           1.172844           0.003481           1.172844
        2.772773           0.003496           1.173193           0.003496           1.173193
        2.782783           0.003511           1.173543           0.003511           1.173543
        2.792793           0.003526           1.173895           0.003526           1.173895
        2.802803           0.003541           1.174249           0.003541           1.174249
        2.812813           0.003556           1.174603           0.003556           1.174603
        2.822823           0.003572           1.174960           0.003572           1.174960
        2.832833           0.003587           1.175318           0.003587           1.175318
        2.842843           0.003603           1.175677           0.003603           1.175677
        2.852853           0.003618           1.176038           0.003618           1.176038
        2.862863           0.003634           1.176401           0.003634           1.176401
        2.872873           0.003650           1.176765           0.003650           1.176765
        2.882883           0.003666           1.177131           0.003666           1.177131
        2.892893           0.003682           1.177498           0.003682           1.177498
        2.902903           0.003698           1.177868           0.003698           1.177868
        2.912913           0.003715           1.178238           0.003715           1.178238
        2.922923           0.003731           1.178610           0.003731           1.178610
        2.932933           0.003748           1.178984           0.003748           1.178984
        2.942943           0.003764           1.179360           0.003764           1.179360
        2.952953           0.003781           1.179737           0.003781           1.179737
        2.962963           0.003798           1.180116           0.003798           1.180116
        2.972973           0.003815           1.180497           0.003815           1.180497
        2.982983           0.003832           1.180879           0.003832           1.180879
        2.992993           0.003849           1.181263           0.003849           1.181263
        3.003003           0.003867           1.181649           0.003867           1.181649
        3.013013           0.003884           1.182037           0.003884           1.182037
        3.023023           0.003902           1.182426           0.003902           1.182426
        3.033033           0.003920           1.182817           0.003920           1.182817
        3.043043           0.003938           1.183210           0.003938           1.183210
        3.053053           0.003956           1.183604           0.003956           1.183604
        3.063063           0.003974           1.184001           0.003974           1.184001
        3.073073           0.003992           1.184399           0.003992           1.184399
        3.083083           0.004010           1.184799           0.004010           1.184799
        3.093093           0.004029           1.185201           0.004029           1.185201
        3.103103           0.004047           1.185605           0.004047           1.185605
        3.113113           0.004066           1.186010           0.004066           1.186010
        3.123123           0.004085           1.186418           0.004085           1.186418
        3.133133           0.004104           1.186827           0.004104           1.186827
        3.143143           0.004123           1.187239           0.004123           1.187239
        3.153153           0.004143           1.187652           0.004143           1.187652
        3.163163           0.004162           1.188067           0.004162           1.188067
        3.173173           0.004182           1.188484           0.004182           1.188484
        3.183183           0.004202           1.188903           0.004202           1.188903
        3.193193           0.004221           1.189324           0.004221           1.189324
        3.203203           0.004242           1.189748           0.004242           1.189748
        3.213213           0.004262           1.190173           0.004262           1.190173
        3.223223           0.004282           1.190600           0.004282           1.190600
        3.233233           0.004303           1.191029           0.004303           1.191029
        3.243243           0.004323           1.191460           0.004323           1.191460
        3.253253           0.004344           1.191893           0.004344           1.191893
        3.263263           0.004365           1.192329           0.004365           1.192329
        3.273273           0.004386           1.192766           0.004386           1.192766
        3.283283           0.004407           1.193206           0.004407           1.193206
        3.293293           0.004429           1.193648           0.004429           1.193648
        3.303303           0.004450           1.194091           0.004450           1.194091
        3.313313           0.004472           1.194537           0.004472           1.194537
        3.323323           0.004494           1.194986           0.004494           1.194986
        3.333333           0.004516           1.195436           0.004516           1.195436
        3.343343           0.004539           1.195889           0.004539           1.195889
        3.353353           0.004561           1.196344           0.004561           1.196344
        3.363363           0.004584           1.196801           0.004584           1.196801
        3.373373           0.004606           1.197260           0.004606           1.197260
        3.383383           0.004629           1.197722           0.004629           1.197722
        3.393393           0.004652           1.198186           0.004652           1.198186
        3.403403           0.004676           1.198652           0.004676           1.198652
        3.413413           0.004699           1.199120           0.004699           1.199120
        3.423423           0.004723           1.199591           0.004723           1.199591
        3.433433           0.004747           1.200065           0.004747           1.200065
        3.443443           0.004771           1.200541           0.004771           1.200541
        3.453453           0.004795           1.201019           0.004795           1.201019
        3.463463           0.004820           1.201499           0.004820           1.201499
        3.473473           0.004844           1.201982           0.004844           1.201982
        3.483483           0.004869           1.202468           0.004869           1.202468
        3.493493           0.004894           1.202956           0.004894           1.202956
        3.503503           0.004919           1.203446           0.004919           1.203446
        3.513513           0.004945           1.203939           0.004945           1.203939
        3.523524           0.004971           1.204435           0.004971           1.204435
        3.533533           0.004996           1.204933           0.004996           1.204933
        3.543543           0.005022           1.205434           0.005022           1.205434
        3.553553           0.005049           1.205937           0.005049           1.205937
        3.563564           0.005075           1.206443           0.005075           1.206443
        3.573573           0.005102           1.206952           0.005102           1.206952
        3.583583           0.005129           1.207463           0.005129           1.207463
        3.593593           0.005156           1.207977           0.005156           1.207977
        3.603603           0.005183           1.208494           0.005183           1.208494
        3.613613           0.005211           1.209013           0.005211           1.209013
        3.623623           0.005239           1.209535           0.005239           1.209535
        3.633634           0.005267           1.210060           0.005267           1.210060
        3.643643           0.005295           1.210588           0.005295           1.210588
        3.653653           0.005324           1.211119           0.005324           1.211119
        3.663663           0.005352           1.211653           0.005352           1.211653
        3.673674           0.005382           1.212189           0.005382           1.212189
        3.683683           0.005411           1.212728           0.005411           1.212728
        3.693693           0.005440           1.213271           0.005440           1.213271
        3.703704           0.005470           1.213816           0.005470           1.213816
        3.713714           0.005500           1.214364           0.005500           1.214364
        3.723723           0.005530           1.214915           0.005530           1.214915
        3.733733           0.005561           1.215469           0.005561           1.215469
        3.743744           0.005592           1.216027           0.005592           1.216027
        3.753754           0.005623           1.216587           0.005623           1.216587
        3.763763           0.005654           1.217151           0.005654           1.217151
        3.773773           0.005686           1.217717           0.005686           1.217717
        3.783784           0.005718           1.218287           0.005718           1.218287
        3.793794           0.005750           1.218860           0.005750           1.218860
        3.803803           0.005782           1.219436           0.005782           1.219436
        3.813814           0.005815           1.220016           0.005815           1.220016
        3.823824           0.005848           1.220598           0.005848           1.220598
        3.833834           0.005881           1.221185           0.005881           1.221185
        3.843843           0.005915           1.221774           0.005915           1.221774
        3.853854           0.005949           1.222367           0.005949           1.222367
        3.863864           0.005983           1.222963           0.005983           1.222963
        3.873873           0.006017           1.223562           0.006017           1.223562
        3.883883           0.006052           1.224166           0.006052           1.224166
        3.893894           0.006087           1.224772           0.006087           1.224772
        3.903904           0.006123           1.225382           0.006123           1.225382
        3.913913           0.006159           1.225996           0.006159           1.225996
        3.923924           0.006195           1.226613           0.006195           1.226613
        3.933934           0.006231           1.227234           0.006231           1.227234
        3.943944           0.006268           1.227858           0.006268           1.227858
        3.953954           0.006305           1.228486           0.006305           1.228486
        3.963964           0.006343           1.229118           0.006343           1.229118
        3.973974           0.006380           1.229754           0.006380           1.229754
        3.983984           0.006419           1.230393           0.006419           1.230393
        3.993994           0.006457           1.231036           0.006457           1.231037
        4.004004           0.006496           1.231684           0.006496           1.231684
        4.014014           0.006535           1.232335           0.006535           1.232335
        4.024024           0.006575           1.232990           0.006575           1.232990
        4.034034           0.006615           1.233648           0.006615           1.233648
        4.044044           0.006655           1.234311           0.006655           1.234311
        4.054054           0.006696           1.234978           0.006696           1.234978
        4.064064           0.006737           1.235649           0.006737           1.235649
        4.074074           0.006779           1.236324           0.006779           1.236324
        4.084084           0.006821           1.237004           0.006821           1.237004
        4.094094           0.006863           1.237687           0.006863           1.237687
        4.104104           0.006906           1.238375           0.006906           1.238375
        4.114114           0.006949           1.239067           0.006949           1.239067
        4.124124           0.006993           1.239763           0.006993           1.239763
        4.134134           0.007037           1.240464           0.007037           1.240464
        4.144144           0.007081           1.241169           0.007081           1.241169
        4.154154           0.007126           1.241879           0.007126           1.241879
        4.164164           0.007171           1.242593           0.007171           1.242593
        4.174174           0.007217           1.243312           0.007217           1.243312
        4.184184           0.007263           1.244035           0.007263           1.244035
        4.194194           0.007310           1.244763           0.007310           1.244763
        4.204204           0.007357           1.245495           0.007357           1.245495
        4.214214           0.007405           1.246232           0.007405           1.246232
        4.224224           0.007453           1.246974           0.007453           1.246974
        4.234234           0.007502           1.247721           0.007502           1.247721
        4.244244           0.007551           1.248473           0.007551           1.248473
        4.254254           0.007601           1.249230           0.007601           1.249230
        4.264264           0.007651           1.249991           0.007651           1.249991
        4.274274           0.007701           1.250758           0.007701           1.250758
        4.284284           0.007753           1.251529           0.007753           1.251529
        4.294294           0.007804           1.252306           0.007804           1.252306
        4.304304           0.007857           1.253088           0.007857           1.253088
        4.314314           0.007909           1.253876           0.007909           1.253876
        4.324324           0.007963           1.254668           0.007963           1.254668
        4.334334           0.008017           1.255466           0.008017           1.255466
        4.344344           0.008071           1.256269           0.008071           1.256269
        4.354354           0.008126           1.257078           0.008126           1.257078
        4.364364           0.008182           1.257892           0.008182           1.257892
        4.374374           0.008238           1.258712           0.008238           1.258712
        4.384384           0.008295           1.259538           0.008295           1.259538
        4.394394           0.008353           1.260369           0.008353           1.260369
        4.404404           0.008411           1.261206           0.008411           1.261206
        4.414414           0.008470           1.262048           0.008470           1.262048
        4.424424           0.008529           1.262897           0.008529           1.262897
        4.434434           0.008589           1.263752           0.008589           1.263752
        4.444444           0.008650           1.264612           0.008650           1.264612
        4.454454           0.008711           1.265479           0.008711           1.265479
        4.464464           0.008773           1.266352           0.008773           1.266351
        4.474474           0.008836           1.267231           0.008836           1.267231
        4.484484           0.008899           1.268116           0.008899           1.268116
        4.494494           0.008964           1.269007           0.008964           1.269007
        4.504504           0.009028           1.269906           0.009028           1.269906
        4.514514           0.009094           1.270810           0.009094           1.270810
        4.524524           0.009160           1.271721           0.009160           1.271721
        4.534534           0.009228           1.272639           0.009228           1.272639
        4.544544           0.009296           1.273564           0.009296           1.273563
        4.554554           0.009364           1.274495           0.009364           1.274495
        4.564565           0.009434           1.275433           0.009434           1.275433
        4.574574           0.009504           1.276378           0.009504           1.276378
        4.584584           0.009575           1.277330           0.009575           1.277330
        4.594594           0.009647           1.278289           0.009647           1.278289
        4.604605           0.009720           1.279256           0.009720           1.279256
        4.614614           0.009794           1.280230           0.009794           1.280230
        4.624624           0.009868           1.281211           0.009868           1.281211
        4.634634           0.009943           1.282199           0.009943           1.282199
        4.644644           0.010020           1.283195           0.010020           1.283195
        4.654655           0.010097           1.284199           0.010097           1.284199
        4.664664           0.010175           1.285211           0.010175           1.285211
        4.674675           0.010254           1.286230           0.010254           1.286230
        4.684684           0.010334           1.287257           0.010334           1.287257
        4.694695           0.010415           1.288292           0.010415           1.288292
        4.704704           0.010498           1.289336           0.010498           1.289336
        4.714715           0.010581           1.290387           0.010581           1.290387
        4.724724           0.010665           1.291447           0.010665           1.291447
        4.734735           0.010750           1.292515           0.010750           1.292515
        4.744744           0.010836           1.293592           0.010836           1.293592
        4.754755           0.010923           1.294678           0.010923           1.294678
        4.764764           0.011012           1.295772           0.011012           1.295772
        4.774775           0.011101           1.296875           0.011101           1.296875
        4.784785           0.011192           1.297987           0.011192           1.297987
        4.794795           0.011284           1.299108           0.011284           1.299108
        4.804804           0.011377           1.300238           0.011377           1.300238
        4.814815           0.011471           1.301377           0.011471           1.301377
        4.824825           0.011566           1.302526           0.011566           1.302526
        4.834835           0.011663           1.303685           0.011663           1.303685
        4.844844           0.011761           1.304853           0.011761           1.304853
        4.854855           0.011860           1.306031           0.011860           1.306031
        4.864865           0.011961           1.307219           0.011961           1.307218
        4.874875           0.012063           1.308416           0.012063           1.308416
        4.884884           0.012166           1.309624           0.012166           1.309624
        4.894895           0.012271           1.310843           0.012271           1.310843
        4.904905           0.012377           1.312072           0.012377           1.312072
        4.914915           0.012484           1.313311           0.012484           1.313311
        4.924924           0.012593           1.314561           0.012593           1.314561
        4.934935           0.012703           1.315822           0.012703           1.315822
        4.944945           0.012815           1.317094           0.012815           1.317094
        4.954955           0.012929           1.318378           0.012929           1.318378
        4.964964           0.013044           1.319672           0.013044           1.319672
        4.974975           0.013161           1.320978           0.013161           1.320978
        4.984985           0.013279           1.322296           0.013279           1.322296
        4.994995           0.013399           1.323626           0.013399           1.323626
        5.005005           0.013521           1.324967           0.013521           1.324967
        5.015015           0.013644           1.326321           0.013644           1.326321
        5.025025           0.013769           1.327687           0.013769           1.327687
        5.035035           0.013896           1.329066           0.013896           1.329066
        5.045045           0.014025           1.330457           0.014025           1.330457
        5.055055           0.014156           1.331861           0.014156           1.331861
        5.065065           0.014288           1.333278           0.014288           1.333278
        5.075075           0.014423           1.334708           0.014423           1.334708
        5.085085           0.014559           1.336152           0.014559           1.336152
        5.095095           0.014698           1.337610           0.014698           1.337610
        5.105105           0.014838           1.339081           0.014838           1.339081
        5.115115           0.014981           1.340566           0.014981           1.340566
        5.125125           0.015126           1.342066           0.015126           1.342066
        5.135135           0.015273           1.343580           0.015273           1.343580
        5.145144           0.015422           1.345109           0.015422           1.345109
        5.155155           0.015574           1.346652           0.015574           1.346652
        5.165165           0.015728           1.348211           0.015728           1.348211
        5.175175           0.015884           1.349785           0.015884           1.349785
        5.185184           0.016043           1.351375           0.016043           1.351375
        5.195195           0.016204           1.352980           0.016204           1.352980
        5.205205           0.016368           1.354602           0.016368           1.354602
        5.215215           0.016534           1.356240           0.016534           1.356240
        5.225225           0.016703           1.357894           0.016703           1.357894
        5.235235           0.016875           1.359566           0.016875           1.359566
        5.245245           0.017049           1.361254           0.017049           1.361254
        5.255255           0.017227           1.362960           0.017227           1.362960
        5.265265           0.017407           1.364684           0.017407           1.364684
        5.275275           0.017590           1.366426           0.017590           1.366425
        5.285285           0.017776           1.368185           0.017776           1.368185
        5.295295           0.017965           1.369964           0.017965           1.369964
        5.305305           0.018158           1.371761           0.018158           1.371761
        5.315315           0.018354           1.373577           0.018354           1.373577
        5.325325           0.018553           1.375413           0.018553           1.375413
        5.335335           0.018755           1.377269           0.018755           1.377269
        5.345345           0.018961           1.379145           0.018961           1.379145
        5.355355           0.019170           1.381042           0.019170           1.381042
        5.365365           0.019383           1.382959           0.019383           1.382959
        5.375375           0.019600           1.384897           0.019600           1.384897
        5.385385           0.019820           1.386857           0.019820           1.386857
        5.395395           0.020045           1.388839           0.020045           1.388839
        5.405405           0.020273           1.390844           0.020273           1.390844
        5.415415           0.020505           1.392871           0.020505           1.392871
        5.425425           0.020742           1.394921           0.020742           1.394921
        5.435435           0.020983           1.396995           0.020983           1.396995
        5.445445           0.021228           1.399093           0.021228           1.399093
        5.455455           0.021478           1.401215           0.021478           1.401215
        5.465465           0.021732           1.403362           0.021732           1.403362
        5.475475           0.021991           1.405534           0.021991           1.405534
        5.485485           0.022255           1.407732           0.022255           1.407732
        5.495495           0.022524           1.409957           0.022524           1.409957
        5.505505           0.022798           1.412208           0.022798           1.412208
        5.515515           0.023077           1.414486           0.023077           1.414486
        5.525526           0.023362           1.416792           0.023362           1.416792
        5.535535           0.023652           1.419126           0.023652           1.419126
        5.545545           0.023948           1.421490           0.023948           1.421490
        5.555555           0.024249           1.423882           0.024249           1.423882
        5.565566           0.024557           1.426305           0.024557           1.426305
        5.575575           0.024870           1.428758           0.024870           1.428758
        5.585585           0.025190           1.431242           0.025190           1.431242
        5.595595           0.025516           1.433758           0.025516           1.433758
        5.605606           0.025849           1.436306           0.025849           1.436306
        5.615615           0.026189           1.438887           0.026189           1.438887
        5.625625           0.026536           1.441502           0.026536           1.441502
        5.635635           0.026889           1.444152           0.026889           1.444152
        5.645645           0.027251           1.446836           0.027251           1.446836
        5.655655           0.027620           1.449557           0.027620           1.449557
        5.665665           0.027996           1.452314           0.027996           1.452314
        5.675675           0.028381           1.455108           0.028381           1.455108
        5.685685           0.028774           1.457940           0.028774           1.457940
        5.695695           0.029176           1.460811           0.029176           1.460811
        5.705705           0.029586           1.463722           0.029586           1.463722
        5.715715           0.030005           1.466674           0.030005           1.466674
        5.725725           0.030434           1.469667           0.030434           1.469667
        5.735735           0.030872           1.472703           0.030872           1.472703
        5.745746           0.031320           1.475782           0.031320           1.475782
        5.755755           0.031779           1.478905           0.031779           1.478905
        5.765765           0.032248           1.482074           0.032248           1.482074
        5.775775           0.032727           1.485289           0.032727           1.485289
        5.785786           0.033218           1.488551           0.033218           1.488551
        5.795795           0.033721           1.491862           0.033721           1.491862
        5.805805           0.034235           1.495222           0.034235           1.495223
        5.815815           0.034762           1.498634           0.034762           1.498634
        5.825826           0.035301           1.502097           0.035301           1.502097
        5.835835           0.035853           1.505613           0.035853           1.505613
        5.845845           0.036419           1.509184           0.036419           1.509184
        5.855855           0.036999           1.512811           0.036999           1.512811
        5.865866           0.037593           1.516495           0.037593           1.516495
        5.875876           0.038203           1.520237           0.038203           1.520237
        5.885885           0.038827           1.524039           0.038827           1.524040
        5.895895           0.039468           1.527903           0.039468           1.527903
        5.905906           0.040125           1.531830           0.040125           1.531830
        5.915915           0.040800           1.535822           0.040800           1.535822
        5.925925           0.041492           1.539879           0.041492           1.539879
        5.935935           0.042203           1.544005           0.042203           1.544005
        5.945946           0.042932           1.548201           0.042932           1.548201
        5.955956           0.043682           1.552468           0.043682           1.552468
        5.965966           0.044452           1.556808           0.044452           1.556808
        5.975976           0.045243           1.561225           0.045243           1.561225
        5.985986           0.046056           1.565718           0.046056           1.565718
        5.995996           0.046892           1.570292           0.046892           1.570291
        6.006006           0.047752           1.574947           0.047752           1.574947
        6.016016           0.048636           1.579686           0.048636           1.579686
        6.026026           0.049546           1.584512           0.049546           1.584512
        6.036036           0.050483           1.589426           0.050483           1.589426
        6.046046           0.051447           1.594432           0.051447           1.594432
        6.056056           0.052441           1.599532           0.052441           1.599532
        6.066066           0.053464           1.604729           0.053464           1.604729
        6.076076           0.054519           1.610025           0.054519           1.610025
        6.086086           0.055606           1.615424           0.055606           1.615424
        6.096096           0.056727           1.620929           0.056727           1.620929
        6.106106           0.057883           1.626543           0.057883           1.626543
        6.116116           0.059077           1.632269           0.059077           1.632269
        6.126126           0.060309           1.638111           0.060309           1.638111
        6.136136           0.061581           1.644072           0.061581           1.644072
        6.146146           0.062895           1.650156           0.062895           1.650156
        6.156156           0.064253           1.656367           0.064253           1.656367
        6.166166           0.065657           1.662710           0.065657           1.662710
        6.176176           0.067109           1.669188           0.067109           1.669188
        6.186186           0.068611           1.675805           0.068611           1.675806
        6.196196           0.070166           1.682568           0.070166           1.682568
        6.206206           0.071776           1.689480           0.071776           1.689480
        6.216216           0.073443           1.696547           0.073443           1.696547
        6.226226           0.075172           1.703773           0.075172           1.703773
        6.236236           0.076964           1.711164           0.076964           1.711165
        6.246246           0.078823           1.718728           0.078823           1.718728
        6.256256           0.080752           1.726469           0.080752           1.726469
        6.266266           0.082756           1.734393           0.082756           1.734393
        6.276276           0.084837           1.742508           0.084837           1.742508
        6.286286           0.087000           1.750821           0.087000           1.750821
        6.296296           0.089249           1.759339           0.089249           1.759338
        6.306306           0.091590           1.768069           0.091590           1.768069
        6.316316           0.094026           1.777020           0.094026           1.777020
        6.326326           0.096565           1.786201           0.096565           1.786201
        6.336336           0.099210           1.795621           0.099210           1.795621
        6.346346           0.101969           1.805288           0.101969           1.805288
        6.356356           0.104848           1.815214           0.104848           1.815214
        6.366366           0.107855           1.825408           0.107855           1.825408
        6.376376           0.110997           1.835882           0.110997           1.835882
        6.386386           0.114282           1.846647           0.114282           1.846647
        6.396396           0.117719           1.857716           0.117719           1.857716
        6.406406           0.121319           1.869101           0.121318           1.869101
        6.416416           0.125090           1.880817           0.125090           1.880817
        6.426426           0.129046           1.892878           0.129046           1.892878
        6.436436           0.133198           1.905300           0.133198           1.905300
        6.446446           0.137559           1.918098           0.137559           1.918098
        6.456456           0.142144           1.931290           0.142144           1.931290
        6.466466           0.146969           1.944895           0.146969           1.944895
        6.476476           0.152050           1.958931           0.152050           1.958931
        6.486486           0.157407           1.973420           0.157407           1.973420
        6.496496           0.163059           1.988381           0.163059           1.988381
        6.506506           0.169030           2.003840           0.169030           2.003840
        6.516516           0.175344           2.019821           0.175344           2.019821
        6.526526           0.182028           2.036349           0.182028           2.036349
        6.536536           0.189111           2.053452           0.189111           2.053452
        6.546546           0.196626           2.071159           0.196626           2.071159
        6.556556           0.204610           2.089503           0.204610           2.089503
        6.566566           0.213101           2.108514           0.213101           2.108514
        6.576576           0.222145           2.128229           0.222145           2.128229
        6.586586           0.231790           2.148686           0.231790           2.148686
        6.596596           0.242091           2.169923           0.242091           2.169923
        6.606606           0.253109           2.191982           0.253109           2.191982
        6.616616           0.264912           2.214907           0.264912           2.214907
        6.626626           0.277576           2.238745           0.277576           2.238745
        6.636636           0.291187           2.263545           0.291187           2.263545
        6.646646           0.305841           2.289358           0.305841           2.289357
        6.656656           0.321645           2.316235           0.321645           2.316235
        6.666666           0.338723           2.344234           0.338723           2.344234
        6.676676           0.357213           2.373412           0.357213           2.373412
        6.686686           0.377272           2.403822           0.377272           2.403823
        6.696696           0.399081           2.435527           0.399081           2.435527
        6.706707           0.422843           2.468578           0.422843           2.468578
        6.716716           0.448790           2.503028           0.448790           2.503028
        6.726726           0.477190           2.538922           0.477190           2.538922
        6.736736           0.508349           2.576297           0.508349           2.576297
        6.746747           0.542620           2.615174           0.542620           2.615174
        6.756756           0.580404           2.655551           0.580404           2.655551
        6.766766           0.622166           2.697396           0.622166           2.697395
        6.776776           0.668442           2.740636           0.668441           2.740636
        6.786787           0.719840           2.785137           0.719840           2.785137
        6.796796           0.777061           2.830682           0.777062           2.830683
        6.806807           0.840900           2.876946           0.840900           2.876946
        6.816816           0.912246           2.923450           0.912245           2.923450
        6.826826           0.992096           2.969520           0.992096           2.969519
        6.836837           1.081539           3.014220           1.081539           3.014220
        6.846846           1.181699           3.056258           1.181699           3.056259
        6.856857           1.293729           3.093920           1.293729           3.093920
        6.866867           1.418640           3.124925           1.418640           3.124925
        6.876876           1.557196           3.146349           1.557196           3.146349
        6.886887           1.709631           3.154525           1.709631           3.154526
        6.896896           1.875250           3.145039           1.875250           3.145039
        6.906906           2.052034           3.112871           2.052034           3.112871
        6.916917           2.236084           3.052773           2.236084           3.052773
        6.926927           2.421118           2.960026           2.421118           2.960026
        6.936936           2.598405           2.831533           2.598405           2.831533
        6.946947           2.757169           2.667198           2.757169           2.667199
        6.956956           2.885850           2.471241           2.885850           2.471241
        6.966967           2.974297           2.252625           2.974296           2.252625
        6.976976           3.016084           2.024451           3.016084           2.024451
        6.986986           3.010360           1.801741           3.010359           1.801741
        6.996997           2.962159           1.598649           2.962159           1.598649
        7.007007           2.881202           1.425982           2.881202           1.425982
        7.017016           2.779631           1.289746           2.779632           1.289746
        7.027027           2.669705           1.191227           2.669705           1.191227
        7.037036           2.562164           1.128005           2.562164           1.128006
        7.047047           2.465396           1.095259           2.465395           1.095259
        7.057057           2.385428           1.087005           2.385428           1.087005
        7.067066           2.326225           1.096912           2.326225           1.096912
        7.077077           2.290189           1.118750           2.290190           1.118750
        7.087087           2.278598           1.146507           2.278597           1.146508
        7.097096           2.291858           1.174336           2.291858           1.174336
        7.107107           2.329632           1.196384           2.329632           1.196384
        7.117116           2.390718           1.206626           2.390719           1.206626
        7.127127           2.472805           1.198796           2.472806           1.198796
        7.137137           2.572000           1.166507           2.572000           1.166507
        7.147147           2.682384           1.103664           2.682384           1.103665
        7.157157           2.795634           1.005283           2.795634           1.005284
        7.167167           2.901012           0.868724           2.901013           0.868724
        7.177176           2.986168           0.695013           2.986168           0.695013
        7.187187           3.038729           0.489921           3.038729           0.489921
        7.197196           3.048613           0.264124           3.048613           0.264124
        7.207206           3.010361           0.031828           3.010361           0.031828
        7.217217           2.924457          -0.191699           2.924457          -0.191699
        7.227227           2.797100          -0.392959           2.797100          -0.392959
        7.237237           2.638419          -0.562551           2.638420          -0.562551
        7.247247           2.460131          -0.695883           2.460132          -0.695883
        7.257257           2.273274          -0.792806           2.273274          -0.792806
        7.267267           2.086865          -0.856307           2.086865          -0.856307
        7.277277           1.907447          -0.891104           1.907447          -0.891104
        7.287286           1.739122          -0.902514           1.739122          -0.902514
        7.297297           1.584050          -0.895661           1.584050          -0.895661
        7.307307           1.443014          -0.875069           1.443013          -0.875069
        7.317317           1.315815          -0.844507           1.315815          -0.844507
        7.327327           1.201739          -0.806999           1.201739          -0.806999
        7.337337           1.099744          -0.764886           1.099744          -0.764887
        7.347347           1.008676          -0.719950           1.008676          -0.719950
        7.357357           0.927394          -0.673525           0.927394          -0.673525
        7.367367           0.854791          -0.626583           0.854791          -0.626583
        7.377377           0.789849          -0.579820           0.789849          -0.579820
        7.387387           0.731666          -0.533741           0.731666          -0.533741
        7.397398           0.679422          -0.488677           0.679422          -0.488677
        7.407407           0.632411          -0.444863           0.632411          -0.444863
        7.417417           0.590004          -0.402436           0.590004          -0.402436
        7.427427           0.551653          -0.361472           0.551653          -0.361472
        7.437437           0.516890          -0.322013           0.516890          -0.322013
        7.447447           0.485299          -0.284059           0.485299          -0.284059
        7.457457           0.456519          -0.247587           0.456519          -0.247587
        7.467467           0.430241          -0.212568           0.430241          -0.212568
        7.477477           0.406191          -0.178954           0.406192          -0.178954
        7.487487           0.384130          -0.146691           0.384130          -0.146691
        7.497497           0.363851          -0.115727           0.363851          -0.115727
        7.507507           0.345169          -0.086002           0.345169          -0.086002
        7.517517           0.327926          -0.057462           0.327926          -0.057462
        7.527527           0.311980          -0.030046           0.311980          -0.030046
        7.537537           0.297204          -0.003699           0.297204          -0.003699
        7.547547           0.283490           0.021631           0.283491           0.021631
        7.557557           0.270740           0.045997           0.270740           0.045997
        7.567567           0.258864           0.069450           0.258864           0.069450
        7.577577           0.247788           0.092034           0.247788           0.092034
        7.587587           0.237440           0.113797           0.237440           0.113797
        7.597597           0.227759           0.134777           0.227759           0.134777
        7.607607           0.218690           0.155018           0.218690           0.155018
        7.617618           0.210182           0.174557           0.210182           0.174557
        7.627627           0.202192           0.193428           0.202192           0.193428
        7.637637           0.194677           0.211665           0.194677           0.211665
        7.647647           0.187600           0.229302           0.187600           0.229302
        7.657657           0.180931           0.246365           0.180931           0.246365
        7.667667           0.174637           0.262885           0.174637           0.262885
        7.677677           0.168691           0.278887           0.168691           0.278887
        7.687687           0.163070           0.294395           0.163070           0.294395
        7.697698           0.157749           0.309436           0.157749           0.309436
        7.707707           0.152708           0.324028           0.152708           0.324028
        7.717717           0.147929           0.338194           0.147929           0.338194
        7.727727           0.143393           0.351954           0.143393           0.351954
        7.737737           0.139085           0.365325           0.139085           0.365325
        7.747747           0.134990           0.378326           0.134990           0.378326
        7.757757           0.131095           0.390974           0.131095           0.390974
        7.767767           0.127387           0.403282           0.127387           0.403282
        7.777778           0.123855           0.415268           0.123855           0.415268
        7.787787           0.120488           0.426943           0.120488           0.426943
        7.797797           0.117276           0.438322           0.117276           0.438322
        7.807807           0.114211           0.449419           0.114211           0.449419
        7.817817           0.111284           0.460243           0.111284           0.460243
        7.827827           0.108487           0.470807           0.108487           0.470807
        7.837838           0.105812           0.481123           0.105812           0.481123
        7.847847           0.103255           0.491198           0.103255           0.491198
        7.857858           0.100807           0.501045           0.100807           0.501045
        7.867867           0.098463           0.510671           0.098463           0.510671
        7.877877           0.096218           0.520085           0.096218           0.520085
        7.887887           0.094066           0.529297           0.094066           0.529297
        7.897897           0.092004           0.538313           0.092004           0.538313
        7.907907           0.090026           0.547142           0.090026           0.547142
        7.917918           0.088128           0.555791           0.088128           0.555791
        7.927927           0.086307           0.564267           0.086307           0.564267
        7.937938           0.084558           0.572576           0.084558           0.572576
        7.947948           0.082879           0.580725           0.082879           0.580725
        7.957957           0.081267           0.588720           0.081267           0.588720
        7.967968           0.079717           0.596567           0.079717           0.596567
        7.977977           0.078228           0.604271           0.078228           0.604271
        7.987987           0.076797           0.611838           0.076797           0.611838
        7.997998           0.075421           0.619273           0.075421           0.619273
        8.008007           0.074098           0.626580           0.074098           0.626580
        8.018017           0.072825           0.633764           0.072825           0.633764
        8.028028           0.071602           0.640831           0.071602           0.640831
        8.038037           0.070425           0.647784           0.070425           0.647784
        8.048048           0.069293           0.654628           0.069293           0.654628
        8.058058           0.068204           0.661366           0.068204           0.661366
        8.068068           0.067157           0.668002           0.067157           0.668002
        8.078078           0.066149           0.674541           0.066149           0.674541
        8.088087           0.065181           0.680986           0.065181           0.680986
        8.098097           0.064249           0.687340           0.064249           0.687340
        8.108108           0.063353           0.693607           0.063353           0.693607
        8.118117           0.062492           0.699790           0.062492           0.699790
        8.128128           0.061665           0.705893           0.061665           0.705893
        8.138138           0.060870           0.711917           0.060870           0.711917
        8.148148           0.060107           0.717867           0.060107           0.717867
        8.158158           0.059374           0.723745           0.059374           0.723745
        8.168168           0.058671           0.729554           0.058671           0.729554
        8.178178           0.057996           0.735296           0.057996           0.735296
        8.188188           0.057350           0.740976           0.057350           0.740976
        8.198197           0.056732           0.746594           0.056732           0.746594
        8.208207           0.056140           0.752153           0.056140           0.752153
        8.218218           0.055574           0.757657           0.055574           0.757657
        8.228228           0.055034           0.763106           0.055034           0.763106
        8.238238           0.054519           0.768505           0.054519           0.768505
        8.248248           0.054029           0.773854           0.054029           0.773854
        8.258258           0.053563           0.779156           0.053563           0.779156
        8.268268           0.053121           0.784414           0.053121           0.784414
        8.278277           0.052703           0.789629           0.052703           0.789629
        8.288287           0.052309           0.794804           0.052309           0.794804
        8.298298           0.051939           0.799940           0.051939           0.799940
        8.308308           0.051592           0.805040           0.051592           0.805040
        8.318318           0.051268           0.810106           0.051268           0.810106
        8.328328           0.050968           0.815139           0.050968           0.815139
        8.338338           0.050693           0.820142           0.050693           0.820142
        8.348348           0.050441           0.825116           0.050441           0.825116
        8.358357           0.050215           0.830063           0.050215           0.830063
        8.368367           0.050014           0.834984           0.050014           0.834984
        8.378378           0.049839           0.839881           0.049839           0.839881
        8.388388           0.049691           0.844756           0.049691           0.844756
        8.398398           0.049572           0.849609           0.049572           0.849609
        8.408408           0.049483           0.854442           0.049483           0.854442
        8.418418           0.049425           0.859255           0.049425           0.859255
        8.428429           0.049400           0.864049           0.049400           0.864049
        8.438437           0.049410           0.868823           0.049410           0.868823
        8.448447           0.049458           0.873576           0.049458           0.873576
        8.458458           0.049545           0.878306           0.049545           0.878306
        8.468468           0.049674           0.883010           0.049674           0.883010
        8.478477           0.049846           0.887683           0.049846           0.887683
        8.488488           0.050061           0.892321           0.050061           0.892321
        8.498498           0.050318           0.896914           0.050318           0.896914
        8.508509           0.050614           0.901455           0.050614           0.901455
        8.518518           0.050939           0.905933           0.050939           0.905932
        8.528527           0.051283           0.910339           0.051283           0.910339
        8.538538           0.051626           0.914670           0.051626           0.914670
        8.548548           0.051946           0.918923           0.051946           0.918923
        8.558558           0.052219           0.923109           0.052219           0.923109
        8.568568           0.052422           0.927246           0.052422           0.927246
        8.578578           0.052540           0.931362           0.052540           0.931362
        8.588589           0.052567           0.935490           0.052567           0.935490
        8.598598           0.052512           0.939663           0.052512           0.939663
        8.608608           0.052393           0.943905           0.052393           0.943905
        8.618618           0.052235           0.948235           0.052235           0.948235
        8.628628           0.052061           0.952658           0.052061           0.952658
        8.638638           0.051895           0.957172           0.051895           0.957172
        8.648648           0.051753           0.961772           0.051753           0.961772
        8.658658           0.051646           0.966448           0.051646           0.966448
        8.668669           0.051582           0.971191           0.051582           0.971191
        8.678679           0.051564           0.975993           0.051564           0.975993
        8.688688           0.051594           0.980846           0.051594           0.980846
        8.698698           0.051671           0.985747           0.051671           0.985747
        8.708708           0.051794           0.990690           0.051794           0.990690
        8.718718           0.051961           0.995674           0.051961           0.995674
        8.728728           0.052172           1.000699           0.052172           1.000699
        8.738738           0.052423           1.005762           0.052423           1.005762
        8.748748           0.052715           1.010865           0.052715           1.010865
        8.758759           0.053045           1.016010           0.053045           1.016010
        8.768768           0.053413           1.021196           0.053413           1.021196
        8.778779           0.053817           1.026426           0.053817           1.026426
        8.788788           0.054259           1.031703           0.054259           1.031703
        8.798798           0.054736           1.037028           0.054736           1.037027
        8.808808           0.055250           1.042404           0.055250           1.042404
        8.818818           0.055800           1.047833           0.055800           1.047833
        8.828828           0.056387           1.053318           0.056387           1.053318
        8.838839           0.057012           1.058863           0.057012           1.058863
        8.848848           0.057674           1.064470           0.057674           1.064470
        8.858859           0.058375           1.070143           0.058375           1.070143
        8.868869           0.059116           1.075885           0.059116           1.075885
        8.878878           0.059898           1.081699           0.059898           1.081699
        8.888888           0.060722           1.087589           0.060722           1.087589
        8.898898           0.061590           1.093559           0.061590           1.093559
        8.908908           0.062503           1.099612           0.062503           1.099612
        8.918919           0.063463           1.105754           0.063463           1.105754
        8.928928           0.064471           1.111987           0.064471           1.111987
        8.938939           0.065531           1.118317           0.065531           1.118317
        8.948949           0.066643           1.124747           0.066643           1.124747
        8.958959           0.067810           1.131283           0.067810           1.131283
        8.968968           0.069036           1.137930           0.069036           1.137930
        8.978978           0.070322           1.144692           0.070322           1.144692
        8.988988           0.071671           1.151576           0.071671           1.151576
        8.998999           0.073087           1.158587           0.073087           1.158587
        9.009008           0.074573           1.165731           0.074573           1.165731
        9.019018           0.076133           1.173014           0.076133           1.173014
        9.029029           0.077771           1.180443           0.077771           1.180443
        9.039039           0.079491           1.188024           0.079491           1.188024
        9.049048           0.081297           1.195766           0.081297           1.195766
        9.059058           0.083195           1.203675           0.083195           1.203675
        9.069068           0.085190           1.211759           0.085190           1.211759
        9.079079           0.087287           1.220027           0.087287           1.220027
        9.089088           0.089493           1.228488           0.089493           1.228488
        9.099098           0.091815           1.237151           0.091815           1.237151
        9.109109           0.094259           1.246026           0.094259           1.246026
        9.119119           0.096834           1.255123           0.096834           1.255123
        9.129129           0.099548           1.264455           0.099548           1.264454
        9.139138           0.102410           1.274030           0.102410           1.274030
        9.149148           0.105431           1.283863           0.105431           1.283863
        9.159159           0.108621           1.293967           0.108621           1.293967
        9.169168           0.111992           1.304354           0.111992           1.304354
        9.179178           0.115557           1.315040           0.115557           1.315040
        9.189189           0.119331           1.326041           0.119331           1.326041
        9.199199           0.123328           1.337372           0.123328           1.337372
        9.209209           0.127565           1.349052           0.127565           1.349052
        9.219219           0.132062           1.361098           0.132062           1.361098
        9.229228           0.136837           1.373530           0.136837           1.373530
        9.239239           0.141915           1.386371           0.141915           1.386371
        9.249249           0.147319           1.399641           0.147319           1.399641
        9.259258           0.153076           1.413364           0.153076           1.413364
        9.269269           0.159217           1.427567           0.159217           1.427567
        9.279279           0.165775           1.442275           0.165775           1.442275
        9.289289           0.172786           1.457516           0.172786           1.457516
        9.299299           0.180292           1.473323           0.180292           1.473323
        9.309309           0.188337           1.489724           0.188337           1.489724
        9.319319           0.196973           1.506757           0.196973           1.506757
        9.329329           0.206256           1.524455           0.206256           1.524455
        9.339338           0.216249           1.542856           0.216249           1.542856
        9.349349           0.227025           1.562003           0.227025           1.562003
        9.359359           0.238660           1.581936           0.238660           1.581936
        9.369369           0.251245           1.602699           0.251245           1.602699
        9.379379           0.264883           1.624340           0.264883           1.624340
        9.389389           0.279685           1.646906           0.279685           1.646906
        9.399399           0.295784           1.670449           0.295784           1.670449
        9.409409           0.313325           1.695017           0.313325           1.695017
        9.419418           0.332479           1.720661           0.332479           1.720661
        9.429429           0.353441           1.747435           0.353441           1.747434
        9.439439           0.376429           1.775378           0.376429           1.775378
        9.449449           0.401699           1.804533           0.401699           1.804533
        9.459459           0.429547           1.834934           0.429547           1.834934
        9.469469           0.460304           1.866591           0.460304           1.866591
        9.479479           0.494361           1.899507           0.494361           1.899507
        9.489489           0.532159           1.933646           0.532159           1.933646
        9.499498           0.574213           1.968940           0.574213           1.968940
        9.509509           0.621118           2.005269           0.621118           2.005270
        9.519519           0.673543           2.042429           0.673543           2.042429
        9.529529           0.732267           2.080126           0.732267           2.080126
        9.539539           0.798176           2.117928           0.798176           2.117928
        9.549549           0.872250           2.155213           0.872250           2.155213
        9.559559           0.955590           2.191127           0.955590           2.191127
        9.569570           1.049388           2.224496           1.049388           2.224496
        9.579578           1.154862           2.253723           1.154862           2.253723
        9.589589           1.273234           2.276696           1.273234           2.276696
        9.599599           1.405527           2.290642           1.405527           2.290642
        9.609609           1.552423           2.292021           1.552423           2.292021
        9.619619           1.713921           2.276434           1.713921           2.276434
        9.629629           1.888856           2.238644           1.888855           2.238645
        9.639639           2.074421           2.172769           2.074421           2.172769
        9.649650           2.265535           2.072782           2.265535           2.072782
        9.659659           2.454303           1.933468           2.454303           1.933468
        9.669669           2.630038           1.751710           2.630038           1.751710
        9.679679           2.779808           1.528183           2.779808           1.528183
        9.689689           2.890203           1.268600           2.890203           1.268600
        9.699699           2.949800           0.984151           2.949800           0.984151
        9.709709           2.951852           0.690451           2.951852           0.690451
        9.719719           2.896121           0.404791           2.896121           0.404791
        9.729730           2.788908           0.142948           2.788908           0.142948
        9.739739           2.641408          -0.083455           2.641408          -0.083455
        9.749749           2.466987          -0.268315           2.466987          -0.268315
        9.759759           2.278637          -0.410672           2.278637          -0.410672
        9.769769           2.087295          -0.513383           2.087295          -0.513383
        9.779779           1.901003          -0.581590           1.901003          -0.581590
        9.789789           1.725074          -0.621282           1.725074          -0.621282
        9.799799           1.562454          -0.638377           1.562454          -0.638377
        9.809810           1.414372          -0.638170           1.414372          -0.638170
        9.819819           1.280932          -0.625120           1.280932          -0.625120
        9.829829           1.161485          -0.602831           1.161485          -0.602831
        9.839839           1.054999          -0.574118           1.054999          -0.574118
        9.849849           0.960294          -0.541147           0.960294          -0.541147
        9.859859           0.876118          -0.505537           0.876118          -0.505537
        9.869869           0.801297          -0.468497           0.801297          -0.468497
        9.879879           0.734719          -0.430902           0.734719          -0.430902
        9.889890           0.675383          -0.393380           0.675383          -0.393381
        9.899899           0.622409          -0.356382           0.622409          -0.356382
        9.909909           0.575010          -0.320211           0.575011          -0.320211
        9.919919           0.532499          -0.285068           0.532499          -0.285068
        9.929929           0.494286          -0.251086           0.494286          -0.251086
        9.939939           0.459847          -0.218332           0.459847          -0.218332
        9.949949           0.428737          -0.186846           0.428737          -0.186846
        9.959959           0.400565          -0.156628           0.400565          -0.156629
        9.969970           0.374988          -0.127662           0.374988          -0.127662
        9.979980           0.351718          -0.099922           0.351718          -0.099922
        9.989989           0.330495          -0.073367           0.330495          -0.073367
        10.00000           0.311094          -0.047950           0.311094          -0.047950
# 
# 11/30/2023 at 13:38 yambo_ph @ unimi-XPS-8930 [start]
# 11/30/2023 at 13:38                           [end]
#  
# Timing   [Min/Max/Average]: 08s/08s/08s
#
# .-Input file  yambo.in
# | optics                           # [R] Linear Response optical properties
# | dipoles                          # [R] Oscillator strenghts (or dipoles)
# | bss                              # [R] BSE solver
# | bse                              # [R][BSE] Bethe Salpeter Equation.
# | BoseTemp= 0.000000         eV    # Bosonic Temperature
# | FFTGvecs=  4653            RL    # [FFT] Plane-waves
# | DIP_Threads= 1                   # [OPENMP/X] Number of threads for dipoles
# | BS_nCPU_LinAlg_INV= 1            # [PARALLEL] CPUs for Linear Algebra (if -1 it is automatically set)
# | BS_nCPU_LinAlg_DIAGO= 1          # [PARALLEL] CPUs for Linear Algebra (if -1 it is automatically set)
# | X_Threads= 1                     # [OPENMP/X] Number of threads for response functions
# | K_Threads= 1                     # [OPENMP/BSK] Number of threads for response functions
# | BSKmod= "HARTREE"                # [BSE] IP/Hartree/HF/ALDA/SEX/BSfxc
# | BSEmod= "resonant"               # [BSE] resonant/retarded/coupling
# | BSSmod= "d"                      # [BSS] (h)aydock/(d)iagonalization/(s)lepc/(i)nversion/(t)ddft`
# | % DipBands
# |   3 |  6 |                           # [DIP] Bands range for dipoles
# | %
# | DipComputed= "R V P"             # [DIP] [default R P V; extra P2 Spin Orb]
# | BSENGexx= 1                RL    # [BSK] Exchange components
# | % BSEQptR
# |   1 |  9 |                           # [BSK] Transferred momenta range
# | %
# | % BSEBands
# |   3 |  6 |                           # [BSK] Bands range
# | %
# | % BEnRange
# |   0.00000 | 10.00000 |         eV    # [BSS] Energy range
# | %
# | % BDmRange
# |  0.100000 | 0.100000 |         eV    # [BSS] Damping range
# | %
# | BEnSteps= 1000                   # [BSS] Energy steps
# | % BLongDir
# |   0.00000    | 0.100000E-4 |  0.00000    # [BSS] [cc] Electric Field
# | %
# | BSEprop= "abs esrt jdos"         # [BSS] Can be any among abs/jdos/kerr/magn/dich/photolum/esrt
# | BSEdips= "none"                  # [BSS] Can be "trace/none" or "xy/xz/yz" to define off-diagonal rotation plane
# | WRbsWF                         # [BSS] Write to disk excitonic the WFs
