#                                                           
#  /$$     /$$ /$$$$$$  /$$      /$$ /$$$$$$$   /$$$$$$     
# |  $$   /$$//$$__  $$| $$$    /$$$| $$__  $$ /$$__  $$    
#  \  $$ /$$/| $$  \ $$| $$$$  /$$$$| $$  \ $$| $$  \ $$    
#   \  $$$$/ | $$$$$$$$| $$ $$/$$ $$| $$$$$$$ | $$  | $$    
#    \  $$/  | $$__  $$| $$  $$$| $$| $$__  $$| $$  | $$    
#     | $$   | $$  | $$| $$\  $ | $$| $$  \ $$| $$  | $$    
#     | $$   | $$  | $$| $$ \/  | $$| $$$$$$$/|  $$$$$$/    
#     |__/   |__/  |__/|__/     |__/|_______/  \______/     
#                                                           
#       Version 4.2.0 Revision 14456 Hash cc1a9b3           
#                  MPI+SLK+OpenMP Build                     
#               http://www.yambo-code.org                   
#
# Absorption @ Q(1) [q->0 direction] : 1.0000000  0.0000000  0.0000000
#
#
# - Energies      are Perdew, Burke & Ernzerhof(X)+Perdew, Burke & Ernzerhof(C)
# - Wavefunctions are Perdew, Burke & Ernzerhof(X)+Perdew, Burke & Ernzerhof(C)
#
# - The Green`s function is Retarded -
# - Using the Length Gauge -
# - [r,Vnl] *is* included -
#
#    E/ev[1]       EPS-Im[2]     EPS-Re[3]     EPSo-Im[4]    EPSo-Re[5]
#
     0.200000     26.673080     33.741188     26.689297     33.860321
     0.201603     26.330252     33.709064     26.346359     33.828377
     0.203206     25.993286     33.683895     26.009550     33.803123
     0.204810     25.662998     33.665047     25.678802     33.784313
     0.206413     25.338715     33.652523     25.354198     33.771679
     0.208016     25.019955     33.645748     25.035667     33.764996
     0.209619     24.707825     33.644737     24.723179     33.763977
     0.211222     24.401430     33.649311     24.416677     33.768406
     0.212826     24.101337     33.658901     24.116201     33.778061
     0.214429     23.806389     33.673302     23.821657     33.792713
     0.216032     23.518272     33.692844     23.533016     33.812176
     0.217635     23.235533     33.717052     23.250273     33.836166
     0.219238     22.958340     33.745243     22.973309     33.864578
     0.220842     22.687412     33.777855     22.702074     33.897179
     0.222445     22.421806     33.814411     22.436554     33.933781
     0.224048     22.162163     33.854839     22.176662     33.974232
     0.225651     21.908096     33.898975     21.922310     34.018372
     0.227255     21.659559     33.946690     21.673496     34.065952
     0.228858     21.416349     33.997532     21.430080     34.116901
     0.230461     21.177982     34.051476     21.192017     34.171097
     0.232064     20.945587     34.108944     20.959238     34.228352
     0.233667     20.717993     34.168972     20.731676     34.288475
     0.235271     20.495575     34.231865     20.509249     34.351398
     0.236874     20.278370     34.297321     20.291891     34.416965
     0.238477     20.066168     34.365562     20.079523     34.485130
     0.240080     19.858749     34.436043     19.872066     34.555759
     0.241683     19.656229     34.509018     19.669477     34.628696
     0.243287     19.458746     34.584335     19.471647     34.703911
     0.244890     19.265087     34.661392     19.278513     34.781250
     0.246493     19.077026     34.740833     19.090029     34.860622
     0.248096     18.892616     34.821857     18.906120     34.941994
     0.249699     18.713594     34.905369     18.726675     35.025257
     0.251303     18.538628     34.990170     18.551651     35.110291
     0.252906     18.368031     35.076977     18.381041     35.197140
     0.254509     18.201792     35.165501     18.214670     35.285595
     0.256112     18.039959     35.255711     18.052582     35.375683
     0.257715     17.881769     35.346954     17.894634     35.467243
     0.259319     17.728123     35.440273     17.740862     35.560337
     0.260922     17.578413     35.534512     17.591103     35.654907
     0.262525     17.432755     35.630520     17.445389     35.750851
     0.264128     17.291180     35.727715     17.303596     35.848106
     0.265731     17.153008     35.825989     17.165785     35.946659
     0.267335     17.019409     35.926056     17.031792     36.046448
     0.268938     16.889143     36.026863     16.901623     36.147373
     0.270541     16.762875     36.129028     16.775183     36.249508
     0.272144     16.639725     36.231781     16.652498     36.352707
     0.273748     16.521181     36.336250     16.533537     36.457054
     0.275351     16.405827     36.441429     16.418209     36.562344
     0.276954     16.293873     36.547600     16.306498     36.668743
     0.278557     16.185677     36.654758     16.198370     36.776012
     0.280160     16.081356     36.763306     16.093779     36.884232
     0.281764     15.980312     36.872303     15.992689     36.993374
     0.283367     15.882562     36.981979     15.895113     37.103321
     0.284970     15.788363     37.092728     15.800982     37.214115
     0.286573     15.697782     37.204304     15.710318     37.325737
     0.288176     15.610528     37.316563     15.622969     37.438042
     0.289780     15.526697     37.429653     15.539073     37.551090
     0.291383     15.446120     37.543285     15.458521     37.664852
     0.292986     15.368878     37.657764     15.381275     37.779293
     0.294589     15.294604     37.772308     15.307366     37.894314
     0.296192     15.224143     37.888126     15.236715     38.009945
     0.297796     15.156829     38.004311     15.169341     38.126175
     0.299399     15.092759     38.121014     15.105203     38.242878
     0.301002     15.031670     38.238152     15.044286     38.360081
     0.302605     14.974030     38.355663     14.986602     38.477791
     0.304208     14.919524     38.473938     14.932105     38.596001
     0.305812     14.868314     38.592644     14.880773     38.714573
     0.307415     14.819884     38.711235     14.832575     38.833538
     0.309018     14.774544     38.830204     14.787522     38.952808
     0.310621     14.732993     38.950123     14.745612     39.072433
     0.312224     14.693927     39.069752     14.706764     39.192345
     0.313828     14.658202     39.189785     14.671037     39.312508
     0.315431     14.625340     39.310040     14.638327     39.432907
     0.317034     14.595600     39.430504     14.608763     39.553505
     0.318637     14.568987     39.551243     14.582138     39.674297
     0.320240     14.545342     39.672054     14.558549     39.795135
     0.321844     14.524527     39.792839     14.537952     39.916183
     0.323447     14.507071     39.914211     14.520353     40.037304
     0.325050     14.492486     40.035511     14.505688     40.158482
     0.326653     14.480084     40.155830     14.493997     40.279694
     0.328257     14.471680     40.277382     14.485248     40.400864
     0.329860     14.465575     40.398251     14.479407     40.522015
     0.331463     14.462450     40.519192     14.476471     40.643154
     0.333066     14.462816     40.640709     14.476453     40.764160
     0.334669     14.465281     40.761276     14.479298     40.885075
     0.336273     14.470887     40.881802     14.485004     41.005821
     0.337876     14.479237     41.002228     14.493586     41.126442
     0.339479     14.490734     41.122856     14.504994     41.246883
     0.341082     14.504856     41.242985     14.519222     41.367081
     0.342685     14.521766     41.362816     14.536272     41.487030
     0.344289     14.541445     41.482399     14.556111     41.606735
     0.345892     14.563957     41.601719     14.578759     41.726238
     0.347495     14.589120     41.720516     14.604173     41.845352
     0.349098     14.617241     41.839764     14.632267     41.964233
     0.350701     14.647908     41.957878     14.663185     42.082710
     0.352305     14.681585     42.076180     14.696868     42.200790
     0.353908     14.717772     42.193722     14.733298     42.318501
     0.355511     14.756569     42.310749     14.772462     42.435848
     0.357114     14.798367     42.427441     14.814374     42.552673
     0.358717     14.843020     42.543934     14.858978     42.669106
     0.360321     14.890192     42.659904     14.906353     42.785007
     0.361924     14.940132     42.775314     14.956407     42.900406
     0.363527     14.992655     42.890026     15.009192     43.015301
     0.365130     15.048144     43.004684     15.064690     43.129688
     0.366733     15.105586     43.117741     15.122857     43.243420
     0.368337     15.166554     43.231121     15.183785     43.356533
     0.369940     15.230029     43.343430     15.247363     43.469059
     0.371543     15.295668     43.454769     15.313696     43.580952
     0.373146     15.364598     43.566025     15.382766     43.692162
     0.374749     15.436483     43.676834     15.454508     43.802616
     0.376353     15.510303     43.786049     15.528981     43.912411
     0.377956     15.587472     43.895332     15.606173     44.021420
     0.379559     15.667566     44.004044     15.686141     44.129635
     0.381162     15.749793     44.110985     15.768798     44.237041
     0.382766     15.834865     44.217239     15.854237     44.343510
     0.384369     15.922817     44.322952     15.942415     44.449081
     0.385972     16.013849     44.427959     16.033316     44.553749
     0.387575     16.106176     44.530441     16.127005     44.657459
     0.389178     16.203152     44.633678     16.223469     44.760101
     0.390782     16.302271     44.735744     16.322689     44.861687
     0.392385     16.403803     44.835884     16.424673     44.962219
     0.393988     16.507750     44.934750     16.529472     45.061592
     0.395591     16.615479     45.033516     16.637032     45.159737
     0.397194     16.725136     45.129780     16.747431     45.256622
     0.398798     16.838253     45.225838     16.860598     45.352272
     0.400401     16.953869     45.319939     16.976540     45.446480
     0.402004     17.071358     45.412029     17.095291     45.539314
     0.403607     17.193176     45.503853     17.216873     45.630711
     0.405210     17.316967     45.593719     17.341213     45.720509
     0.406814     17.443846     45.681911     17.468338     45.808807
     0.408417     17.573130     45.768444     17.598246     45.895439
     0.410020     17.705496     45.853447     17.730947     45.980358
     0.411623     17.840626     45.936581     17.866385     46.063507
     0.413226     17.978279     46.018024     18.004585     46.144825
     0.414830     18.118866     46.097366     18.145540     46.224155
     0.416433     18.262114     46.175007     18.289213     46.301662
     0.418036     18.407825     46.250282     18.435585     46.377129
     0.419639     18.557274     46.324375     18.584660     46.450428
     0.421242     18.707890     46.394974     18.736401     46.521580
     0.422846     18.861889     46.464008     18.890783     46.590454
     0.424449     19.018478     46.530750     19.047779     46.657013
     0.426052     19.177238     46.594696     19.207338     46.721291
     0.427655     19.339531     46.657413     19.369478     46.783001
     0.429259     19.503191     46.716301     19.534136     46.842289
     0.430862     19.669405     46.772861     19.701315     46.898907
     0.432465     19.839020     46.827286     19.870893     46.952843
     0.434068     20.010269     46.878670     20.042889     47.004105
     0.435671     20.184267     46.927330     20.217218     47.052551
     0.437275     20.360092     46.973026     20.393906     47.098110
     0.438878     20.538687     47.015820     20.572876     47.140743
     0.440481     20.719790     47.055901     20.754042     47.180325
     0.442084     20.902290     47.092525     20.937382     47.216869
     0.443687     21.086967     47.125927     21.122812     47.250278
     0.445291     21.274006     47.156513     21.310301     47.280399
     0.446894     21.462799     47.183681     21.499771     47.307293
     0.448497     21.653570     47.207550     21.691193     47.330822
     0.450100     21.846464     47.228100     21.884502     47.350967
     0.451703     22.040800     47.245045     22.079580     47.367645
     0.453307     22.237402     47.258537     22.276367     47.380730
     0.454910     22.435217     47.268719     22.474884     47.390316
     0.456513     22.634382     47.274544     22.674940     47.396149
     0.458116     22.835705     47.277233     22.876518     47.398167
     0.459719     23.037834     47.275997     23.079561     47.396580
     0.461323     23.241573     47.271023     23.283941     47.391098
     0.462926     23.447214     47.262360     23.489603     47.381668
     0.464529     23.653021     47.249142     23.696457     47.368340
     0.466132     23.860674     47.232594     23.904392     47.350952
     0.467735     24.068810     47.211342     24.113369     47.329464
     0.469339     24.278419     47.187031     24.323235     47.303902
     0.470942     24.488504     47.157463     24.533966     47.274139
     0.472545     24.699158     47.124088     24.745405     47.240089
     0.474148     24.910892     47.086933     24.957443     47.201836
     0.475752     25.123764     47.044868     25.170006     47.159168
     0.477355     25.335129     46.998322     25.382978     47.112217
     0.478958     25.548233     46.947796     25.596239     47.060856
     0.480561     25.759798     46.891911     25.809690     47.005016
     0.482164     25.973303     46.832684     26.023157     46.944714
     0.483768     26.186787     46.768898     26.236586     46.879761
     0.485371     26.398844     46.700077     26.449860     46.810268
     0.486974     26.610983     46.626865     26.662752     46.736214
     0.488577     26.823709     46.549255     26.875195     46.657501
     0.490180     27.034830     46.466743     27.087044     46.574150
     0.491784     27.245653     46.379654     27.298195     46.486141
     0.493387     27.455730     46.287891     27.508408     46.393402
     0.494990     27.664515     46.191589     27.717657     46.295986
     0.496593     27.872868     46.090790     27.925674     46.193863
     0.498196     28.078552     45.984749     28.132359     46.087055
     0.499800     28.283279     45.874115     28.337543     45.975552
     0.501403     28.487375     45.759228     28.541082     45.859310
     0.503006     28.688204     45.639385     28.742741     45.738388
     0.504609     28.886999     45.514660     28.942402     45.612827
     0.506212     29.084351     45.385654     29.139917     45.482735
     0.507816     29.278963     45.252129     29.334951     45.347980
     0.509419     29.471609     45.113876     29.527538     45.208889
     0.511022     29.660727     44.971279     29.717453     45.065151
     0.512625     29.848314     44.824814     29.904457     44.917072
     0.514228     30.033020     44.673504     30.088444     44.764729
     0.515832     30.213295     44.518265     30.269224     44.608074
     0.517435     30.390316     44.358841     30.446516     44.447369
     0.519038     30.564575     44.195244     30.620316     44.282673
     0.520641     30.734232     44.027836     30.790270     44.113991
     0.522245     30.900963     43.856953     30.956278     43.941505
     0.523848     31.061966     43.681683     31.118145     43.765457
     0.525451     31.220240     43.503216     31.275831     43.585857
     0.527054     31.373774     43.321579     31.429043     43.402916
     0.528657     31.523201     43.136963     31.577621     43.216808
     0.530261     31.666929     42.949329     31.721458     43.027802
     0.531864     31.805864     42.758656     31.860413     42.835865
     0.533467     31.940872     42.565559     31.994274     42.641514
     0.535070     32.068756     42.369595     32.123055     42.444733
     0.536673     32.194199     42.172218     32.246582     42.245808
     0.538277     32.312038     41.972702     32.364712     42.044971
     0.539880     32.425362     41.771267     32.477329     41.842525
     0.541483     32.533112     41.568863     32.584442     41.638641
     0.543086     32.635124     41.364941     32.685860     41.433651
     0.544689     32.730743     41.160381     32.781689     41.227833
     0.546293     32.821510     40.954678     32.871777     41.021355
     0.547896     32.906467     40.749306     32.956135     40.814510
     0.549499     32.985546     40.543449     33.034721     40.607655
     0.551102     33.059269     40.338184     33.107517     40.401134
     0.552705     33.127739     40.133389     33.174702     40.195168
     0.554309     33.189682     39.929291     33.236221     39.990055
     0.555912     33.247139     39.726028     33.292065     39.786037
     0.557515     33.297764     39.524498     33.342533     39.583519
     0.559118     33.344501     39.325127     33.387505     39.382713
     0.560721     33.383774     39.126896     33.427223     39.183949
     0.562325     33.418972     38.931255     33.461823     38.987469
     0.563928     33.450169     38.738426     33.491467     38.793541
     0.565531     33.476227     38.548218     33.516331     38.602470
     0.567134     33.497925     38.361397     33.536583     38.414490
     0.568738     33.514526     38.177349     33.552513     38.229782
     0.570341     33.527248     37.997040     33.564243     38.048676
     0.571944     33.535583     37.820511     33.572182     37.871407
     0.573547     33.541451     37.647827     33.576462     37.698032
     0.575150     33.543526     37.479355     33.577404     37.528751
     0.576753     33.541904     37.315155     33.575333     37.363808
     0.578357     33.538761     37.155388     33.570438     37.203320
     0.579960     33.532242     36.999893     33.563183     37.047390
     0.581563     33.523846     36.849403     33.553818     36.896130
     0.583166     33.513542     36.703434     33.542656     36.749615
     0.584770     33.502388     36.562378     33.529991     36.607918
     0.586373     33.488708     36.425915     33.516247     36.471088
     0.587976     33.476761     36.294495     33.501835     36.339081
     0.589579     33.462528     36.167683     33.486847     36.211941
     0.591182     33.448353     36.046013     33.471802     36.089626
     0.592786     33.434040     35.928684     33.457005     35.972004
     0.594389     33.420700     35.816525     33.442757     35.859226
     0.595992     33.408871     35.708397     33.429356     35.750973
     0.597595     33.398220     35.605156     33.417225     35.647251
     0.599198     33.388100     35.506050     33.406570     35.547817
     0.600802     33.380226     35.411198     33.397701     35.452671
     0.602405     33.374470     35.320404     33.391018     35.361446
     0.604008     33.370579     35.233307     33.386723     35.274105
     0.605611     33.370522     35.149826     33.385063     35.190369
     0.607214     33.372639     35.069546     33.386345     35.110039
     0.608818     33.378315     34.992722     33.390736     35.032833
     0.610421     33.387440     34.918720     33.398533     34.958496
     0.612024     33.399876     34.847355     33.409866     34.886837
     0.613627     33.416065     34.778030     33.425041     34.817467
     0.615230     33.436001     34.710716     33.444134     34.750202
     0.616834     33.460091     34.645596     33.467304     34.684654
     0.618437     33.488636     34.581783     33.494713     34.620438
     0.620040     33.521381     34.518681     33.526474     34.557446
     0.621643     33.558296     34.456738     33.562695     34.495213
     0.623246     33.599964     34.394825     33.603462     34.433342
     0.624850     33.646915     34.333336     33.648800     34.371609
     0.626453     33.697376     34.271347     33.698776     34.309616
     0.628056     33.753674     34.209126     33.753338     34.247044
     0.629659     33.813740     34.145657     33.812534     34.183430
     0.631263     33.878254     34.080639     33.876381     34.118477
     0.632866     33.947613     34.014458     33.944805     34.051952
     0.634469     34.021397     33.945770     34.017696     33.983318
     0.636072     34.099564     33.875065     34.094990     33.912395
     0.637675     34.182644     33.800991     34.176579     33.838646
     0.639279     34.268539     33.724453     34.262291     33.761898
     0.640882     34.359272     33.644424     34.352074     33.681705
     0.642485     34.454227     33.560352     34.445667     33.597740
     0.644088     34.552258     33.472542     34.542812     33.509739
     0.645691     34.653564     33.380108     34.643410     33.417374
     0.647295     34.758072     33.283058     34.747108     33.320293
     0.648898     34.866390     33.181084     34.853745     33.218243
     0.650501     34.976757     33.073818     34.962925     33.110962
     0.652104     35.088509     32.960907     35.074406     32.998154
     0.653707     35.202927     32.842270     35.187889     32.879604
     0.655311     35.319050     32.717617     35.303028     32.755074
     0.656914     35.436623     32.586952     35.419479     32.624382
     0.658517     35.555084     32.449974     35.536846     32.487343
     0.660120     35.673687     32.306053     35.654686     32.343735
     0.661723     35.793056     32.155972     35.772636     32.193443
     0.663327     35.911121     31.998634     35.890293     32.036392
     0.664930     36.029167     31.834524     36.007191     31.872459
     0.666533     36.146191     31.663591     36.122929     31.701548
     0.668136     36.261150     31.485563     36.237000     31.523718
     0.669739     36.373512     31.300838     36.349014     31.338888
     0.671343     36.484516     31.108665     36.458466     31.147116
     0.672946     36.592266     30.909739     36.564953     30.948410
     0.674549     36.696171     30.704037     36.668022     30.742979
     0.676152     36.796593     30.491550     36.767094     30.530827
     0.677756     36.892071     30.272840     36.861881     30.312189
     0.679359     36.983448     30.047518     36.951828     30.087185
     0.680962     37.069042     29.816284     37.036522     29.856024
     0.682565     37.148750     29.578899     37.115540     29.618902
     0.684168     37.223198     29.335823     37.188488     29.376184
     0.685772     37.290596     29.087156     37.254978     29.128136
     0.687375     37.350807     28.834061     37.314590     28.875061
     0.688978     37.404236     28.575941     37.367035     28.617405
     0.690581     37.449787     28.313826     37.411957     28.355473
     0.692184     37.487827     28.047453     37.449043     28.089745
     0.693788     37.518265     27.777784     37.477978     27.820641
     0.695391     37.539616     27.505140     37.498619     27.548552
     0.696994     37.552292     27.230125     37.510700     27.273989
     0.698597     37.556843     26.953304     37.514057     26.997410
     0.700200     37.551960     26.674446     37.508419     26.719299
     0.701804     37.538273     26.394989     37.493965     26.440235
     0.703407     37.515530     26.114885     37.470341     26.160639
     0.705010     37.483723     25.834732     37.437584     25.881021
     0.706613     37.442589     25.555025     37.395706     25.601942
     0.708216     37.392128     25.276550     37.344666     25.323881
     0.709820     37.333210     24.999537     37.284668     25.047367
     0.711423     37.265106     24.724104     37.215710     24.772875
     0.713026     37.187595     24.451813     37.137913     24.500916
     0.714629     37.101662     24.182365     37.051414     24.231955
     0.716232     37.007618     23.916332     36.956478     23.966410
     0.717836     36.904766     23.654192     36.853226     23.704805
     0.719439     36.794167     23.396070     36.742016     23.447485
     0.721042     36.675541     23.142967     36.622982     23.194910
     0.722645     36.549862     22.894508     36.496532     22.947472
     0.724249     36.417000     22.651875     36.362934     22.705456
     0.725852     36.277290     22.415129     36.222492     22.469238
     0.727455     36.130390     22.184610     36.075615     22.239159
     0.729058     35.977776     21.960451     35.922634     22.015438
     0.730661     35.819538     21.742899     35.763912     21.798326
     0.732265     35.655621     21.531893     35.599854     21.588131
     0.733868     35.487564     21.328178     35.430813     21.385002
     0.735471     35.314102     21.131805     35.257187     21.189156
     0.737074     35.136421     20.942829     35.079418     21.000647
     0.738677     34.955833     20.761219     34.897835     20.819700
     0.740281     34.771431     20.587219     34.712929     20.646324
     0.741884     34.583870     20.421232     34.525055     20.480673
     0.743487     34.393520     20.262764     34.334541     20.322731
     0.745090     34.200829     20.112309     34.141846     20.172560
     0.746693     34.006863     19.969358     33.947342     20.030153
     0.748297     33.811138     19.834126     33.751408     19.895468
     0.749900     33.614475     19.706717     33.554348     19.768539
     0.751503     33.417149     19.587027     33.356655     19.649246
     0.753106     33.219158     19.474884     33.158466     19.537539
     0.754709     33.021355     19.370201     32.960320     19.433344
     0.756313     32.823669     19.273109     32.762386     19.336527
     0.757916     32.626587     19.183144     32.565125     19.247004
     0.759519     32.430523     19.100496     32.368668     19.164656
     0.761122     32.235691     19.024666     32.173351     19.089319
     0.762725     32.042057     18.955793     31.979469     19.020868
     0.764329     31.849958     18.893845     31.787254     18.959177
     0.765932     31.660254     18.838276     31.597023     18.904049
     0.767535     31.472343     18.789310     31.408928     18.855288
     0.769138     31.286804     18.746456     31.223204     18.812798
     0.770741     31.104191     18.709618     31.040092     18.776346
     0.772345     30.923748     18.678926     30.859676     18.745768
     0.773948     30.746616     18.653595     30.682255     18.720879
     0.775551     30.572659     18.633831     30.508011     18.701477
     0.777154     30.401783     18.619585     30.337021     18.687433
     0.778758     30.234863     18.610224     30.169455     18.678495
     0.780361     30.071192     18.606052     30.005573     18.674503
     0.781964     29.910910     18.606699     29.845396     18.675251
     0.783567     29.754951     18.611761     29.689018     18.680576
     0.785170     29.602839     18.621357     29.536663     18.690254
     0.786774     29.455090     18.634804     29.388395     18.704102
     0.788377     29.311514     18.652477     29.244505     18.721939
     0.789980     29.171930     18.673927     29.104685     18.743622
     0.791583     29.036924     18.699005     28.969219     18.768898
     0.793186     28.906567     18.727467     28.838264     18.797609
     0.794790     28.780289     18.759222     28.711807     18.829523
     0.796393     28.659054     18.793951     28.589998     18.864470
     0.797996     28.542158     18.831581     28.472847     18.902266
     0.799599     28.429840     18.872066     28.360464     18.942755
     0.801202     28.322824     18.914747     28.252920     18.985712
     0.802806     28.220680     18.959795     28.150194     19.030952
     0.804409     28.123026     19.007090     28.052391     19.078304
     0.806012     28.030661     19.056135     27.959520     19.127565
     0.807615     27.943031     19.107098     27.871675     19.178520
     0.809218     27.860689     19.159374     27.788853     19.231045
     0.810822     27.783398     19.212973     27.711075     19.284866
     0.812425     27.711189     19.267998     27.638390     19.339817
     0.814028     27.643646     19.323910     27.570789     19.395712
     0.815631     27.581743     19.380384     27.508308     19.452354
     0.817234     27.525043     19.437380     27.450954     19.509516
     0.818838     27.473030     19.494772     27.398756     19.567034
     0.820441     27.426676     19.552389     27.351629     19.624697
     0.822044     27.384775     19.609943     27.309668     19.682323
     0.823647     27.348648     19.667168     27.272795     19.739676
     0.825251     27.317390     19.724186     27.240986     19.796597
     0.826854     27.291559     19.780111     27.214212     19.852791
     0.828457     27.269735     19.835632     27.192490     19.908163
     0.830060     27.253155     19.889902     27.175688     19.962418
     0.831663     27.242382     19.942648     27.163803     20.015423
     0.833267     27.236134     19.994019     27.156841     20.066910
     0.834870     27.234238     20.043859     27.154629     20.116703
     0.836473     27.237305     20.091740     27.157103     20.164618
     0.838076     27.245241     20.137482     27.164202     20.210442
     0.839679     27.257563     20.180790     27.175835     20.253944
     0.841283     27.274227     20.221863     27.191879     20.294918
     0.842886     27.295271     20.259989     27.212250     20.333239
     0.844489     27.320719     20.295341     27.236784     20.368645
     0.846092     27.350277     20.327543     27.265415     20.400953
     0.847695     27.383392     20.356524     27.297907     20.429974
     0.849299     27.420517     20.381990     27.334253     20.455561
     0.850902     27.461111     20.403944     27.374138     20.477531
     0.852505     27.505262     20.421848     27.417437     20.495678
     0.854108     27.552708     20.435949     27.464048     20.509882
     0.855711     27.603020     20.445938     27.513712     20.519945
     0.857315     27.656521     20.451597     27.566221     20.525738
     0.858918     27.712511     20.452778     27.621384     20.527102
     0.860521     27.771044     20.449352     27.679016     20.523932
     0.862124     27.831535     20.441364     27.738882     20.516119
     0.863727     27.894587     20.428593     27.800699     20.503542
     0.865331     27.958755     20.410986     27.864273     20.486074
     0.866934     28.025074     20.388306     27.929377     20.463600
     0.868537     28.092400     20.360350     27.995701     20.436094
     0.870140     28.160633     20.327600     28.063051     20.403509
     0.871743     28.229908     20.289440     28.131126     20.365757
     0.873347     28.299566     20.246077     28.199701     20.322838
     0.874950     28.369589     20.197598     28.268499     20.274750
     0.876553     28.439219     20.143982     28.337219     20.221416
     0.878156     28.508814     20.084913     28.405605     20.162893
     0.879759     28.577646     20.020910     28.473423     20.099174
     0.881363     28.645552     19.951542     28.540354     20.030319
     0.882966     28.712574     19.877132     28.606157     19.956385
     0.884569     28.778254     19.797533     28.670588     19.877420
     0.886172     28.842176     19.713125     28.733389     19.793571
     0.887776     28.904202     19.623781     28.794298     19.704861
     0.889379     28.964314     19.529720     28.853033     19.611460
     0.890982     29.021456     19.431097     28.909397     19.513485
     0.892585     29.076426     19.327824     28.963144     19.411024
     0.894188     29.128349     19.220304     29.014103     19.304319
     0.895792     29.177326     19.108828     29.062035     19.193487
     0.897395     29.223202     18.993273     29.106756     19.078688
     0.898998     29.265541     18.874134     29.148062     18.960106
     0.900601     29.304388     18.751032     29.185766     18.838026
     0.902204     29.339411     18.624842     29.219738     18.712534
     0.903808     29.370729     18.495165     29.249880     18.583929
     0.905411     29.397610     18.362825     29.275738     18.452389
     0.907014     29.420773     18.227348     29.297714     18.318100
     0.908617     29.439407     18.089830     29.315466     18.181366
     0.910220     29.453936     17.949684     29.328928     18.042372
     0.911824     29.464165     17.807432     29.337982     17.901323
     0.913427     29.469910     17.663462     29.342695     17.758518
     0.915030     29.471312     17.517979     29.342886     17.614096
     0.916633     29.467957     17.371056     29.338577     17.468332
     0.918236     29.460161     17.223049     29.329767     17.321480
     0.919840     29.447767     17.073872     29.316422     17.173687
     0.921443     29.430731     16.924339     29.298607     17.025179
     0.923046     29.409430     16.774035     29.276337     16.876202
     0.924649     29.383780     16.623775     29.249823     16.726938
     0.926252     29.353752     16.472866     29.218653     16.577560
     0.927856     29.318813     16.322250     29.183167     16.428295
     0.929459     29.279999     16.171925     29.143377     16.279293
     0.931062     29.236584     16.022085     29.099380     16.130728
     0.932665     29.189245     15.872890     29.051254     15.982770
     0.934269     29.137604     15.724201     28.999044     15.835521
     0.935872     29.082338     15.576399     28.942862     15.689190
     0.937475     29.022839     15.429799     28.882803     15.543907
     0.939078     28.959585     15.284236     28.818922     15.399734
     0.940681     28.892550     15.139929     28.751358     15.256879
     0.942285     28.821938     14.997091     28.680189     15.115363
     0.943888     28.747948     14.855592     28.605473     14.975340
     0.945491     28.670223     14.715809     28.527382     14.836922
     0.947094     28.589445     14.577732     28.445990     14.700172
     0.948697     28.505518     14.441135     28.361385     14.565147
     0.950301     28.418249     14.306582     28.273619     14.431958
     0.951904     28.327721     14.173954     28.182867     14.300649
     0.953507     28.234596     14.043132     28.089184     14.171295
     0.955110     28.138725     13.914199     27.992674     14.043962
     0.956713     28.039785     13.787486     27.893387     13.918672
     0.958317     27.938292     13.662866     27.791414     13.795497
     0.959920     27.834106     13.540504     27.686884     13.674509
     0.961523     27.727535     13.420197     27.579891     13.555711
     0.963126     27.618437     13.302190     27.470480     13.439138
     0.964729     27.507156     13.186424     27.358768     13.324865
     0.966333     27.393402     13.073112     27.244810     13.212927
     0.967936     27.277546     12.962130     27.128666     13.103305
     0.969539     27.159901     12.853225     27.010447     12.996080
     0.971142     27.039896     12.746924     26.890211     12.891244
     0.972745     26.918159     12.642923     26.768040     12.788838
     0.974349     26.794308     12.541611     26.643969     12.688914
     0.975952     26.668726     12.442649     26.518131     12.591456
     0.977555     26.541430     12.346314     26.390583     12.496515
     0.979158     26.412493     12.252316     26.261370     12.404071
     0.980762     26.281767     12.160886     26.130529     12.314183
     0.982365     26.149694     12.072083     25.998198     12.226867
     0.983968     26.016115     11.985879     25.864458     12.142121
     0.985571     25.881252     11.902089     25.729271     12.059979
     0.987174     25.744734     11.821103     25.592779     11.980431
     0.988778     25.607330     11.742556     25.455025     11.903481
     0.990381     25.468485     11.666751     25.316113     11.829190
     0.991984     25.328678     11.593451     25.176094     11.757505
     0.993587     25.187767     11.522773     25.035015     11.688485
     0.995190     25.045708     11.454865     24.892965     11.622114
     0.996794     24.902815     11.389523     24.749937     11.558385
     0.998397     24.759035     11.326818     24.606085     11.497319
     1.000000     24.614471     11.266726     24.461361     11.438923
# 
# 04/14/2017 at 09:03 YAMBO_RT @ anomaly [start]
# 04/14/2017 at 09:03                    [end]
#  
# Timing   [Min/Max/Average]: 10s/10s/10s
#
# .-Input file : yambo.in
# | optics                       # [R OPT] Optics
# | chi                          # [R CHI] Dyson equation for Chi.
# | BoseTemp=  0.02585     eV    # Bosonic Temperature
# | FFTGvecs= 1157         RL    # [FFT] Plane-waves
# | X_Threads= 1                 # [OPENMP/X] Number of threads for response functions
# | DIP_Threads= 1               # [OPENMP/X] Number of threads for dipoles
# | Chimod= "Hartree"            # [X] IP/Hartree/ALDA/LRC/BSfxc
# | NGsBlkXd= 13           RL    # [Xd] Response block size
# | % QpntsRXd
# |  1 | 1 |                     # [Xd] Transferred momenta
# | %
# | % BndsRnXd
# |   1 | 20 |                   # [Xd] Polarization function bands
# | %
# | GrFnTpXd= "R"                # [Xd] Green`s function (T)ordered,(R)etarded,(r)senant,(a)ntiresonant [T, R, r, Ta, Ra]
# | % EnRngeXd
# |  0.200000 | 1.000000 | eV    # [Xd] Energy range
# | %
# | % DmRngeXd
# |   0.10000 |  0.10000 | eV    # [Xd] Damping range
# | %
# | ETStpsXd=  500               # [Xd] Total Energy steps
# | % LongDrXd
# | 0.1000E-4 | 0.000    | 0.000    |        # [Xd] [cc] Electric Field
# | %
