#                                                                     
#   __   __     _        __  __       ____      U  ___  u             
#   \ \ / / U  /"\  U u |" \/ "| u U | __") u    \/"_ \/              
#    \ V /   \/ _ \/   \| |\/| |/   \|  _ \/     | | | |              
#   U_|"|_u  / ___ \    | |  | |     | |_) | .-,_| |_| |              
#     |_|   /_/   \_\   |_|  |_|     |____/   \_)-\___/               
# .-,//|(_   \\    >>  <<,-,,-.     _|| \\_        \\                 
#  \_) (__) (__)  (__)  (./  \.)   (__) (__)      (__)                
#                                                                     
#                                                                     
# Version 5.2.0 Revision 23132 Hash (prev commit) 0aefd4da0           
#            Branch is phys-levels_degeneracy                         
#              MPI+OpenMP+HDF5_MPI_IO Build                           
#                http://www.yambo-code.eu                             
#
# Off-diagonal Absorption @ Q(1):   1.00000000      0.00000000      0.00000000    [q->0 direction]
# [DIP] Rotation plane                            : xy
#
# [GEN] GF Energies                               : Perdew, Burke & Ernzerhof(X)+Perdew, Burke & Ernzerhof(C)
# [GEN] Green`s Function                          : Retarded
#
# [GEN] Gauge                                     : Length
# [GEN] [r,Vnl] included                          : yes
#
# DIP band range                                  :   5  14
# DIP band range limits                           :  14   5
# DIP e/h energy range                            :  -1.00000000     -1.00000000    [eV]
# RL vectors in the sum                           :   3525
# [r,Vnl] included                                : yes
# Bands ordered                                   : yes
# Direct v evaluation                             : no
# Approach used                                   : G-space v
# Dipoles computed                                : R V P
# Wavefunctions                                   : Perdew, Burke & Ernzerhof(X)+Perdew, Burke & Ernzerhof(C)
#
# Anomalous Hall effect (B_Hall)                  
# B_Hall (IP)                                     : -0.145222103E-6 [fs]^-1
#                                                 : -0.161581396E-3 [Ohm*cm]^-1
#                                                 :  -66.3814468    [e^2/hbar]
#
#    E[1] [eV]          Im(off)            Re(off)
#
        0.000000           0.000000           0.122344E-3
        0.010010           0.311725E-8        0.122470E-3
        0.020020           0.652043E-8        0.122411E-3
        0.030030           0.944795E-8        0.122534E-3
        0.040040           0.150423E-7        0.122479E-3
        0.050050           0.172096E-7        0.122350E-3
        0.060060           0.214729E-7        0.122679E-3
        0.070070           0.253567E-7        0.122589E-3
        0.080080           0.267664E-7        0.122388E-3
        0.090090           0.315103E-7        0.122404E-3
        0.100100           0.346376E-7        0.122421E-3
        0.110110           0.392907E-7        0.122568E-3
        0.120120           0.425179E-7        0.122387E-3
        0.130130           0.449863E-7        0.122531E-3
        0.140140           0.498379E-7        0.122392E-3
        0.150150           0.536451E-7        0.122438E-3
        0.160160           0.575511E-7        0.122240E-3
        0.170170           0.582233E-7        0.122057E-3
        0.180180           0.633745E-7        0.122242E-3
        0.190190           0.658636E-7        0.122163E-3
        0.200200           0.693095E-7        0.122351E-3
        0.210210           0.725693E-7        0.122128E-3
        0.220220           0.760243E-7        0.122079E-3
        0.230230           0.773898E-7        0.122170E-3
        0.240240           0.779986E-7        0.122265E-3
        0.250250           0.838501E-7        0.122432E-3
        0.260260           0.857081E-7        0.122328E-3
        0.270270           0.870009E-7        0.122264E-3
        0.280280           0.913469E-7        0.122239E-3
        0.290290           0.919858E-7        0.122248E-3
        0.300300           0.946313E-7        0.122312E-3
        0.310310           0.968078E-7        0.122308E-3
        0.320320           0.968966E-7        0.122627E-3
        0.330330           0.100326E-6        0.122749E-3
        0.340340           0.989066E-7        0.122340E-3
        0.350350           0.102066E-6        0.122673E-3
        0.360360           0.104377E-6        0.122315E-3
        0.370370           0.105268E-6        0.122295E-3
        0.380380           0.102265E-6        0.122456E-3
        0.390390           0.107078E-6        0.122536E-3
        0.400400           0.105997E-6        0.122519E-3
        0.410410           0.106069E-6        0.122537E-3
        0.420420           0.103199E-6        0.122383E-3
        0.430430           0.107196E-6        0.122860E-3
        0.440440           0.107204E-6        0.122812E-3
        0.450450           0.106175E-6        0.122615E-3
        0.460460           0.104872E-6        0.122565E-3
        0.470470           0.106914E-6        0.122788E-3
        0.480480           0.102112E-6        0.122547E-3
        0.490490           0.101606E-6        0.122520E-3
        0.500500           0.100543E-6        0.122702E-3
        0.510511           0.973971E-7        0.122250E-3
        0.520521           0.946458E-7        0.122803E-3
        0.530531           0.912416E-7        0.122675E-3
        0.540541           0.908032E-7        0.122691E-3
        0.550551           0.836187E-7        0.122824E-3
        0.560561           0.877798E-7        0.122571E-3
        0.570571           0.764357E-7        0.122493E-3
        0.580581           0.742479E-7        0.122816E-3
        0.590591           0.687433E-7        0.122763E-3
        0.600601           0.656356E-7        0.122842E-3
        0.610611           0.603545E-7        0.122575E-3
        0.620621           0.544239E-7        0.122655E-3
        0.630631           0.507010E-7        0.123007E-3
        0.640641           0.420448E-7        0.123072E-3
        0.650651           0.255036E-7        0.122817E-3
        0.660661           0.264062E-7        0.123166E-3
        0.670671           0.206629E-7        0.122809E-3
        0.680681           0.192241E-7        0.122954E-3
        0.690691          -0.95526E-10        0.122908E-3
        0.700701          -0.825386E-8        0.122666E-3
        0.710711          -0.194382E-7        0.123024E-3
        0.720721          -0.248877E-7        0.122819E-3
        0.730731          -0.400272E-7        0.122958E-3
        0.740741          -0.473361E-7        0.122821E-3
        0.750751          -0.585257E-7        0.122962E-3
        0.760761          -0.774043E-7        0.123052E-3
        0.770771          -0.881651E-7        0.123032E-3
        0.780781          -0.107566E-6        0.122987E-3
        0.790791          -0.116848E-6        0.123096E-3
        0.800801          -0.140863E-6        0.123360E-3
        0.810811          -0.155138E-6        0.123035E-3
        0.820821          -0.161484E-6        0.123171E-3
        0.830831          -0.183798E-6        0.123021E-3
        0.840841          -0.207893E-6        0.122868E-3
        0.850851          -0.223674E-6        0.122992E-3
        0.860861          -0.243806E-6        0.123296E-3
        0.870871          -0.269335E-6        0.123008E-3
        0.880881          -0.303877E-6        0.122841E-3
        0.890891          -0.324772E-6        0.122712E-3
        0.900901          -0.344682E-6        0.122710E-3
        0.910911          -0.371508E-6        0.122666E-3
        0.920921          -0.402490E-6        0.122722E-3
        0.930931          -0.428581E-6        0.122882E-3
        0.940941          -0.459873E-6        0.122821E-3
        0.950951          -0.498079E-6        0.123045E-3
        0.960961          -0.542912E-6        0.122917E-3
        0.970971          -0.551143E-6        0.122983E-3
        0.980981          -0.601516E-6        0.122607E-3
        0.990991          -0.641661E-6        0.122486E-3
        1.001001          -0.680049E-6        0.122640E-3
        1.011011          -0.723822E-6        0.122416E-3
        1.021021          -0.788310E-6        0.122282E-3
        1.031031          -0.830377E-6        0.122114E-3
        1.041041          -0.874779E-6        0.122227E-3
        1.051051          -0.921705E-6        0.122018E-3
        1.061061          -0.969440E-6        0.121694E-3
        1.071071          -0.102084E-5        0.122206E-3
        1.081081          -0.107742E-5        0.121933E-3
        1.091091          -0.114662E-5        0.121862E-3
        1.101101          -0.120177E-5        0.121746E-3
        1.111111          -0.127334E-5        0.121742E-3
        1.121121          -0.132428E-5        0.121542E-3
        1.131131          -0.139812E-5        0.121225E-3
        1.141141          -0.148351E-5        0.121191E-3
        1.151151          -0.158332E-5        0.121235E-3
        1.161161          -0.165136E-5        0.121287E-3
        1.171171          -0.174580E-5        0.120672E-3
        1.181181          -0.181790E-5        0.120721E-3
        1.191191          -0.193278E-5        0.120754E-3
        1.201201          -0.202160E-5        0.120377E-3
        1.211211          -0.214682E-5        0.119994E-3
        1.221221          -0.224816E-5        0.120114E-3
        1.231231          -0.234733E-5        0.119793E-3
        1.241241          -0.247919E-5        0.119729E-3
        1.251251          -0.260649E-5        0.119082E-3
        1.261261          -0.275028E-5        0.118956E-3
        1.271271          -0.290674E-5        0.118977E-3
        1.281281          -0.303475E-5        0.118660E-3
        1.291291          -0.317686E-5        0.118492E-3
        1.301301          -0.334754E-5        0.118142E-3
        1.311311          -0.351079E-5        0.117996E-3
        1.321321          -0.370023E-5        0.117711E-3
        1.331331          -0.388816E-5        0.116934E-3
        1.341341          -0.411187E-5        0.116895E-3
        1.351351          -0.430644E-5        0.116522E-3
        1.361361          -0.452491E-5        0.116161E-3
        1.371371          -0.478592E-5        0.115678E-3
        1.381381          -0.501587E-5        0.115260E-3
        1.391391          -0.529294E-5        0.114617E-3
        1.401401          -0.557665E-5        0.113608E-3
        1.411411          -0.587862E-5        0.114160E-3
        1.421421          -0.620932E-5        0.113394E-3
        1.431431          -0.651617E-5        0.112845E-3
        1.441441          -0.688116E-5        0.111968E-3
        1.451451          -0.725764E-5        0.111533E-3
        1.461461          -0.765044E-5        0.111011E-3
        1.471471          -0.807033E-5        0.110418E-3
        1.481481          -0.853607E-5        0.109413E-3
        1.491491          -0.902469E-5        0.108469E-3
        1.501501          -0.955876E-5        0.107631E-3
        1.511511          -0.101388E-4        0.107130E-3
        1.521521          -0.107649E-4        0.105966E-3
        1.531531          -0.115020E-4        0.105280E-3
        1.541541          -0.122206E-4        0.104168E-3
        1.551551          -0.131009E-4        0.102931E-3
        1.561561          -0.140632E-4        0.101896E-3
        1.571571          -0.151155E-4        0.100645E-3
        1.581581          -0.163181E-4        0.997385E-4
        1.591591          -0.176465E-4        0.987566E-4
        1.601601          -0.191491E-4        0.974778E-4
        1.611611          -0.207976E-4        0.956619E-4
        1.621622          -0.225810E-4        0.941625E-4
        1.631632          -0.245819E-4        0.929984E-4
        1.641642          -0.267922E-4        0.919442E-4
        1.651652          -0.291084E-4        0.906672E-4
        1.661662          -0.317381E-4        0.903913E-4
        1.671672          -0.344535E-4        0.892152E-4
        1.681682          -0.373425E-4        0.888998E-4
        1.691692          -0.403846E-4        0.887573E-4
        1.701702          -0.433641E-4        0.886346E-4
        1.711712          -0.462691E-4        0.894247E-4
        1.721722          -0.489079E-4        0.899673E-4
        1.731732          -0.512936E-4        0.907832E-4
        1.741742          -0.533055E-4        0.924245E-4
        1.751752          -0.549590E-4        0.930173E-4
        1.761762          -0.562763E-4        0.935966E-4
        1.771772          -0.573479E-4        0.937310E-4
        1.781782          -0.583919E-4        0.942188E-4
        1.791792          -0.594806E-4        0.941741E-4
        1.801802          -0.606933E-4        0.933700E-4
        1.811812          -0.622185E-4        0.929512E-4
        1.821822          -0.640843E-4        0.912316E-4
        1.831832          -0.660906E-4        0.910825E-4
        1.841842          -0.683803E-4        0.906173E-4
        1.851852          -0.707296E-4        0.899670E-4
        1.861862          -0.731309E-4        0.885081E-4
        1.871872          -0.753110E-4        0.888804E-4
        1.881882          -0.772756E-4        0.884751E-4
        1.891892          -0.789129E-4        0.878945E-4
        1.901902          -0.802474E-4        0.877069E-4
        1.911912          -0.815033E-4        0.867138E-4
        1.921922          -0.826059E-4        0.846787E-4
        1.931932          -0.839841E-4        0.825181E-4
        1.941942          -0.855508E-4        0.789454E-4
        1.951952          -0.875331E-4        0.750846E-4
        1.961962          -0.900534E-4        0.708183E-4
        1.971972          -0.931961E-4        0.649364E-4
        1.981982          -0.968475E-4        0.597669E-4
        1.991992          -0.101612E-3        0.540616E-4
        2.002002          -0.106973E-3        0.476007E-4
        2.012012          -0.113063E-3        0.406788E-4
        2.022022          -0.120488E-3        0.338208E-4
        2.032032          -0.128578E-3        0.253139E-4
        2.042042          -0.138088E-3        0.170874E-4
        2.052052          -0.148912E-3        0.863551E-5
        2.062062          -0.160944E-3        0.510809E-6
        2.072072          -0.174766E-3       -0.897399E-5
        2.082082          -0.190599E-3       -0.184899E-4
        2.092092          -0.208277E-3       -0.291359E-4
        2.102102          -0.228230E-3       -0.394815E-4
        2.112112          -0.250868E-3       -0.491229E-4
        2.122122          -0.276938E-3       -0.602973E-4
        2.132132          -0.306298E-3       -0.712718E-4
        2.142142          -0.339137E-3       -0.814292E-4
        2.152152          -0.377370E-3       -0.900417E-4
        2.162162          -0.420730E-3       -0.964371E-4
        2.172172          -0.470329E-3       -0.100448E-3
        2.182182          -0.525642E-3       -0.103169E-3
        2.192192          -0.589702E-3       -0.102108E-3
        2.202202          -0.661301E-3       -0.921120E-4
        2.212212          -0.742188E-3       -0.745869E-4
        2.222222          -0.832037E-3       -0.458902E-4
        2.232232          -0.932201E-3       -0.314786E-5
        2.242242          -0.001042           0.606228E-4
        2.252252          -0.001157           0.148183E-3
        2.262262          -0.001275           0.270593E-3
        2.272272          -0.001387           0.429427E-3
        2.282282          -0.001484           0.635244E-3
        2.292292          -0.001549           0.885374E-3
        2.302302          -0.001557           0.001180
        2.312312          -0.001493           0.001507
        2.322322          -0.001333           0.001840
        2.332332          -0.001068           0.002144
        2.342342          -0.709944E-3        0.002375
        2.352352          -0.285943E-3        0.002498
        2.362362           0.154387E-3        0.002490
        2.372372           0.566338E-3        0.002357
        2.382382           0.904397E-3        0.002126
        2.392392           0.001143           0.001836
        2.402402           0.001283           0.001527
        2.412412           0.001338           0.001231
        2.422422           0.001326           0.970015E-3
        2.432432           0.001269           0.750448E-3
        2.442442           0.001186           0.575200E-3
        2.452452           0.001091           0.439094E-3
        2.462462           0.992852E-3        0.336912E-3
        2.472472           0.897183E-3        0.263786E-3
        2.482482           0.806718E-3        0.211581E-3
        2.492492           0.725703E-3        0.176317E-3
        2.502502           0.653562E-3        0.154287E-3
        2.512512           0.589637E-3        0.141461E-3
        2.522522           0.534425E-3        0.136184E-3
        2.532532           0.485675E-3        0.136043E-3
        2.542542           0.444036E-3        0.139272E-3
        2.552552           0.408452E-3        0.146454E-3
        2.562562           0.377664E-3        0.154962E-3
        2.572572           0.353115E-3        0.164491E-3
        2.582582           0.332046E-3        0.174292E-3
        2.592592           0.315734E-3        0.184808E-3
        2.602602           0.302905E-3        0.194431E-3
        2.612612           0.293908E-3        0.203982E-3
        2.622622           0.287809E-3        0.212629E-3
        2.632632           0.285269E-3        0.221135E-3
        2.642642           0.285350E-3        0.227064E-3
        2.652653           0.288422E-3        0.231494E-3
        2.662663           0.293660E-3        0.232863E-3
        2.672673           0.301465E-3        0.231521E-3
        2.682683           0.311227E-3        0.225463E-3
        2.692693           0.322211E-3        0.215044E-3
        2.702703           0.333773E-3        0.198679E-3
        2.712713           0.343791E-3        0.175146E-3
        2.722723           0.350657E-3        0.144543E-3
        2.732733           0.351022E-3        0.104937E-3
        2.742743           0.341136E-3        0.584968E-4
        2.752753           0.316947E-3        0.843316E-5
        2.762763           0.275159E-3       -0.415438E-4
        2.772773           0.215313E-3       -0.837551E-4
        2.782783           0.139988E-3       -0.110796E-3
        2.792793           0.553596E-4       -0.116090E-3
        2.802803          -0.301742E-4       -0.981276E-4
        2.812813          -0.107823E-3       -0.581706E-4
        2.822823          -0.171121E-3       -0.209069E-5
        2.832833          -0.217246E-3        0.626087E-4
        2.842843          -0.247289E-3        0.130254E-3
        2.852853          -0.263727E-3        0.195582E-3
        2.862863          -0.270619E-3        0.256851E-3
        2.872873          -0.271155E-3        0.312507E-3
        2.882883          -0.268189E-3        0.364583E-3
        2.892893          -0.263647E-3        0.413829E-3
        2.902903          -0.258074E-3        0.462336E-3
        2.912913          -0.251859E-3        0.511644E-3
        2.922923          -0.243757E-3        0.564762E-3
        2.932933          -0.232345E-3        0.622232E-3
        2.942943          -0.214066E-3        0.685556E-3
        2.952953          -0.185306E-3        0.756044E-3
        2.962963          -0.141492E-3        0.828001E-3
        2.972973          -0.781439E-4        0.900953E-3
        2.982983           0.618394E-5        0.964604E-3
        2.992993           0.110953E-3        0.001011
        3.003003           0.229756E-3        0.001032
        3.013013           0.352947E-3        0.001023
        3.023023           0.469946E-3        0.982967E-3
        3.033033           0.570945E-3        0.918557E-3
        3.043043           0.650774E-3        0.836539E-3
        3.053053           0.707249E-3        0.743095E-3
        3.063063           0.741563E-3        0.643968E-3
        3.073073           0.756009E-3        0.547770E-3
        3.083083           0.751535E-3        0.452930E-3
        3.093093           0.730092E-3        0.363385E-3
        3.103103           0.689918E-3        0.278778E-3
        3.113113           0.630447E-3        0.203941E-3
        3.123123           0.553392E-3        0.145570E-3
        3.133133           0.461270E-3        0.108201E-3
        3.143143           0.357972E-3        0.973922E-4
        3.153153           0.253579E-3        0.115034E-3
        3.163163           0.155142E-3        0.167300E-3
        3.173173           0.722310E-4        0.246205E-3
        3.183183           0.124913E-4        0.349602E-3
        3.193193          -0.199547E-4        0.471218E-3
        3.203203          -0.172143E-4        0.602771E-3
        3.213213           0.220313E-4        0.737492E-3
        3.223223           0.100684E-3        0.861670E-3
        3.233233           0.214321E-3        0.964359E-3
        3.243243           0.354656E-3        0.001032
        3.253253           0.506176E-3        0.001058
        3.263263           0.654431E-3        0.001045
        3.273273           0.786780E-3        0.998014E-3
        3.283283           0.895095E-3        0.927175E-3
        3.293293           0.976481E-3        0.847870E-3
        3.303303           0.001035           0.769918E-3
        3.313313           0.001076           0.696940E-3
        3.323323           0.001110           0.634892E-3
        3.333333           0.001143           0.578910E-3
        3.343343           0.001175           0.530775E-3
        3.353353           0.001216           0.485665E-3
        3.363363           0.001264           0.437612E-3
        3.373373           0.001320           0.382525E-3
        3.383383           0.001386           0.315836E-3
        3.393393           0.001459           0.229873E-3
        3.403403           0.001531           0.119641E-3
        3.413413           0.001597          -0.220433E-4
        3.423423           0.001644          -0.197622E-3
        3.433433           0.001661          -0.407648E-3
        3.443443           0.001626          -0.644861E-3
        3.453453           0.001527          -0.892022E-3
        3.463463           0.001350          -0.001126
        3.473473           0.001097          -0.001313
        3.483483           0.790965E-3       -0.001425
        3.493493           0.462045E-3       -0.001441
        3.503503           0.149070E-3       -0.001361
        3.513513          -0.116590E-3       -0.001200
        3.523524          -0.310063E-3       -0.985078E-3
        3.533533          -0.426432E-3       -0.749424E-3
        3.543543          -0.471230E-3       -0.517744E-3
        3.553553          -0.463877E-3       -0.308490E-3
        3.563564          -0.416173E-3       -0.130778E-3
        3.573573          -0.342625E-3        0.121359E-4
        3.583583          -0.254239E-3        0.124829E-3
        3.593593          -0.159067E-3        0.207597E-3
        3.603603          -0.640671E-4        0.268739E-3
        3.613613           0.300108E-4        0.308611E-3
        3.623623           0.120832E-3        0.331439E-3
        3.633634           0.207454E-3        0.339375E-3
        3.643643           0.289423E-3        0.336797E-3
        3.653653           0.366040E-3        0.320355E-3
        3.663663           0.435494E-3        0.293234E-3
        3.673674           0.498451E-3        0.255942E-3
        3.683683           0.551546E-3        0.211981E-3
        3.693693           0.595289E-3        0.161656E-3
        3.703704           0.630453E-3        0.106168E-3
        3.713714           0.657766E-3        0.497552E-4
        3.723723           0.678600E-3       -0.108218E-4
        3.733733           0.693686E-3       -0.734337E-4
        3.743744           0.701708E-3       -0.142761E-3
        3.753754           0.700542E-3       -0.218012E-3
        3.763763           0.684767E-3       -0.299687E-3
        3.773773           0.649256E-3       -0.384895E-3
        3.783784           0.589163E-3       -0.467095E-3
        3.793794           0.504405E-3       -0.533902E-3
        3.803803           0.401161E-3       -0.577141E-3
        3.813814           0.289875E-3       -0.587939E-3
        3.823824           0.184431E-3       -0.564174E-3
        3.833834           0.969365E-4       -0.516853E-3
        3.843843           0.336578E-4       -0.453858E-3
        3.853854          -0.461667E-5       -0.385896E-3
        3.863864          -0.216829E-4       -0.326046E-3
        3.873873          -0.245298E-4       -0.275833E-3
        3.883883          -0.213994E-4       -0.239018E-3
        3.893894          -0.182136E-4       -0.211201E-3
        3.903904          -0.196685E-4       -0.192546E-3
        3.913913          -0.256119E-4       -0.174686E-3
        3.923924          -0.349563E-4       -0.152764E-3
        3.933934          -0.446861E-4       -0.127510E-3
        3.943944          -0.508250E-4       -0.976912E-4
        3.953954          -0.516758E-4       -0.667818E-4
        3.963964          -0.465568E-4       -0.358874E-4
        3.973974          -0.357132E-4       -0.702166E-5
        3.983984          -0.204845E-4        0.172559E-4
        3.993994          -0.190555E-5        0.378419E-4
        4.004004           0.186859E-4        0.511243E-4
        4.014014           0.364440E-4        0.606305E-4
        4.024024           0.543145E-4        0.665281E-4
        4.034034           0.696656E-4        0.716924E-4
        4.044044           0.866357E-4        0.766430E-4
        4.054054           0.107703E-3        0.782647E-4
        4.064064           0.132733E-3        0.736423E-4
        4.074074           0.160017E-3        0.573323E-4
        4.084084           0.182705E-3        0.258198E-4
        4.094094           0.191915E-3       -0.210804E-4
        4.104104           0.178976E-3       -0.776421E-4
        4.114114           0.137620E-3       -0.133551E-3
        4.124124           0.674687E-4       -0.174633E-3
        4.134134          -0.239384E-4       -0.187957E-3
        4.144144          -0.122826E-3       -0.165216E-3
        4.154154          -0.214269E-3       -0.105893E-3
        4.164164          -0.283744E-3       -0.171215E-4
        4.174174          -0.323423E-3        0.898256E-4
        4.184184          -0.331645E-3        0.202497E-3
        4.194194          -0.312138E-3        0.310190E-3
        4.204204          -0.269989E-3        0.406726E-3
        4.214214          -0.211984E-3        0.488835E-3
        4.224224          -0.143170E-3        0.555579E-3
        4.234234          -0.680039E-4        0.607923E-3
        4.244244           0.108711E-4        0.646884E-3
        4.254254           0.918566E-4        0.673876E-3
        4.264264           0.173405E-3        0.689729E-3
        4.274274           0.254621E-3        0.695011E-3
        4.284284           0.334591E-3        0.689721E-3
        4.294294           0.412520E-3        0.675552E-3
        4.304304           0.487438E-3        0.651315E-3
        4.314314           0.558622E-3        0.618975E-3
        4.324324           0.625522E-3        0.578307E-3
        4.334334           0.687444E-3        0.530094E-3
        4.344344           0.743769E-3        0.472481E-3
        4.354354           0.793105E-3        0.406857E-3
        4.364364           0.832982E-3        0.331818E-3
        4.374374           0.860239E-3        0.247882E-3
        4.384384           0.871108E-3        0.157608E-3
        4.394394           0.861946E-3        0.656340E-4
        4.404404           0.830193E-3       -0.220027E-4
        4.414414           0.778618E-3       -0.977211E-4
        4.424424           0.709744E-3       -0.153463E-3
        4.434434           0.631880E-3       -0.184788E-3
        4.444444           0.554628E-3       -0.189322E-3
        4.454454           0.486605E-3       -0.170078E-3
        4.464464           0.436256E-3       -0.131759E-3
        4.474474           0.408090E-3       -0.839043E-4
        4.484484           0.402975E-3       -0.340437E-4
        4.494494           0.418373E-3        0.757149E-5
        4.504504           0.448236E-3        0.354986E-4
        4.514514           0.485440E-3        0.467677E-4
        4.524524           0.522533E-3        0.410098E-4
        4.534534           0.552500E-3        0.213488E-4
        4.544544           0.570830E-3       -0.785913E-5
        4.554554           0.575265E-3       -0.375978E-4
        4.564565           0.568892E-3       -0.616149E-4
        4.574574           0.556889E-3       -0.755106E-4
        4.584584           0.547258E-3       -0.783321E-4
        4.594594           0.545566E-3       -0.729434E-4
        4.604605           0.555186E-3       -0.667647E-4
        4.614614           0.575442E-3       -0.651618E-4
        4.624624           0.602493E-3       -0.742439E-4
        4.634634           0.630293E-3       -0.953846E-4
        4.644644           0.654370E-3       -0.127993E-3
        4.654655           0.668878E-3       -0.169642E-3
        4.664664           0.672124E-3       -0.214731E-3
        4.674675           0.664931E-3       -0.259007E-3
        4.684684           0.648947E-3       -0.297408E-3
        4.694695           0.628962E-3       -0.330202E-3
        4.704704           0.608607E-3       -0.356715E-3
        4.714715           0.588806E-3       -0.381124E-3
        4.724724           0.569885E-3       -0.405261E-3
        4.734735           0.549341E-3       -0.430582E-3
        4.744744           0.524198E-3       -0.456926E-3
        4.754755           0.491950E-3       -0.480680E-3
        4.764764           0.453940E-3       -0.498489E-3
        4.774775           0.412975E-3       -0.504613E-3
        4.784785           0.375475E-3       -0.498965E-3
        4.794795           0.348789E-3       -0.483201E-3
        4.804804           0.337707E-3       -0.465060E-3
        4.814815           0.342926E-3       -0.454469E-3
        4.824825           0.359780E-3       -0.460526E-3
        4.834835           0.378979E-3       -0.489181E-3
        4.844844           0.387360E-3       -0.542571E-3
        4.854855           0.371220E-3       -0.616627E-3
        4.864865           0.320100E-3       -0.698999E-3
        4.874875           0.228994E-3       -0.771303E-3
        4.884884           0.102835E-3       -0.816499E-3
        4.894895          -0.451430E-4       -0.819386E-3
        4.904905          -0.194896E-3       -0.771490E-3
        4.914915          -0.326435E-3       -0.678604E-3
        4.924924          -0.424644E-3       -0.551658E-3
        4.934935          -0.482187E-3       -0.406416E-3
        4.944945          -0.500691E-3       -0.259121E-3
        4.954955          -0.485794E-3       -0.120007E-3
        4.964964          -0.444562E-3        0.470027E-5
        4.974975          -0.385028E-3        0.112379E-3
        4.984985          -0.313083E-3        0.202851E-3
        4.994995          -0.232765E-3        0.277241E-3
        5.005005          -0.146457E-3        0.338783E-3
        5.015015          -0.550385E-4        0.387683E-3
        5.025025           0.414980E-4        0.424966E-3
        5.035035           0.142995E-3        0.450700E-3
        5.045045           0.249799E-3        0.463431E-3
        5.055055           0.361465E-3        0.461917E-3
        5.065065           0.476891E-3        0.443848E-3
        5.075075           0.594446E-3        0.407261E-3
        5.085085           0.710482E-3        0.350064E-3
        5.095095           0.822180E-3        0.271598E-3
        5.105105           0.926164E-3        0.171119E-3
        5.115115           0.001019           0.474766E-4
        5.125125           0.001095          -0.996134E-4
        5.135135           0.001150          -0.271565E-3
        5.145144           0.001174          -0.467220E-3
        5.155155           0.001157          -0.683805E-3
        5.165165           0.001086          -0.911685E-3
        5.175175           0.950834E-3       -0.001134
        5.185184           0.747765E-3       -0.001326
        5.195195           0.486552E-3       -0.001460
        5.205205           0.189966E-3       -0.001515
        5.215215          -0.109348E-3       -0.001481
        5.225225          -0.377846E-3       -0.001363
        5.235235          -0.589860E-3       -0.001184
        5.245245          -0.732193E-3       -0.970027E-3
        5.255255          -0.805693E-3       -0.749357E-3
        5.265265          -0.820618E-3       -0.543627E-3
        5.275275          -0.792275E-3       -0.365038E-3
        5.285285          -0.736510E-3       -0.219031E-3
        5.295295          -0.666099E-3       -0.104354E-3
        5.305305          -0.590981E-3       -0.177191E-4
        5.315315          -0.516744E-3        0.463908E-4
        5.325325          -0.446659E-3        0.935950E-4
        5.335335          -0.382546E-3        0.128042E-3
        5.345345          -0.324069E-3        0.152871E-3
        5.355355          -0.271588E-3        0.171207E-3
        5.365365          -0.223906E-3        0.184256E-3
        5.375375          -0.180546E-3        0.193832E-3
        5.385385          -0.140527E-3        0.201343E-3
        5.395395          -0.103032E-3        0.206605E-3
        5.405405          -0.681655E-4        0.209838E-3
        5.415415          -0.346962E-4        0.211759E-3
        5.425425          -0.312762E-5        0.212251E-3
        5.435435           0.275715E-4        0.210806E-3
        5.445445           0.566307E-4        0.208116E-3
        5.455455           0.843844E-4        0.203904E-3
        5.465465           0.110791E-3        0.198556E-3
        5.475475           0.135733E-3        0.192621E-3
        5.485485           0.159910E-3        0.185703E-3
        5.495495           0.183335E-3        0.178023E-3
        5.505505           0.205725E-3        0.169661E-3
        5.515515           0.227964E-3        0.160243E-3
        5.525526           0.249117E-3        0.150015E-3
        5.535535           0.269611E-3        0.138644E-3
        5.545545           0.288928E-3        0.126655E-3
        5.555555           0.307374E-3        0.114205E-3
        5.565566           0.325238E-3        0.101683E-3
        5.575575           0.343088E-3        0.890962E-4
        5.585585           0.361166E-3        0.762709E-4
        5.595595           0.380240E-3        0.626767E-4
        5.605606           0.400147E-3        0.476225E-4
        5.615615           0.420935E-3        0.307299E-4
        5.625625           0.442084E-3        0.110508E-4
        5.635635           0.463122E-3       -0.114015E-4
        5.645645           0.483614E-3       -0.369789E-4
        5.655655           0.503277E-3       -0.656974E-4
        5.665665           0.521548E-3       -0.978049E-4
        5.675675           0.538491E-3       -0.133316E-3
        5.685685           0.553665E-3       -0.173198E-3
        5.695695           0.566115E-3       -0.218016E-3
        5.705705           0.574284E-3       -0.268377E-3
        5.715715           0.575730E-3       -0.324967E-3
        5.725725           0.568167E-3       -0.386481E-3
        5.735735           0.548240E-3       -0.450699E-3
        5.745746           0.513712E-3       -0.514237E-3
        5.755755           0.464580E-3       -0.571681E-3
        5.765765           0.402755E-3       -0.617795E-3
        5.775775           0.332034E-3       -0.648403E-3
        5.785786           0.258741E-3       -0.662127E-3
        5.795795           0.188257E-3       -0.659444E-3
        5.805805           0.125332E-3       -0.643864E-3
        5.815815           0.719085E-4       -0.619166E-3
        5.825826           0.286585E-4       -0.588993E-3
        5.835835          -0.608618E-5       -0.556187E-3
        5.845845          -0.320305E-4       -0.522705E-3
        5.855855          -0.510028E-4       -0.489371E-3
        5.865866          -0.635814E-4       -0.457080E-3
        5.875876          -0.691465E-4       -0.426708E-3
        5.885885          -0.691504E-4       -0.399730E-3
        5.895895          -0.640489E-4       -0.377306E-3
        5.905906          -0.552117E-4       -0.361413E-3
        5.915915          -0.455915E-4       -0.352091E-3
        5.925925          -0.379195E-4       -0.349976E-3
        5.935935          -0.343061E-4       -0.352122E-3
        5.945946          -0.363351E-4       -0.356880E-3
        5.955956          -0.434106E-4       -0.360357E-3
        5.965966          -0.532738E-4       -0.361102E-3
        5.975976          -0.641072E-4       -0.357903E-3
        5.985986          -0.726212E-4       -0.352305E-3
        5.995996          -0.788354E-4       -0.345179E-3
        6.006006          -0.820529E-4       -0.339766E-3
        6.016016          -0.824348E-4       -0.336942E-3
        6.026026          -0.825412E-4       -0.338327E-3
        6.036036          -0.841153E-4       -0.345074E-3
        6.046046          -0.902674E-4       -0.357253E-3
        6.056056          -0.104321E-3       -0.372593E-3
        6.066066          -0.128242E-3       -0.387406E-3
        6.076076          -0.162506E-3       -0.397105E-3
        6.086086          -0.204770E-3       -0.396740E-3
        6.096096          -0.250355E-3       -0.382496E-3
        6.106106          -0.293108E-3       -0.354400E-3
        6.116116          -0.327847E-3       -0.314479E-3
        6.126126          -0.350921E-3       -0.267257E-3
        6.136136          -0.361481E-3       -0.217281E-3
        6.146146          -0.360811E-3       -0.168663E-3
        6.156156          -0.350480E-3       -0.124952E-3
        6.166166          -0.333559E-3       -0.875239E-4
        6.176176          -0.312324E-3       -0.569234E-4
        6.186186          -0.289131E-3       -0.334481E-4
        6.196196          -0.266128E-3       -0.160899E-4
        6.206206          -0.244416E-3       -0.379768E-5
        6.216216          -0.224914E-3        0.461213E-5
        6.226226          -0.208014E-3        0.943759E-5
        6.236236          -0.193884E-3        0.131440E-4
        6.246246          -0.182547E-3        0.154504E-4
        6.256256          -0.173582E-3        0.181871E-4
        6.266266          -0.166627E-3        0.212870E-4
        6.276276          -0.161265E-3        0.251656E-4
        6.286286          -0.156998E-3        0.307500E-4
        6.296296          -0.153122E-3        0.377125E-4
        6.306306          -0.149155E-3        0.462906E-4
        6.316316          -0.144382E-3        0.562927E-4
        6.326326          -0.138292E-3        0.678190E-4
        6.336336          -0.130467E-3        0.799127E-4
        6.346346          -0.120586E-3        0.922556E-4
        6.356356          -0.108671E-3        0.104509E-3
        6.366366          -0.948765E-4        0.115747E-3
        6.376376          -0.793856E-4        0.125482E-3
        6.386386          -0.626610E-4        0.133912E-3
        6.396396          -0.450763E-4        0.140503E-3
        6.406406          -0.269731E-4        0.145435E-3
        6.416416          -0.865897E-5        0.148706E-3
        6.426426           0.955957E-5        0.150649E-3
        6.436436           0.275594E-4        0.151196E-3
        6.446446           0.453355E-4        0.151055E-3
        6.456456           0.631241E-4        0.150375E-3
        6.466466           0.812234E-4        0.149259E-3
        6.476476           0.100164E-3        0.147463E-3
        6.486486           0.120336E-3        0.144832E-3
        6.496496           0.142021E-3        0.140675E-3
        6.506506           0.165146E-3        0.134263E-3
        6.516516           0.189525E-3        0.124656E-3
        6.526526           0.214471E-3        0.111114E-3
        6.536536           0.238776E-3        0.928128E-4
        6.546546           0.261179E-3        0.695162E-4
        6.556556           0.279651E-3        0.418988E-4
        6.566566           0.293009E-3        0.108279E-4
        6.576576           0.299757E-3       -0.214529E-4
        6.586586           0.300018E-3       -0.524849E-4
        6.596596           0.295530E-3       -0.798052E-4
        6.606606           0.288560E-3       -0.101919E-3
        6.616616           0.282212E-3       -0.118800E-3
        6.626626           0.279467E-3       -0.132709E-3
        6.636636           0.281201E-3       -0.146463E-3
        6.646646           0.287988E-3       -0.163065E-3
        6.656656           0.297719E-3       -0.185850E-3
        6.666666           0.307480E-3       -0.217174E-3
        6.676676           0.313748E-3       -0.258326E-3
        6.686686           0.311673E-3       -0.309113E-3
        6.696696           0.296221E-3       -0.367206E-3
        6.706707           0.262670E-3       -0.427695E-3
        6.716716           0.209255E-3       -0.483316E-3
        6.726726           0.137200E-3       -0.525741E-3
        6.736736           0.516885E-4       -0.547073E-3
        6.746747          -0.377528E-4       -0.542964E-3
        6.756756          -0.121537E-3       -0.513600E-3
        6.766766          -0.190229E-3       -0.464190E-3
        6.776776          -0.239640E-3       -0.402448E-3
        6.786787          -0.268484E-3       -0.336674E-3
        6.796796          -0.279445E-3       -0.273519E-3
        6.806807          -0.276413E-3       -0.217521E-3
        6.816816          -0.263633E-3       -0.170460E-3
        6.826826          -0.245234E-3       -0.132758E-3
        6.836837          -0.224367E-3       -0.103817E-3
        6.846846          -0.202915E-3       -0.825714E-4
        6.856857          -0.182487E-3       -0.674454E-4
        6.866867          -0.163986E-3       -0.571945E-4
        6.876876          -0.147665E-3       -0.506281E-4
        6.886887          -0.133663E-3       -0.467673E-4
        6.896896          -0.122147E-3       -0.448373E-4
        6.906906          -0.112797E-3       -0.439510E-4
        6.916917          -0.105630E-3       -0.439734E-4
        6.926927          -0.100372E-3       -0.446036E-4
        6.936936          -0.971971E-4       -0.453136E-4
        6.946947          -0.961603E-4       -0.455595E-4
        6.956956          -0.970114E-4       -0.446412E-4
        6.966967          -0.996128E-4       -0.420884E-4
        6.976976          -0.102931E-3       -0.368876E-4
        6.986986          -0.106058E-3       -0.290043E-4
        6.996997          -0.107813E-3       -0.185144E-4
        7.007007          -0.107303E-3       -0.624633E-5
        7.017016          -0.104183E-3        0.705690E-5
        7.027027          -0.980044E-4        0.205212E-4
        7.037036          -0.892211E-4        0.332219E-4
        7.047047          -0.779727E-4        0.447324E-4
        7.057057          -0.647369E-4        0.542035E-4
        7.067066          -0.500194E-4        0.615587E-4
        7.077077          -0.343075E-4        0.664046E-4
        7.087087          -0.183293E-4        0.686493E-4
        7.097096          -0.267523E-5        0.684645E-4
        7.107107           0.121966E-4        0.663185E-4
        7.117116           0.260373E-4        0.625796E-4
        7.127127           0.388867E-4        0.577468E-4
        7.137137           0.509392E-4        0.520314E-4
        7.147147           0.622534E-4        0.452969E-4
        7.157157           0.730355E-4        0.378121E-4
        7.167167           0.832465E-4        0.292234E-4
        7.177176           0.928495E-4        0.193355E-4
        7.187187           0.101690E-3        0.786490E-5
        7.197196           0.109039E-3       -0.500710E-5
        7.207206           0.114698E-3       -0.195415E-4
        7.217217           0.117634E-3       -0.354005E-4
        7.227227           0.117387E-3       -0.516106E-4
        7.237237           0.113666E-3       -0.676382E-4
        7.247247           0.106677E-3       -0.818031E-4
        7.257257           0.971428E-4       -0.932545E-4
        7.267267           0.862139E-4       -0.101316E-3
        7.277277           0.750911E-4       -0.105848E-3
        7.287286           0.650584E-4       -0.107166E-3
        7.297297           0.575523E-4       -0.106801E-3
        7.307307           0.519795E-4       -0.105259E-3
        7.317317           0.489481E-4       -0.104154E-3
        7.327327           0.472255E-4       -0.104012E-3
        7.337337           0.466058E-4       -0.105454E-3
        7.347347           0.460438E-4       -0.108905E-3
        7.357357           0.445606E-4       -0.114203E-3
        7.367367           0.411029E-4       -0.121230E-3
        7.377377           0.347398E-4       -0.128845E-3
        7.387387           0.248434E-4       -0.135658E-3
        7.397398           0.116369E-4       -0.140118E-3
        7.407407          -0.387054E-5       -0.140552E-3
        7.417417          -0.199032E-4       -0.135855E-3
        7.427427          -0.344085E-4       -0.125884E-3
        7.437437          -0.451090E-4       -0.111964E-3
        7.447447          -0.508754E-4       -0.954585E-4
        7.457457          -0.513333E-4       -0.785844E-4
        7.467467          -0.466921E-4       -0.632164E-4
        7.477477          -0.385165E-4       -0.506499E-4
        7.487487          -0.276943E-4       -0.419099E-4
        7.497497          -0.155869E-4       -0.367439E-4
        7.507507          -0.350176E-5       -0.352558E-4
        7.517517           0.793506E-5       -0.369554E-4
        7.527527           0.181235E-4       -0.414525E-4
        7.537537           0.266130E-4       -0.483251E-4
        7.547547           0.330016E-4       -0.570633E-4
        7.557557           0.369801E-4       -0.674152E-4
        7.567567           0.380592E-4       -0.787928E-4
        7.577577           0.358324E-4       -0.906207E-4
        7.587587           0.299931E-4       -0.101945E-3
        7.597597           0.206292E-4       -0.111357E-3
        7.607607           0.839959E-5       -0.117894E-3
        7.617618          -0.563688E-5       -0.120395E-3
        7.627627          -0.195021E-4       -0.118321E-3
        7.637637          -0.319272E-4       -0.112483E-3
        7.647647          -0.415621E-4       -0.103686E-3
        7.657657          -0.479952E-4       -0.933465E-4
        7.667667          -0.513294E-4       -0.827858E-4
        7.677677          -0.521750E-4       -0.730825E-4
        7.687687          -0.513471E-4       -0.645574E-4
        7.697698          -0.493849E-4       -0.568697E-4
        7.707707          -0.468748E-4       -0.502853E-4
        7.717717          -0.438979E-4       -0.445090E-4
        7.727727          -0.405856E-4       -0.391856E-4
        7.737737          -0.367903E-4       -0.343604E-4
        7.747747          -0.325302E-4       -0.299082E-4
        7.757757          -0.278620E-4       -0.261217E-4
        7.767767          -0.226382E-4       -0.229334E-4
        7.777778          -0.170841E-4       -0.204331E-4
        7.787787          -0.110882E-4       -0.185607E-4
        7.797797          -0.484738E-5       -0.175381E-4
        7.807807           0.165761E-5       -0.172724E-4
        7.817817           0.840740E-5       -0.180779E-4
        7.827827           0.153259E-4       -0.197533E-4
        7.837838           0.223296E-4       -0.227756E-4
        7.847847           0.292921E-4       -0.270196E-4
        7.857858           0.360036E-4       -0.329939E-4
        7.867867           0.419632E-4       -0.407364E-4
        7.877877           0.467157E-4       -0.506541E-4
        7.887887           0.494685E-4       -0.624966E-4
        7.897897           0.492728E-4       -0.759953E-4
        7.907907           0.451777E-4       -0.902180E-4
        7.917918           0.366261E-4       -0.103950E-3
        7.927927           0.236076E-4       -0.115404E-3
        7.937938           0.689323E-5       -0.122789E-3
        7.947948          -0.117082E-4       -0.124841E-3
        7.957957          -0.299858E-4       -0.120942E-3
        7.967968          -0.458660E-4       -0.112196E-3
        7.977977          -0.579572E-4       -0.996208E-4
        7.987987          -0.655841E-4       -0.853681E-4
        7.997998          -0.688919E-4       -0.705984E-4
        8.008007          -0.686119E-4       -0.571664E-4
        8.018017          -0.656583E-4       -0.452730E-4
        8.028028          -0.609021E-4       -0.354686E-4
        8.038037          -0.550995E-4       -0.276787E-4
        8.048048          -0.487953E-4       -0.216047E-4
        8.058058          -0.423374E-4       -0.172969E-4
        8.068068          -0.359877E-4       -0.143049E-4
        8.078078          -0.298897E-4       -0.123557E-4
        8.088087          -0.242578E-4       -0.114519E-4
        8.098097          -0.189648E-4       -0.114330E-4
        8.108108          -0.141654E-4       -0.119865E-4
        8.118117          -0.995092E-5       -0.131981E-4
        8.128128          -0.629538E-5       -0.148155E-4
        8.138138          -0.331867E-5       -0.168326E-4
        8.148148          -0.107241E-5       -0.190401E-4
        8.158158           0.502564E-6       -0.213481E-4
        8.168168           0.132114E-5       -0.235570E-4
        8.178178           0.159427E-5       -0.253514E-4
        8.188188           0.142660E-5       -0.266531E-4
        8.198197           0.103384E-5       -0.274538E-4
        8.208207           0.725642E-6       -0.276642E-4
        8.218218           0.603143E-6       -0.274732E-4
        8.228228           0.835997E-6       -0.270474E-4
        8.238238           0.138092E-5       -0.264360E-4
        8.248248           0.225447E-5       -0.259983E-4
        8.258258           0.331942E-5       -0.256462E-4
        8.268268           0.455767E-5       -0.253803E-4
        8.278277           0.585969E-5       -0.253136E-4
        8.288287           0.725517E-5       -0.255415E-4
        8.298298           0.866976E-5       -0.258053E-4
        8.308308           0.101313E-4       -0.263210E-4
        8.318318           0.116235E-4       -0.268882E-4
        8.328328           0.130539E-4       -0.277482E-4
        8.338338           0.144543E-4       -0.289001E-4
        8.348348           0.157694E-4       -0.302246E-4
        8.358357           0.169393E-4       -0.318659E-4
        8.368367           0.178697E-4       -0.337023E-4
        8.378378           0.184814E-4       -0.358861E-4
        8.388388           0.187145E-4       -0.380791E-4
        8.398398           0.185259E-4       -0.403154E-4
        8.408408           0.178784E-4       -0.425484E-4
        8.418418           0.168484E-4       -0.445793E-4
        8.428429           0.154844E-4       -0.462471E-4
        8.438437           0.138894E-4       -0.476033E-4
        8.448447           0.121498E-4       -0.486704E-4
        8.458458           0.103505E-4       -0.492650E-4
        8.468468           0.855603E-5       -0.496010E-4
        8.478477           0.679997E-5       -0.496950E-4
        8.488488           0.513500E-5       -0.495379E-4
        8.498498           0.360608E-5       -0.490936E-4
        8.508509           0.223719E-5       -0.482789E-4
        8.518518           0.105587E-5       -0.473771E-4
        8.528527           0.939513E-7       -0.464221E-4
        8.538538          -0.620922E-6       -0.452935E-4
        8.548548          -0.108299E-5       -0.441838E-4
        8.558558          -0.131483E-5       -0.430406E-4
        8.568568          -0.136285E-5       -0.420278E-4
        8.578578          -0.129232E-5       -0.411437E-4
        8.588589          -0.115798E-5       -0.403992E-4
        8.598598          -0.102153E-5       -0.396495E-4
        8.608608          -0.874409E-6       -0.389026E-4
        8.618618          -0.696993E-6       -0.382695E-4
        8.628628          -0.415340E-6       -0.373884E-4
        8.638638           0.484769E-7       -0.364887E-4
        8.648648           0.761577E-6       -0.356116E-4
        8.658658           0.173526E-5       -0.349752E-4
        8.668669           0.292428E-5       -0.345169E-4
        8.678679           0.427774E-5       -0.343495E-4
        8.688688           0.570153E-5       -0.344350E-4
        8.698698           0.709128E-5       -0.350220E-4
        8.708708           0.831749E-5       -0.359228E-4
        8.718718           0.931337E-5       -0.371910E-4
        8.728728           0.998115E-5       -0.384975E-4
        8.738738           0.102758E-4       -0.402266E-4
        8.748748           0.101933E-4       -0.417202E-4
        8.758759           0.976618E-5       -0.433216E-4
        8.768768           0.906601E-5       -0.445774E-4
        8.778779           0.815550E-5       -0.457254E-4
        8.788788           0.710667E-5       -0.466088E-4
        8.798798           0.598273E-5       -0.473102E-4
        8.808808           0.483216E-5       -0.478556E-4
        8.818818           0.365866E-5       -0.481922E-4
        8.828828           0.250354E-5       -0.483550E-4
        8.838839           0.136536E-5       -0.485759E-4
        8.848848           0.235070E-6       -0.485011E-4
        8.858859          -0.884931E-6       -0.483820E-4
        8.868869          -0.200322E-5       -0.482508E-4
        8.878878          -0.309931E-5       -0.479334E-4
        8.888888          -0.417779E-5       -0.474946E-4
        8.898898          -0.519676E-5       -0.469893E-4
        8.908908          -0.619191E-5       -0.464425E-4
        8.918919          -0.707990E-5       -0.456945E-4
        8.928928          -0.787158E-5       -0.449040E-4
        8.938939          -0.860316E-5       -0.441232E-4
        8.948949          -0.924150E-5       -0.432128E-4
        8.958959          -0.985255E-5       -0.423977E-4
        8.968968          -0.104357E-4       -0.414771E-4
        8.978978          -0.110005E-4       -0.404717E-4
        8.988988          -0.115004E-4       -0.393492E-4
        8.998999          -0.118718E-4       -0.380936E-4
        9.009008          -0.120649E-4       -0.367321E-4
        9.019018          -0.119850E-4       -0.352226E-4
        9.029029          -0.116403E-4       -0.337808E-4
        9.039039          -0.110034E-4       -0.324749E-4
        9.049048          -0.101404E-4       -0.313952E-4
        9.059058          -0.910601E-5       -0.306432E-4
        9.069068          -0.800978E-5       -0.301191E-4
        9.079079          -0.692077E-5       -0.298895E-4
        9.089088          -0.595882E-5       -0.300326E-4
        9.099098          -0.520747E-5       -0.304224E-4
        9.109109          -0.473024E-5       -0.309514E-4
        9.119119          -0.459524E-5       -0.315495E-4
        9.129129          -0.480009E-5       -0.320884E-4
        9.139138          -0.529778E-5       -0.324013E-4
        9.149148          -0.597764E-5       -0.324505E-4
        9.159159          -0.670822E-5       -0.321926E-4
        9.169168          -0.733348E-5       -0.316202E-4
        9.179178          -0.777121E-5       -0.308384E-4
        9.189189          -0.797943E-5       -0.298766E-4
        9.199199          -0.796096E-5       -0.289446E-4
        9.209209          -0.775461E-5       -0.280081E-4
        9.219219          -0.741651E-5       -0.271835E-4
        9.229228          -0.697968E-5       -0.263665E-4
        9.239239          -0.647754E-5       -0.257176E-4
        9.249249          -0.591142E-5       -0.251386E-4
        9.259258          -0.526877E-5       -0.245938E-4
        9.269269          -0.454275E-5       -0.240339E-4
        9.279279          -0.372182E-5       -0.236605E-4
        9.289289          -0.279934E-5       -0.233825E-4
        9.299299          -0.181863E-5       -0.232674E-4
        9.309309          -0.831259E-6       -0.234178E-4
        9.319319           0.568861E-7       -0.237845E-4
        9.329329           0.799955E-6       -0.242737E-4
        9.339338           0.136095E-5       -0.249455E-4
        9.349349           0.169597E-5       -0.256620E-4
        9.359359           0.183577E-5       -0.263390E-4
        9.369369           0.180944E-5       -0.269380E-4
        9.379379           0.167134E-5       -0.274830E-4
        9.389389           0.144988E-5       -0.278666E-4
        9.399399           0.116879E-5       -0.282063E-4
        9.409409           0.854755E-6       -0.284779E-4
        9.419418           0.517922E-6       -0.285907E-4
        9.429429           0.158669E-6       -0.287270E-4
        9.439439          -0.213153E-6       -0.287495E-4
        9.449449          -0.604830E-6       -0.287540E-4
        9.459459          -0.995034E-6       -0.286308E-4
        9.469469          -0.138286E-5       -0.284030E-4
        9.479479          -0.173847E-5       -0.281303E-4
        9.489489          -0.203434E-5       -0.277606E-4
        9.499498          -0.225737E-5       -0.273026E-4
        9.509509          -0.237416E-5       -0.267353E-4
        9.519519          -0.238636E-5       -0.262190E-4
        9.529529          -0.230341E-5       -0.257960E-4
        9.539539          -0.213954E-5       -0.253286E-4
        9.549549          -0.192203E-5       -0.249583E-4
        9.559559          -0.167236E-5       -0.246094E-4
        9.569570          -0.140753E-5       -0.243732E-4
        9.579578          -0.114271E-5       -0.241601E-4
        9.589589          -0.885727E-6       -0.239581E-4
        9.599599          -0.641383E-6       -0.238409E-4
        9.609609          -0.414918E-6       -0.237010E-4
        9.619619          -0.203238E-6       -0.236180E-4
        9.629629          -0.367808E-8       -0.234955E-4
        9.639639           0.181000E-6       -0.234378E-4
        9.649650           0.353367E-6       -0.233181E-4
        9.659659           0.514374E-6       -0.232416E-4
        9.669669           0.671493E-6       -0.231406E-4
        9.679679           0.822393E-6       -0.230633E-4
        9.689689           0.965548E-6       -0.229677E-4
        9.699699           0.110872E-5       -0.228631E-4
        9.709709           0.125438E-5       -0.227653E-4
        9.719719           0.140015E-5       -0.226453E-4
        9.729730           0.155327E-5       -0.225506E-4
        9.739739           0.170773E-5       -0.223930E-4
        9.749749           0.187220E-5       -0.222672E-4
        9.759759           0.204383E-5       -0.221738E-4
        9.769769           0.222480E-5       -0.220398E-4
        9.779779           0.242520E-5       -0.218418E-4
        9.789789           0.264128E-5       -0.217066E-4
        9.799799           0.288088E-5       -0.215628E-4
        9.809810           0.313736E-5       -0.213905E-4
        9.819819           0.342516E-5       -0.212112E-4
        9.829829           0.374440E-5       -0.210813E-4
        9.839839           0.409878E-5       -0.209459E-4
        9.849849           0.449373E-5       -0.208096E-4
        9.859859           0.493464E-5       -0.206796E-4
        9.869869           0.542811E-5       -0.206068E-4
        9.879879           0.597086E-5       -0.205657E-4
        9.889890           0.656866E-5       -0.205237E-4
        9.899899           0.721464E-5       -0.206257E-4
        9.909909           0.790424E-5       -0.208068E-4
        9.919919           0.861922E-5       -0.210628E-4
        9.929929           0.934730E-5       -0.215113E-4
        9.939939           0.100431E-4       -0.220526E-4
        9.949949           0.106831E-4       -0.227141E-4
        9.959959           0.112268E-4       -0.235171E-4
        9.969970           0.116607E-4       -0.243877E-4
        9.979980           0.119635E-4       -0.254316E-4
        9.989989           0.121459E-4       -0.264020E-4
        10.00000           0.122206E-4       -0.274909E-4
# 
# 10/07/2024 at 12:22 yambo_rt @ baym [start]
# 10/07/2024 at 12:22                 [end]
#
# .-Input file  yambo.in
# | optics                           # [R] Linear Response optical properties
# | dipoles                          # [R] Oscillator strenghts (or dipoles)
# | bse                              # [R][BSE] Bethe Salpeter Equation.
# | BoseTemp= 0.000000         eV    # Bosonic Temperature
# | FFTGvecs=  3525            RL    # [FFT] Plane-waves
# | DIP_Threads= 1                   # [OPENMP/X] Number of threads for dipoles
# | BS_nCPU_LinAlg_INV= 1            # [PARALLEL] CPUs for Linear Algebra (if -1 it is automatically set)
# | BS_nCPU_LinAlg_DIAGO= 1          # [PARALLEL] CPUs for Linear Algebra (if -1 it is automatically set)
# | X_Threads= 1                     # [OPENMP/X] Number of threads for response functions
# | K_Threads= 1                     # [OPENMP/BSK] Number of threads for response functions
# | BSKmod= "IP"                     # [BSE] IP/Hartree/HF/ALDA/SEX/BSfxc
# | BSEmod= "retarded"               # [BSE] resonant/retarded/coupling
# | % DipBands
# |   5 | 14 |                           # [DIP] Bands range for dipoles
# | %
# | DipComputed= "R V P"             # [DIP] [default R P V; extra P2 Spin Orb]
# | BSENGexx= 19641            RL    # [BSK] Exchange components
# | KfnRTdb= "f @ 20 fs < 08_rt/ndb.RT_carriers" # [EXTRT BSK BSS] Database
# | % BSEQptR
# |  1 | 1 |                             # [BSK] Transferred momenta range
# | %
# | % BSEBands
# |   5 | 14 |                           # [BSK] Bands range
# | %
# | RTOccMode= "R"                   # [RT-BSE] (K)ernel/(R)esiduals. BSE components to be corrected with the TD occupations
# | ForceEqTrans                   # [RT-BSE] Use only equilibrium transitions
# | % BEnRange
# |   0.00000 | 10.00000 |         eV    # [BSS] Energy range
# | %
# | % BDmRange
# |  0.100000 | 0.100000 |         eV    # [BSS] Damping range
# | %
# | BEnSteps= 1000                   # [BSS] Energy steps
# | % BLongDir
# |  0.100000E-4 |  0.00000    |  0.00000    # [BSS] [cc] Electric Field
# | %
# | BSEprop= "abs kerr jdos"         # [BSS] Can be any among abs/jdos/kerr/magn/dich/photolum/esrt
# | BSEdips= "xy"                    # [BSS] Can be "trace/none" or "xy/xz/yz" to define off-diagonal rotation plane
