#                                                           
#  __  __   ________   ___ __ __    _______   ______        
# /_/\/_/\ /_______/\ /__//_//_/\ /_______/\ /_____/\       
# \ \ \ \ \\::: _  \ \\::\| \| \ \\::: _  \ \\:::_ \ \      
#  \:\_\ \ \\::(_)  \ \\:.      \ \\::(_)  \/_\:\ \ \ \     
#   \::::_\/ \:: __  \ \\:.\-/\  \ \\::  _  \ \\:\ \ \ \    
#     \::\ \  \:.\ \  \ \\. \  \  \ \\::(_)  \ \\:\_\ \ \   
#      \__\/   \__\/\__\/ \__\/ \__\/ \_______\/ \_____\/   
#                                                           
#                                                           
#        Version 4.2.0 Revision 14711 Hash 0c594b7          
#                  MPI+SLK+OpenMP Build                     
#                http://www.yambo-code.org                  
#
# Absorption @ Q(1) [q->0 direction] : 1.0000000  0.0000000  0.0000000
#
#
# - Energies      are Perdew, Burke & Ernzerhof(X)+Perdew, Burke & Ernzerhof(C)
# - Wavefunctions are Perdew, Burke & Ernzerhof(X)+Perdew, Burke & Ernzerhof(C)
#
# - The Green`s function is Retarded -
# - Using the Length Gauge -
# - [r,Vnl] *is* included -
#
#    E/ev[1]       EPS-Im[2]     EPS-Re[3]     EPSo-Im[4]    EPSo-Re[5]
#
     0.200000     22.171206     32.840275     22.186626     32.959152
     0.201603     21.857862     32.844349     21.873152     32.963192
     0.203206     21.550920     32.853962     21.565887     32.972824
     0.204810     21.250076     32.869072     21.264853     32.987831
     0.206413     20.955322     32.889263     20.969938     33.008007
     0.208016     20.666935     32.914219     20.681124     33.033070
     0.209619     20.384117     32.943851     20.398359     33.062859
     0.211222     20.107481     32.978081     20.121565     33.097111
     0.212826     19.836950     33.016682     19.850702     33.135674
     0.214429     19.571825     33.059319     19.585686     33.178299
     0.216032     19.312906     33.105736     19.326452     33.224796
     0.217635     19.059298     33.155708     19.072948     33.275043
     0.219238     18.811666     33.209656     18.825079     33.328846
     0.220842     18.569498     33.266777     18.582775     33.386017
     0.222445     18.332853     33.327072     18.345991     33.446423
     0.224048     18.101685     33.390553     18.114607     33.509907
     0.225651     17.875694     33.456879     17.888590     33.576294
     0.227255     17.654993     33.525913     17.667839     33.645489
     0.228858     17.439350     33.597576     17.452282     33.717339
     0.230461     17.229420     33.672344     17.241838     33.791737
     0.232064     17.023945     33.748981     17.036444     33.868576
     0.233667     16.823847     33.828091     16.836027     33.947685
     0.235271     16.628149     33.909119     16.640484     34.028965
     0.236874     16.437304     33.992188     16.449772     34.112343
     0.238477     16.251488     34.077507     16.263792     34.197670
     0.240080     16.070414     34.164799     16.082510     34.284897
     0.241683     15.893861     34.253857     15.905798     34.373924
     0.243287     15.721544     34.344418     15.733611     34.464661
     0.244890     15.553765     34.436466     15.565870     34.557007
     0.246493     15.390556     34.530323     15.402503     34.650871
     0.248096     15.231543     34.625595     15.243434     34.746208
     0.249699     15.076976     34.722488     15.088629     34.842999
     0.251303     14.926127     34.820255     14.938005     34.941048
     0.252906     14.779600     34.919487     14.791451     35.040375
     0.254509     14.637218     35.019989     14.648986     35.140884
     0.256112     14.498675     35.121445     14.510514     35.242569
     0.257715     14.364061     35.224014     14.375914     35.345284
     0.259319     14.233422     35.327763     14.245173     35.449039
     0.260922     14.106495     35.432465     14.118210     35.553780
     0.262525     13.983294     35.537983     13.994994     35.659431
     0.264128     13.863770     35.644371     13.875442     35.765945
     0.265731     13.747641     35.751289     13.759524     35.873306
     0.267335     13.635639     35.859852     13.647171     35.981476
     0.268938     13.526593     35.968391     13.538321     36.090401
     0.270541     13.421173     36.077957     13.432945     36.200024
     0.272144     13.319301     36.188271     13.330959     36.310329
     0.273748     13.220739     36.299290     13.232334     36.421295
     0.275351     13.125210     36.410439     13.137015     36.532864
     0.276954     13.033365     36.522781     13.044950     36.644981
     0.278557     12.944383     36.635132     12.956110     36.757683
     0.280160     12.858794     36.748436     12.870433     36.870903
     0.281764     12.776361     36.862183     12.787906     36.984638
     0.283367     12.696691     36.976082     12.708434     37.098824
     0.284970     12.620491     37.090946     12.632010     37.213463
     0.286573     12.546848     37.205612     12.558602     37.328548
     0.288176     12.476490     37.321232     12.488150     37.444050
     0.289780     12.408826     37.436958     12.420627     37.559898
     0.291383     12.344248     37.553036     12.356001     37.676163
     0.292986     12.282512     37.669743     12.294230     37.792778
     0.294589     12.223381     37.786396     12.235294     37.909710
     0.296192     12.167057     37.903397     12.179150     38.026962
     0.297796     12.113744     38.021015     12.125759     38.144524
     0.299399     12.062962     38.138630     12.075097     38.262356
     0.301002     12.014782     38.256367     12.027139     38.380527
     0.302605     11.969396     38.374638     11.981874     38.498894
     0.304208     11.926827     38.493370     11.939256     38.617542
     0.305812     11.886852     38.612320     11.899255     38.736435
     0.307415     11.849363     38.731152     11.861871     38.855579
     0.309018     11.814346     38.850403     11.827057     38.974934
     0.310621     11.782391     38.970451     11.794793     39.094494
     0.312224     11.752546     39.090088     11.765093     39.214264
     0.313828     11.725093     39.209656     11.737892     39.334229
     0.315431     11.700271     39.329636     11.713202     39.454388
     0.317034     11.678076     39.450092     11.690995     39.574726
     0.318637     11.658253     39.570400     11.671268     39.695248
     0.320240     11.640802     39.690838     11.653994     39.815922
     0.321844     11.625681     39.811241     11.639157     39.936745
     0.323447     11.613180     39.932194     11.626763     40.057720
     0.325050     11.603053     40.053162     11.616780     40.178894
     0.326653     11.595445     40.174465     11.609205     40.300144
     0.328257     11.590092     40.295700     11.604049     40.421535
     0.329860     11.587388     40.417393     11.601264     40.543083
     0.331463     11.586631     40.538654     11.600871     40.664753
     0.333066     11.588673     40.660732     11.602863     40.786499
     0.334669     11.592879     40.782429     11.607224     40.908390
     0.336273     11.599373     40.904072     11.613961     41.030380
     0.337876     11.608293     41.026115     11.623080     41.152447
     0.339479     11.619581     41.147861     11.634560     41.274536
     0.341082     11.633439     41.270493     11.648411     41.396839
     0.342685     11.649522     41.392582     11.664622     41.519112
     0.344289     11.667827     41.514935     11.683208     41.641464
     0.345892     11.688662     41.637245     11.704167     41.763908
     0.347495     11.711699     41.759483     11.727500     41.886406
     0.349098     11.737479     41.882263     11.753229     42.008923
     0.350701     11.765247     42.004353     11.781329     42.131489
     0.352305     11.795721     42.127056     11.811832     42.254070
     0.353908     11.828293     42.249432     11.844732     42.376686
     0.355511     11.863414     42.372025     11.880040     42.499294
     0.357114     11.900805     42.494350     11.917769     42.621857
     0.358717     11.940941     42.616947     11.957932     42.744453
     0.360321     11.983317     42.739468     12.000539     42.866993
     0.361924     12.028096     42.861820     12.045593     42.989498
     0.363527     12.075451     42.984192     12.093116     43.111961
     0.365130     12.124886     43.106056     12.143106     43.234344
     0.366733     12.177465     43.228737     12.195621     43.356609
     0.368337     12.232163     43.350773     12.250624     43.478802
     0.369940     12.289515     43.472828     12.308156     43.600895
     0.371543     12.349192     43.594547     12.368234     43.722858
     0.373146     12.411634     43.716381     12.430890     43.844620
     0.374749     12.476425     43.837585     12.496132     43.966206
     0.376353     12.544261     43.959480     12.563964     44.087608
     0.377956     12.614285     44.080265     12.634427     44.208809
     0.379559     12.687073     44.201347     12.707549     44.329765
     0.381162     12.762851     44.322304     12.783327     44.450439
     0.382766     12.840889     44.442390     12.861798     44.570816
     0.384369     12.921625     44.562233     12.942999     44.690876
     0.385972     13.005217     44.681881     13.026927     44.810596
     0.387575     13.091446     44.800709     13.113619     44.929913
     0.389178     13.180750     44.919979     13.203107     45.048817
     0.390782     13.272523     45.037746     13.295403     45.167282
     0.392385     13.367472     45.156204     13.390546     45.285233
     0.393988     13.465209     45.273724     13.488556     45.402634
     0.395591     13.565928     45.390961     13.589467     45.519485
     0.397194     13.669195     45.506744     13.693287     45.635761
     0.398798     13.775496     45.622025     13.800071     45.751343
     0.400401     13.885014     45.737324     13.909825     45.866215
     0.402004     13.997227     45.851345     14.022573     45.980370
     0.403607     14.112612     45.964565     14.138352     46.093700
     0.405210     14.231101     46.077023     14.257200     46.206181
     0.406814     14.352655     46.188721     14.379132     46.317764
     0.408417     14.477349     46.299591     14.504174     46.428387
     0.410020     14.604893     46.408962     14.632320     46.537979
     0.411623     14.735933     46.517719     14.763632     46.646446
     0.413226     14.870118     46.625229     14.898159     46.753811
     0.414830     15.007171     46.731125     15.035869     46.859890
     0.416433     15.147747     46.836315     15.176826     46.964714
     0.418036     15.291518     46.939766     15.321022     47.068092
     0.419639     15.438314     47.041374     15.468479     47.170025
     0.421242     15.588782     47.142429     15.619249     47.270470
     0.422846     15.742114     47.241135     15.773317     47.369305
     0.424449     15.898912     47.337891     15.930714     47.466366
     0.426052     16.059408     47.433971     16.091429     47.561653
     0.427655     16.222876     47.527260     16.255461     47.655029
     0.429259     16.389694     47.618717     16.422861     47.746449
     0.430862     16.559944     47.708424     16.593615     47.835754
     0.432465     16.733433     47.795303     16.767738     47.922890
     0.434068     16.909887     47.879890     16.945166     48.007721
     0.435671     17.090269     47.962730     17.125950     48.090157
     0.437275     17.273657     48.042702     17.310095     48.170074
     0.438878     17.460619     48.120476     17.497536     48.247360
     0.440481     17.651102     48.195610     17.688295     48.321976
     0.442084     17.844328     48.267445     17.882328     48.393650
     0.443687     18.040882     48.336205     18.079592     48.462349
     0.445291     18.240911     48.402092     18.280121     48.527927
     0.446894     18.443705     48.464993     18.483801     48.590347
     0.448497     18.650557     48.524742     18.690588     48.649326
     0.450100     18.859600     48.580521     18.900507     48.704872
     0.451703     19.072029     48.633083     19.113464     48.756813
     0.453307     19.286903     48.681202     19.329367     48.804989
     0.454910     19.505270     48.725765     19.548166     48.849239
     0.456513     19.726189     48.766876     19.769850     48.889591
     0.458116     19.949831     48.803093     19.994215     48.925747
     0.459719     20.176142     48.835236     20.221243     48.957630
     0.461323     20.405247     48.863285     20.450827     48.985096
     0.462926     20.636709     48.887299     20.682877     49.008110
     0.464529     20.870415     48.905811     20.917255     49.026466
     0.466132     21.106129     48.919857     21.153856     49.039970
     0.467735     21.344345     48.929249     21.392527     49.048603
     0.469339     21.584593     48.933842     21.633152     49.052277
     0.470942     21.826662     48.933445     21.875607     49.050838
     0.472545     22.070009     48.927200     22.119722     49.044113
     0.474148     22.314884     48.915665     22.365318     49.032028
     0.475752     22.561058     48.898659     22.612267     49.014576
     0.477355     22.808426     48.876118     22.860353     48.991623
     0.478958     23.057114     48.848778     23.109449     48.963001
     0.480561     23.306486     48.815327     23.359354     48.928745
     0.482164     23.556686     48.776482     23.609816     48.888725
     0.483768     23.806385     48.730637     23.860723     48.842884
     0.485371     24.057642     48.680626     24.111834     48.791180
     0.486974     24.307680     48.623550     24.362926     48.733574
     0.488577     24.558056     48.560631     24.613821     48.670006
     0.490180     24.808214     48.492729     24.864265     48.600494
     0.491784     25.057838     48.417973     25.114088     48.524986
     0.493387     25.305944     48.337215     25.363024     48.443489
     0.494990     25.553484     48.251415     25.610851     48.356007
     0.496593     25.799490     48.158630     25.857376     48.262577
     0.498196     26.043856     48.060078     26.102356     48.163189
     0.499800     26.286388     47.955559     26.345541     48.057911
     0.501403     26.527531     47.845848     26.586765     47.946774
     0.503006     26.766459     47.730061     26.825750     47.829887
     0.504609     27.002920     47.609119     27.062330     47.707249
     0.506212     27.236061     47.481522     27.296238     47.578995
     0.507816     27.466942     47.348789     27.527256     47.445183
     0.509419     27.695169     47.211105     27.755186     47.305950
     0.511022     27.919426     47.067768     27.979816     47.161381
     0.512625     28.140085     46.919060     28.200930     47.011593
     0.514228     28.357592     46.765549     28.418318     46.856804
     0.515832     28.571489     46.607590     28.631807     46.696999
     0.517435     28.780720     46.444431     28.841194     46.532482
     0.519038     28.985723     46.276279     29.046309     46.363342
     0.520641     29.186890     46.104286     29.246971     46.189705
     0.522245     29.382212     45.927227     29.442907     46.011791
     0.523848     29.573984     45.746853     29.634113     45.829803
     0.525451     29.760014     45.561958     29.820368     45.643921
     0.527054     29.941618     45.373920     30.001528     45.454395
     0.528657     30.118330     45.182491     30.177364     45.261322
     0.530261     30.288118     44.987083     30.347855     45.065033
     0.531864     30.453857     44.789036     30.512869     44.865665
     0.533467     30.613852     44.588409     30.672201     44.663559
     0.535070     30.767328     44.384380     30.825836     44.458893
     0.536673     30.915695     44.178745     30.973625     44.251873
     0.538277     31.058064     43.971554     31.115448     44.042828
     0.539880     31.194973     43.761959     31.251328     43.831989
     0.541483     31.324759     43.550694     31.381077     43.619610
     0.543086     31.448601     43.337738     31.504772     43.406002
     0.544689     31.566643     43.124474     31.622292     43.191383
     0.546293     31.679003     42.910820     31.733606     42.976074
     0.547896     31.785339     42.697006     31.838762     42.760414
     0.549499     31.885162     42.482029     31.937738     42.544621
     0.551102     31.978180     42.267216     32.030590     42.328979
     0.552705     32.065975     42.053497     32.117260     42.113850
     0.554309     32.147903     41.840458     32.197899     41.899532
     0.555912     32.222317     41.627586     32.272449     41.686199
     0.557515     32.292652     41.417267     32.341198     41.474255
     0.559118     32.356228     41.207775     32.404076     41.264015
     0.560721     32.414936     41.000786     32.461254     41.055706
     0.562325     32.465862     40.795059     32.512939     40.849648
     0.563928     32.513966     40.592686     32.559227     40.646061
     0.565531     32.555916     40.392792     32.600281     40.445316
     0.567134     32.593254     40.196388     32.636311     40.247593
     0.568738     32.625172     40.002506     32.667561     40.053181
     0.570341     32.653221     39.812801     32.694248     39.862282
     0.571944     32.675869     39.625870     32.716576     39.675190
     0.573547     32.695274     39.443569     32.734844     39.492039
     0.575150     32.710842     39.265327     32.749275     39.313076
     0.576753     32.723072     39.091568     32.760235     39.138454
     0.578357     32.731590     38.922337     32.768002     38.968342
     0.579960     32.737003     38.757351     32.772831     38.802963
     0.581563     32.740864     38.597168     32.775105     38.642262
     0.583166     32.741890     38.442440     32.775066     38.486549
     0.584770     32.740925     38.292282     32.773129     38.335762
     0.586373     32.738564     38.147205     32.769627     38.190102
     0.587976     32.735088     38.006783     32.764874     38.049454
     0.589579     32.730347     37.872314     32.759243     37.913963
     0.591182     32.725403     37.742100     32.753059     37.783569
     0.592786     32.720284     37.617245     32.746696     37.658237
     0.594389     32.714619     37.497437     32.740456     37.537991
     0.595992     32.710110     37.382500     32.734734     37.422680
     0.597595     32.706314     37.272518     32.729832     37.312267
     0.599198     32.703716     37.167427     32.726158     37.206665
     0.600802     32.702396     37.066635     32.723930     37.105701
     0.602405     32.702766     36.970478     32.723480     37.009201
     0.604008     32.706161     36.878956     32.725208     36.917057
     0.605611     32.710785     36.791206     32.729309     36.829102
     0.607214     32.718792     36.707539     32.736149     36.745033
     0.608818     32.729683     36.627262     32.745934     36.664688
     0.610421     32.743153     36.550549     32.758984     36.587830
     0.612024     32.760376     36.477215     32.775494     36.514206
     0.613627     32.782101     36.406990     32.795738     36.443584
     0.615230     32.807388     36.339172     32.819881     36.375614
     0.616834     32.836525     36.273796     32.848171     36.310074
     0.618437     32.870392     36.210690     32.880722     36.246544
     0.620040     32.908199     36.149025     32.917740     36.184853
     0.621643     32.950516     36.088909     32.959404     36.124580
     0.623246     32.997368     36.030022     33.005825     36.065418
     0.624850     33.050385     35.971710     33.057060     36.006973
     0.626453     33.107128     35.914036     33.113224     35.949020
     0.628056     33.169521     35.856121     33.174408     35.891064
     0.629659     33.236534     35.798367     33.240616     35.832855
     0.631263     33.309113     35.739491     33.311924     35.773930
     0.632866     33.386650     35.679821     33.388264     35.713993
     0.634469     33.468498     35.618263     33.469776     35.652637
     0.636072     33.555447     35.555634     33.556278     35.589527
     0.637675     33.648140     35.490383     33.647743     35.524231
     0.639279     33.745403     35.422718     33.744118     35.456406
     0.640882     33.847668     35.352024     33.845264     35.385704
     0.642485     33.954765     35.278103     33.951130     35.311707
     0.644088     34.065517     35.200741     34.061520     35.234093
     0.645691     34.181759     35.119431     34.176277     35.152496
     0.647295     34.301735     35.033546     34.295216     35.066570
     0.648898     34.425663     34.942894     34.418156     34.975903
     0.650501     34.552910     34.847366     34.544785     34.880264
     0.652104     34.683964     34.746609     34.674931     34.779240
     0.653707     34.818169     34.639942     34.808254     34.672554
     0.655311     34.955559     34.527386     34.944511     34.559902
     0.656914     35.095299     34.408463     35.083359     34.441017
     0.658517     35.237705     34.283287     35.224438     34.315556
     0.660120     35.381474     34.151134     35.367409     34.183365
     0.661723     35.526455     34.012085     35.511906     34.044144
     0.663327     35.673634     33.865631     35.657513     33.897648
     0.664930     35.820541     33.712036     35.803806     33.743755
     0.666533     35.968529     33.550205     35.950390     33.582268
     0.668136     36.115734     33.381039     36.096745     33.413002
     0.669739     36.261948     33.204327     36.242493     33.235924
     0.671343     36.407909     33.019260     36.387093     33.050858
     0.672946     36.551991     32.826126     36.530090     32.857765
     0.674549     36.693668     32.624874     36.671017     32.656601
     0.676152     36.833164     32.415653     36.809288     32.447376
     0.677756     36.969070     32.198288     36.944450     32.230125
     0.679359     37.102039     31.972908     37.075970     32.004887
     0.680962     37.230724     31.739841     37.203335     31.771790
     0.682565     37.354588     31.499037     37.326073     31.530962
     0.684168     37.472870     31.250751     37.443638     31.282524
     0.685772     37.586048     30.994995     37.555553     31.026770
     0.687375     37.692574     30.731695     37.661285     30.763813
     0.688978     37.793125     30.461771     37.760319     30.494015
     0.690581     37.885929     30.185350     37.852257     30.217615
     0.692184     37.971554     29.902668     37.936600     29.935003
     0.693788     38.049347     29.613684     38.012909     29.646515
     0.695391     38.118198     29.319855     38.080860     29.352547
     0.696994     38.178104     29.020651     38.139950     29.053568
     0.698597     38.229198     28.716675     38.189888     28.750015
     0.700200     38.270660     28.408997     38.230289     28.442375
     0.701804     38.302589     28.097368     38.260899     28.131136
     0.703407     38.324291     27.783054     38.281475     27.816856
     0.705010     38.336048     27.465393     38.291748     27.500063
     0.706613     38.337170     27.146276     38.291504     27.181374
     0.708216     38.327030     26.825886     38.280666     26.861311
     0.709820     38.306263     26.504786     38.259014     26.540495
     0.711423     38.275455     26.182974     38.226551     26.219507
     0.713026     38.232906     25.861954     38.183189     25.898970
     0.714629     38.180077     25.542000     38.128979     25.579502
     0.716232     38.116283     25.223478     38.063911     25.261652
     0.717836     38.041336     24.907146     37.988102     24.946098
     0.719439     37.956356     24.593588     37.901707     24.633350
     0.721042     37.859901     24.284437     37.804832     24.324013
     0.722645     37.754379     23.977699     37.697750     24.018646
     0.724249     37.637367     23.676922     37.580631     23.717791
     0.725852     37.511883     23.380581     37.453781     23.421999
     0.727455     37.376545     23.089470     37.317486     23.131777
     0.729058     37.232235     22.803881     37.172092     22.847588
     0.730661     37.079060     22.525526     37.017925     22.569880
     0.732265     36.917202     22.253920     36.855427     22.299093
     0.733868     36.747704     21.989538     36.684944     22.035648
     0.735471     36.570461     21.733215     36.506981     21.779860
     0.737074     36.386150     21.484446     36.321930     21.532108
     0.738677     36.194965     21.244301     36.130272     21.292685
     0.740281     35.998280     21.012459     35.932499     21.061832
     0.741884     35.795559     20.789482     35.729111     20.839830
     0.743487     35.587196     20.575840     35.520515     20.626902
     0.745090     35.374561     20.371248     35.307289     20.423166
     0.746693     35.158058     20.175859     35.089851     20.228804
     0.748297     34.937294     19.990166     34.868847     20.043886
     0.749900     34.713371     19.813944     34.644630     19.868530
     0.751503     34.487225     19.647333     34.417797     19.702778
     0.753106     34.258858     19.490059     34.188793     19.546656
     0.754709     34.028221     19.343019     33.958084     19.400135
     0.756313     33.796894     19.204866     33.726101     19.263208
     0.757916     33.564308     19.076761     33.493454     19.135782
     0.759519     33.331844     18.957903     33.260479     19.017797
     0.761122     33.099178     18.848680     33.027637     18.909149
     0.762725     32.867317     18.748341     32.795353     18.809708
     0.764329     32.636097     18.656960     32.564068     18.719351
     0.765932     32.406265     18.574993     32.334126     18.637878
     0.767535     32.178440     18.501450     32.105881     18.565128
     0.769138     31.952353     18.436852     31.879801     18.500923
     0.770741     31.728811     18.380329     31.656124     18.445061
     0.772345     31.508007     18.331841     31.435240     18.397268
     0.773948     31.290340     18.291431     31.217442     18.357357
     0.775551     31.075943     18.258724     31.003042     18.325111
     0.777154     30.865715     18.233044     30.792267     18.300228
     0.778758     30.658751     18.214628     30.585430     18.282494
     0.780361     30.456303     18.203087     30.382776     18.271626
     0.781964     30.257915     18.198751     30.184523     18.267349
     0.783567     30.064514     18.200134     29.990845     18.269411
     0.785170     29.875629     18.207752     29.802013     18.277525
     0.786774     29.691889     18.221394     29.618196     18.291443
     0.788377     29.513340     18.240408     29.439507     18.310856
     0.789980     29.339819     18.264685     29.266142     18.335447
     0.791583     29.172333     18.293787     29.098249     18.365000
     0.793186     29.009867     18.327826     28.935909     18.399183
     0.794790     28.853317     18.366016     28.779270     18.437752
     0.796393     28.702765     18.408318     28.628424     18.480391
     0.797996     28.557835     18.454550     28.483488     18.526831
     0.799599     28.418797     18.504408     28.344522     18.576782
     0.801202     28.286213     18.557251     28.211609     18.629995
     0.802806     28.159271     18.613361     28.084757     18.686167
     0.804409     28.038960     18.671854     27.964064     18.745003
     0.806012     27.924381     18.732941     27.849548     18.806278
     0.807615     27.816374     18.796209     27.741261     18.869663
     0.809218     27.714342     18.861469     27.639193     18.934937
     0.810822     27.618988     18.928108     27.543354     19.001801
     0.812425     27.529861     18.996056     27.453758     19.070009
     0.814028     27.446703     19.065273     27.370365     19.139294
     0.815631     27.369473     19.135557     27.293221     19.209379
     0.817234     27.299049     19.206068     27.222248     19.280025
     0.818838     27.234596     19.276825     27.157433     19.350977
     0.820441     27.176003     19.347677     27.098713     19.421982
     0.822044     27.123722     19.418657     27.046059     19.492773
     0.823647     27.077402     19.489033     26.999418     19.563095
     0.825251     27.037292     19.558580     26.958698     19.632736
     0.826854     27.002703     19.627340     26.923817     19.701439
     0.828457     26.973984     19.694683     26.894735     19.768976
     0.830060     26.950829     19.760908     26.871334     19.835102
     0.831663     26.933622     19.825432     26.853533     19.899599
     0.833267     26.921919     19.888060     26.841188     19.962223
     0.834870     26.915550     19.948610     26.834217     20.022764
     0.836473     26.914244     20.006737     26.832491     20.080996
     0.838076     26.918280     20.062532     26.835876     20.136709
     0.839679     26.927156     20.115578     26.844217     20.189671
     0.841283     26.940870     20.165678     26.857397     20.239695
     0.842886     26.959358     20.212452     26.875237     20.286591
     0.844489     26.982218     20.256031     26.897568     20.330154
     0.846092     27.009468     20.296057     26.924255     20.370173
     0.847695     27.041065     20.332211     26.955070     20.406488
     0.849299     27.076641     20.364521     26.989824     20.438934
     0.850902     27.115929     20.393147     27.028337     20.467333
     0.852505     27.158865     20.417231     27.070433     20.491539
     0.854108     27.205095     20.436899     27.115845     20.511370
     0.855711     27.254240     20.452232     27.164366     20.526712
     0.857315     27.306406     20.463017     27.215794     20.537422
     0.858918     27.361275     20.468836     27.269861     20.543358
     0.860521     27.418831     20.469578     27.326340     20.544458
     0.862124     27.478172     20.465643     27.384991     20.540628
     0.863727     27.539616     20.456621     27.445536     20.531691
     0.865331     27.602798     20.442558     27.507744     20.517666
     0.866934     27.667343     20.422974     27.571348     20.498468
     0.868537     27.733452     20.398148     27.636072     20.474007
     0.870140     27.799854     20.368141     27.701647     20.444304
     0.871743     27.866961     20.332947     27.767788     20.409298
     0.873347     27.934423     20.292351     27.834251     20.369015
     0.874950     28.002123     20.246365     27.900755     20.323420
     0.876553     28.069111     20.195259     27.967035     20.272570
     0.878156     28.136019     20.138859     28.032820     20.216496
     0.879759     28.202103     20.077190     28.097826     20.155239
     0.881363     28.267195     20.010429     28.161804     20.088863
     0.882966     28.331036     19.938499     28.224487     20.017452
     0.884569     28.393538     19.861408     28.285645     19.941145
     0.886172     28.453840     19.779747     28.345003     19.859972
     0.887776     28.512051     19.693644     28.402338     19.774099
     0.889379     28.568346     19.602583     28.457380     19.683678
     0.890982     28.621984     19.507101     28.509985     19.588846
     0.892585     28.673145     19.407293     28.559883     19.489733
     0.894188     28.721243     19.303307     28.606918     19.386541
     0.895792     28.766130     19.195744     28.650854     19.279427
     0.897395     28.808325     19.083857     28.691549     19.168579
     0.898998     28.846382     18.968836     28.728846     19.054230
     0.900601     28.881182     18.850407     28.762552     18.936560
     0.902204     28.912376     18.728674     28.792572     18.815767
     0.903808     28.939230     18.604427     28.818785     18.692072
     0.905411     28.962906     18.476982     28.841059     18.565693
     0.907014     28.982256     18.347212     28.859348     18.436867
     0.908617     28.997469     18.214981     28.873493     18.305790
     0.910220     29.008680     18.081039     28.883520     18.172733
     0.911824     29.015566     17.945129     28.889341     18.037846
     0.913427     29.018032     17.807636     28.890936     17.901426
     0.915030     29.016212     17.668905     28.888254     17.763630
     0.916633     29.010403     17.528673     28.881308     17.624704
     0.918236     29.000044     17.387852     28.870123     17.484861
     0.919840     28.985498     17.246138     28.854658     17.344284
     0.921443     28.966709     17.103888     28.834967     17.203192
     0.923046     28.943707     16.961166     28.811098     17.061764
     0.924649     28.916525     16.818455     28.783077     16.920191
     0.926252     28.885433     16.675673     28.750994     16.778645
     0.927856     28.849907     16.533215     28.714870     16.637306
     0.929459     28.810783     16.390793     28.674795     16.496342
     0.931062     28.767523     16.249256     28.630833     16.355888
     0.932665     28.720638     16.108133     28.583055     16.216091
     0.934269     28.669764     15.967778     28.531588     16.077095
     0.935872     28.615320     15.828431     28.476465     15.939016
     0.937475     28.557304     15.690139     28.417841     15.801991
     0.939078     28.495913     15.552900     28.355757     15.666094
     0.940681     28.431252     15.417027     28.290352     15.531475
     0.942285     28.363024     15.282435     28.221678     15.398194
     0.943888     28.291803     15.149116     28.149841     15.266346
     0.945491     28.217478     15.017695     28.074957     15.136007
     0.947094     28.140444     14.887347     27.997133     15.007268
     0.948697     28.060144     14.759099     27.916395     14.880163
     0.950301     27.977173     14.632421     27.832932     14.754778
     0.951904     27.891609     14.507334     27.746758     14.631164
     0.953507     27.803272     14.384385     27.658022     14.509377
     0.955110     27.712574     14.262931     27.566774     14.389449
     0.956713     27.619274     14.143731     27.473124     14.271434
     0.958317     27.523706     14.026233     27.377119     14.155332
     0.959920     27.426001     13.910705     27.278889     14.041237
     0.961523     27.325991     13.797467     27.178497     13.929139
     0.963126     27.223894     13.685939     27.075998     13.819073
     0.964729     27.119907     13.576646     26.971525     13.711064
     0.966333     27.013870     13.469249     26.865072     13.605153
     0.967936     26.906071     13.364016     26.756796     13.501334
     0.969539     26.796095     13.261254     26.646723     13.399664
     0.971142     26.684883     13.160133     26.534941     13.300112
     0.972745     26.571777     13.061513     26.421509     13.202702
     0.974349     26.457233     12.964907     26.306520     13.107474
     0.975952     26.340912     12.870522     26.189987     13.014408
     0.977555     26.223553     12.778103     26.072042     12.923530
     0.979158     26.104620     12.688088     25.952721     12.834832
     0.980762     25.984274     12.600224     25.832088     12.748333
     0.982365     25.862627     12.514690     25.710218     12.664021
     0.983968     25.740065     12.430904     25.587130     12.581893
     0.985571     25.616173     12.349570     25.462917     12.501947
     0.987174     25.491262     12.270332     25.337658     12.424183
     0.988778     25.365316     12.193281     25.211386     12.348596
     0.990381     25.238461     12.118456     25.084141     12.275158
     0.991984     25.110577     12.045670     24.955976     12.203873
     0.993587     24.981937     11.974996     24.826975     12.134714
     0.995190     24.852503     11.906427     24.697147     12.067679
     0.996794     24.722227     11.839933     24.566557     12.002717
     0.998397     24.591248     11.775499     24.435211     11.939863
     1.000000     24.459499     11.713079     24.303204     11.879041
# 
# 09/14/2017 at 13:48 YAMBO @ narro [start]
# 09/14/2017 at 13:48               [end]
#  
# Timing   [Min/Max/Average]: 03s/03s/03s
#
# .-Input file : INPUTS/02_EPS_v_Gspace_G
# | optics                         # [R OPT] Optics
# | chi                            # [R CHI] Dyson equation for Chi.
# | ElecTemp=  0.02586     eV      # Electronic Temperature
# | BoseTemp=  0.02586     eV      # Bosonic Temperature
# | FFTGvecs= 1157         RL      # [FFT] Plane-waves
# | X_Threads=  4                  # [OPENMP/X] Number of threads for response functions
# | DIP_Threads=  4                # [OPENMP/X] Number of threads for dipoles
# | Chimod= "Hartree"              # [X] IP/Hartree/ALDA/LRC/BSfxc
# | NGsBlkXd= 13           RL      # [Xd] Response block size
# | % QpntsRXd
# |  1 | 1 |                       # [Xd] Transferred momenta
# | %
# | % BndsRnXd
# |   1 | 10 |                     # [Xd] Polarization function bands
# | %
# | GrFnTpXd= "R"                  # [Xd] Green`s function (T)ordered,(R)etarded,(r)senant,(a)ntiresonant [T, R, r, Ta, Ra]
# | % EnRngeXd
# |  0.200000 | 1.000000 | eV      # [Xd] Energy range
# | %
# | % DmRngeXd
# |   0.10000 |  0.10000 | eV      # [Xd] Damping range
# | %
# | ETStpsXd=  500                 # [Xd] Total Energy steps
# | % LongDrXd
# | 0.1000E-4 | 0.000    | 0.000    |        # [Xd] [cc] Electric Field
# | %
