#                                                                     
#  **    **    **     ****     ****  ******     *******               
# //**  **    ****   /**/**   **/** /*////**   **/////**              
#  //****    **//**  /**//** ** /** /*   /**  **     //**             
#   //**    **  //** /** //***  /** /******  /**      /**             
#    /**   **********/**  //*   /** /*//// **/**      /**             
#    /**  /**//////**/**   /    /** /*    /**//**     **              
#    /**  /**     /**/**        /** /*******  //*******               
#    //   //      // //         //  ///////    ///////                
#                                                                     
# Version 5.1.0 Revision 22208 Hash (prev commit) a391fb0cb           
#                Branch is phys/dichroism                             
#         MPI+OpenMP+SLK+SLEPC+HDF5_MPI_IO Build                      
#                http://www.yambo-code.org                            
#
# Dichroism @ Q(1):  0.999999975E-5   0.00000000      0.00000000    [q->0 direction]
#
# [GEN] GF Energies                               : Perdew, Burke & Ernzerhof(X)+Perdew, Burke & Ernzerhof(C)
# [GEN] Green`s Function                          : Retarded
#
# [GEN] Gauge                                     : Length
# [GEN] [r,Vnl] included                          : yes
#
# DIP band range                                  :   1  20
# DIP band range limits                           :  20   1
# DIP e/h energy range                            :  -1.00000000     -1.00000000    [eV]
# RL vectors in the sum                           :   3695
# [r,Vnl] included                                : yes
# Bands ordered                                   : no
# Direct v evaluation                             : no
# Approach used                                   : G-space v
# Dipoles computed                                : R V P
# Wavefunctions                                   : Perdew, Burke & Ernzerhof(X)+Perdew, Burke & Ernzerhof(C)
#
#
#    E[1] [eV]          Im(CD)             Re(CD)
#
        0.000000          -0.211138E-7       -0.112292E-5
        0.010000          -0.211069E-7       -0.112292E-5
        0.020000          -0.211003E-7       -0.112291E-5
        0.030000          -0.210938E-7       -0.112291E-5
        0.040000          -0.210875E-7       -0.112291E-5
        0.050000          -0.210815E-7       -0.112290E-5
        0.060000          -0.210756E-7       -0.112289E-5
        0.070000          -0.210698E-7       -0.112289E-5
        0.080000          -0.210643E-7       -0.112288E-5
        0.090000          -0.210590E-7       -0.112287E-5
        0.100000          -0.210538E-7       -0.112286E-5
        0.110000          -0.210488E-7       -0.112286E-5
        0.120000          -0.210440E-7       -0.112285E-5
        0.130000          -0.210394E-7       -0.112284E-5
        0.140000          -0.210349E-7       -0.112282E-5
        0.150000          -0.210306E-7       -0.112281E-5
        0.160000          -0.210266E-7       -0.112280E-5
        0.170000          -0.210227E-7       -0.112279E-5
        0.180000          -0.210189E-7       -0.112277E-5
        0.190000          -0.210153E-7       -0.112276E-5
        0.200000          -0.210119E-7       -0.112274E-5
        0.210000          -0.210087E-7       -0.112273E-5
        0.220000          -0.210056E-7       -0.112271E-5
        0.230000          -0.210027E-7       -0.112269E-5
        0.240000          -0.209999E-7       -0.112267E-5
        0.250000          -0.209974E-7       -0.112265E-5
        0.260000          -0.209949E-7       -0.112263E-5
        0.270000          -0.209927E-7       -0.112261E-5
        0.280000          -0.209906E-7       -0.112259E-5
        0.290000          -0.209887E-7       -0.112257E-5
        0.300000          -0.209869E-7       -0.112255E-5
        0.310000          -0.209853E-7       -0.112252E-5
        0.320000          -0.209839E-7       -0.112250E-5
        0.330000          -0.209826E-7       -0.112247E-5
        0.340000          -0.209815E-7       -0.112245E-5
        0.350000          -0.209805E-7       -0.112242E-5
        0.360000          -0.209797E-7       -0.112239E-5
        0.370000          -0.209790E-7       -0.112237E-5
        0.380000          -0.209785E-7       -0.112234E-5
        0.390000          -0.209781E-7       -0.112231E-5
        0.400000          -0.209779E-7       -0.112228E-5
        0.410000          -0.209778E-7       -0.112225E-5
        0.420000          -0.209779E-7       -0.112221E-5
        0.430000          -0.209781E-7       -0.112218E-5
        0.440000          -0.209785E-7       -0.112215E-5
        0.450000          -0.209790E-7       -0.112211E-5
        0.460000          -0.209796E-7       -0.112208E-5
        0.470000          -0.209804E-7       -0.112204E-5
        0.480000          -0.209814E-7       -0.112200E-5
        0.490000          -0.209824E-7       -0.112197E-5
        0.500000          -0.209837E-7       -0.112193E-5
        0.510000          -0.209850E-7       -0.112189E-5
        0.520000          -0.209865E-7       -0.112185E-5
        0.530000          -0.209882E-7       -0.112181E-5
        0.540000          -0.209899E-7       -0.112176E-5
        0.550000          -0.209918E-7       -0.112172E-5
        0.560000          -0.209939E-7       -0.112168E-5
        0.570000          -0.209960E-7       -0.112163E-5
        0.580000          -0.209983E-7       -0.112159E-5
        0.590000          -0.210008E-7       -0.112154E-5
        0.600000          -0.210033E-7       -0.112149E-5
        0.610000          -0.210060E-7       -0.112144E-5
        0.620000          -0.210088E-7       -0.112139E-5
        0.630000          -0.210118E-7       -0.112135E-5
        0.640000          -0.210148E-7       -0.112129E-5
        0.650000          -0.210180E-7       -0.112124E-5
        0.660000          -0.210213E-7       -0.112119E-5
        0.670000          -0.210248E-7       -0.112114E-5
        0.680000          -0.210283E-7       -0.112108E-5
        0.690000          -0.210320E-7       -0.112102E-5
        0.700000          -0.210358E-7       -0.112097E-5
        0.710000          -0.210397E-7       -0.112091E-5
        0.720000          -0.210438E-7       -0.112085E-5
        0.730000          -0.210479E-7       -0.112079E-5
        0.740000          -0.210522E-7       -0.112073E-5
        0.750000          -0.210566E-7       -0.112066E-5
        0.760000          -0.210611E-7       -0.112060E-5
        0.770000          -0.210657E-7       -0.112054E-5
        0.780000          -0.210704E-7       -0.112047E-5
        0.790000          -0.210752E-7       -0.112041E-5
        0.800000          -0.210801E-7       -0.112034E-5
        0.810000          -0.210852E-7       -0.112027E-5
        0.820000          -0.210904E-7       -0.112020E-5
        0.830000          -0.210956E-7       -0.112013E-5
        0.840000          -0.211010E-7       -0.112006E-5
        0.850000          -0.211065E-7       -0.111998E-5
        0.860000          -0.211120E-7       -0.111991E-5
        0.870000          -0.211177E-7       -0.111984E-5
        0.880000          -0.211235E-7       -0.111976E-5
        0.890000          -0.211293E-7       -0.111968E-5
        0.900000          -0.211353E-7       -0.111960E-5
        0.910000          -0.211414E-7       -0.111952E-5
        0.920000          -0.211476E-7       -0.111944E-5
        0.930000          -0.211538E-7       -0.111935E-5
        0.940000          -0.211602E-7       -0.111927E-5
        0.950000          -0.211666E-7       -0.111919E-5
        0.960000          -0.211732E-7       -0.111910E-5
        0.970000          -0.211798E-7       -0.111901E-5
        0.980000          -0.211865E-7       -0.111892E-5
        0.990000          -0.211933E-7       -0.111883E-5
        1.000000          -0.212002E-7       -0.111874E-5
        1.010000          -0.212072E-7       -0.111865E-5
        1.020000          -0.212143E-7       -0.111855E-5
        1.030000          -0.212215E-7       -0.111845E-5
        1.040000          -0.212287E-7       -0.111836E-5
        1.050000          -0.212361E-7       -0.111826E-5
        1.060000          -0.212434E-7       -0.111816E-5
        1.070000          -0.212509E-7       -0.111806E-5
        1.080000          -0.212585E-7       -0.111795E-5
        1.090000          -0.212661E-7       -0.111785E-5
        1.100000          -0.212738E-7       -0.111774E-5
        1.110000          -0.212816E-7       -0.111764E-5
        1.120000          -0.212895E-7       -0.111753E-5
        1.130000          -0.212974E-7       -0.111741E-5
        1.140000          -0.213054E-7       -0.111730E-5
        1.150000          -0.213135E-7       -0.111719E-5
        1.160000          -0.213217E-7       -0.111707E-5
        1.170000          -0.213299E-7       -0.111696E-5
        1.180000          -0.213381E-7       -0.111684E-5
        1.190000          -0.213465E-7       -0.111672E-5
        1.200000          -0.213549E-7       -0.111659E-5
        1.210000          -0.213634E-7       -0.111647E-5
        1.220000          -0.213719E-7       -0.111634E-5
        1.230000          -0.213805E-7       -0.111622E-5
        1.240000          -0.213892E-7       -0.111609E-5
        1.250000          -0.213978E-7       -0.111596E-5
        1.260000          -0.214066E-7       -0.111582E-5
        1.270000          -0.214154E-7       -0.111569E-5
        1.280000          -0.214243E-7       -0.111555E-5
        1.290000          -0.214332E-7       -0.111541E-5
        1.300000          -0.214422E-7       -0.111527E-5
        1.310000          -0.214512E-7       -0.111513E-5
        1.320000          -0.214603E-7       -0.111499E-5
        1.330000          -0.214694E-7       -0.111484E-5
        1.340000          -0.214785E-7       -0.111469E-5
        1.350000          -0.214877E-7       -0.111454E-5
        1.360000          -0.214970E-7       -0.111439E-5
        1.370000          -0.215062E-7       -0.111424E-5
        1.380000          -0.215155E-7       -0.111408E-5
        1.390000          -0.215249E-7       -0.111392E-5
        1.400000          -0.215343E-7       -0.111376E-5
        1.410000          -0.215437E-7       -0.111360E-5
        1.420000          -0.215531E-7       -0.111343E-5
        1.430000          -0.215626E-7       -0.111327E-5
        1.440000          -0.215721E-7       -0.111310E-5
        1.450000          -0.215816E-7       -0.111293E-5
        1.460000          -0.215912E-7       -0.111275E-5
        1.470000          -0.216008E-7       -0.111258E-5
        1.480000          -0.216103E-7       -0.111240E-5
        1.490000          -0.216200E-7       -0.111222E-5
        1.500000          -0.216296E-7       -0.111204E-5
        1.510000          -0.216393E-7       -0.111185E-5
        1.520000          -0.216489E-7       -0.111166E-5
        1.530000          -0.216586E-7       -0.111148E-5
        1.540000          -0.216683E-7       -0.111128E-5
        1.550000          -0.216780E-7       -0.111109E-5
        1.560000          -0.216877E-7       -0.111089E-5
        1.570000          -0.216974E-7       -0.111069E-5
        1.580000          -0.217071E-7       -0.111049E-5
        1.590000          -0.217168E-7       -0.111028E-5
        1.600000          -0.217265E-7       -0.111007E-5
        1.610000          -0.217362E-7       -0.110986E-5
        1.620000          -0.217459E-7       -0.110965E-5
        1.630000          -0.217556E-7       -0.110943E-5
        1.640000          -0.217653E-7       -0.110921E-5
        1.650000          -0.217749E-7       -0.110899E-5
        1.660000          -0.217846E-7       -0.110877E-5
        1.670000          -0.217942E-7       -0.110854E-5
        1.680000          -0.218038E-7       -0.110831E-5
        1.690000          -0.218135E-7       -0.110808E-5
        1.700000          -0.218230E-7       -0.110784E-5
        1.710000          -0.218326E-7       -0.110760E-5
        1.720000          -0.218421E-7       -0.110736E-5
        1.730000          -0.218516E-7       -0.110711E-5
        1.740000          -0.218610E-7       -0.110686E-5
        1.750000          -0.218705E-7       -0.110661E-5
        1.760000          -0.218798E-7       -0.110636E-5
        1.770000          -0.218892E-7       -0.110610E-5
        1.780000          -0.218985E-7       -0.110584E-5
        1.790000          -0.219078E-7       -0.110557E-5
        1.800000          -0.219169E-7       -0.110530E-5
        1.810000          -0.219261E-7       -0.110503E-5
        1.820000          -0.219352E-7       -0.110476E-5
        1.830000          -0.219443E-7       -0.110448E-5
        1.840000          -0.219533E-7       -0.110419E-5
        1.850000          -0.219622E-7       -0.110391E-5
        1.860000          -0.219710E-7       -0.110362E-5
        1.870000          -0.219798E-7       -0.110333E-5
        1.880000          -0.219885E-7       -0.110303E-5
        1.890000          -0.219972E-7       -0.110273E-5
        1.900000          -0.220058E-7       -0.110243E-5
        1.910000          -0.220143E-7       -0.110212E-5
        1.920000          -0.220227E-7       -0.110180E-5
        1.930000          -0.220310E-7       -0.110149E-5
        1.940000          -0.220392E-7       -0.110117E-5
        1.950000          -0.220474E-7       -0.110085E-5
        1.960000          -0.220554E-7       -0.110052E-5
        1.970000          -0.220634E-7       -0.110019E-5
        1.980000          -0.220712E-7       -0.109985E-5
        1.990000          -0.220790E-7       -0.109951E-5
        2.000000          -0.220866E-7       -0.109916E-5
        2.010000          -0.220941E-7       -0.109882E-5
        2.020000          -0.221015E-7       -0.109846E-5
        2.030000          -0.221088E-7       -0.109811E-5
        2.040000          -0.221159E-7       -0.109774E-5
        2.050000          -0.221230E-7       -0.109738E-5
        2.060000          -0.221299E-7       -0.109701E-5
        2.070000          -0.221366E-7       -0.109663E-5
        2.080000          -0.221432E-7       -0.109625E-5
        2.090000          -0.221497E-7       -0.109587E-5
        2.100000          -0.221560E-7       -0.109547E-5
        2.110000          -0.221622E-7       -0.109508E-5
        2.120000          -0.221682E-7       -0.109468E-5
        2.130000          -0.221741E-7       -0.109427E-5
        2.140000          -0.221798E-7       -0.109386E-5
        2.150000          -0.221853E-7       -0.109345E-5
        2.160000          -0.221906E-7       -0.109303E-5
        2.170000          -0.221959E-7       -0.109260E-5
        2.180000          -0.222008E-7       -0.109217E-5
        2.190000          -0.222056E-7       -0.109174E-5
        2.200000          -0.222102E-7       -0.109130E-5
        2.210000          -0.222147E-7       -0.109085E-5
        2.220000          -0.222189E-7       -0.109040E-5
        2.230000          -0.222228E-7       -0.108994E-5
        2.240000          -0.222266E-7       -0.108948E-5
        2.250000          -0.222302E-7       -0.108901E-5
        2.260000          -0.222336E-7       -0.108853E-5
        2.270000          -0.222367E-7       -0.108805E-5
        2.280000          -0.222396E-7       -0.108756E-5
        2.290000          -0.222422E-7       -0.108707E-5
        2.300000          -0.222446E-7       -0.108657E-5
        2.310000          -0.222467E-7       -0.108607E-5
        2.320000          -0.222486E-7       -0.108556E-5
        2.330000          -0.222503E-7       -0.108504E-5
        2.340000          -0.222516E-7       -0.108451E-5
        2.350000          -0.222527E-7       -0.108398E-5
        2.360000          -0.222535E-7       -0.108345E-5
        2.370000          -0.222540E-7       -0.108290E-5
        2.380000          -0.222543E-7       -0.108235E-5
        2.390000          -0.222542E-7       -0.108179E-5
        2.400000          -0.222538E-7       -0.108123E-5
        2.410000          -0.222531E-7       -0.108066E-5
        2.420000          -0.222521E-7       -0.108008E-5
        2.430000          -0.222507E-7       -0.107949E-5
        2.440000          -0.222491E-7       -0.107890E-5
        2.450000          -0.222470E-7       -0.107830E-5
        2.460000          -0.222447E-7       -0.107770E-5
        2.470000          -0.222419E-7       -0.107708E-5
        2.480000          -0.222388E-7       -0.107646E-5
        2.490000          -0.222354E-7       -0.107583E-5
        2.500000          -0.222315E-7       -0.107519E-5
        2.510000          -0.222273E-7       -0.107454E-5
        2.520000          -0.222227E-7       -0.107389E-5
        2.530000          -0.222176E-7       -0.107323E-5
        2.540000          -0.222122E-7       -0.107256E-5
        2.550000          -0.222063E-7       -0.107188E-5
        2.560000          -0.222000E-7       -0.107120E-5
        2.570000          -0.221933E-7       -0.107050E-5
        2.580000          -0.221861E-7       -0.106980E-5
        2.590000          -0.221785E-7       -0.106909E-5
        2.600000          -0.221704E-7       -0.106836E-5
        2.610000          -0.221618E-7       -0.106764E-5
        2.620000          -0.221527E-7       -0.106690E-5
        2.630000          -0.221432E-7       -0.106615E-5
        2.640000          -0.221331E-7       -0.106539E-5
        2.650000          -0.221225E-7       -0.106463E-5
        2.660000          -0.221114E-7       -0.106385E-5
        2.670000          -0.220997E-7       -0.106306E-5
        2.680000          -0.220875E-7       -0.106227E-5
        2.690000          -0.220748E-7       -0.106147E-5
        2.700000          -0.220615E-7       -0.106065E-5
        2.710000          -0.220475E-7       -0.105982E-5
        2.720000          -0.220331E-7       -0.105899E-5
        2.730000          -0.220180E-7       -0.105814E-5
        2.740000          -0.220023E-7       -0.105729E-5
        2.750000          -0.219859E-7       -0.105642E-5
        2.760000          -0.219689E-7       -0.105554E-5
        2.770000          -0.219513E-7       -0.105466E-5
        2.780000          -0.219330E-7       -0.105376E-5
        2.790000          -0.219140E-7       -0.105285E-5
        2.800000          -0.218943E-7       -0.105192E-5
        2.810000          -0.218740E-7       -0.105099E-5
        2.820000          -0.218528E-7       -0.105005E-5
        2.830000          -0.218310E-7       -0.104909E-5
        2.840000          -0.218084E-7       -0.104812E-5
        2.850000          -0.217851E-7       -0.104714E-5
        2.860000          -0.217610E-7       -0.104615E-5
        2.870000          -0.217360E-7       -0.104514E-5
        2.880000          -0.217103E-7       -0.104413E-5
        2.890000          -0.216838E-7       -0.104310E-5
        2.900000          -0.216564E-7       -0.104205E-5
        2.910000          -0.216281E-7       -0.104100E-5
        2.920000          -0.215990E-7       -0.103993E-5
        2.930000          -0.215690E-7       -0.103885E-5
        2.940000          -0.215381E-7       -0.103775E-5
        2.950000          -0.215063E-7       -0.103664E-5
        2.960000          -0.214735E-7       -0.103552E-5
        2.970000          -0.214398E-7       -0.103438E-5
        2.980000          -0.214050E-7       -0.103323E-5
        2.990000          -0.213693E-7       -0.103206E-5
        3.000000          -0.213326E-7       -0.103088E-5
        3.010000          -0.212948E-7       -0.102969E-5
        3.020000          -0.212560E-7       -0.102848E-5
        3.030000          -0.212161E-7       -0.102725E-5
        3.040000          -0.211751E-7       -0.102601E-5
        3.050000          -0.211330E-7       -0.102475E-5
        3.060000          -0.210897E-7       -0.102348E-5
        3.070000          -0.210453E-7       -0.102219E-5
        3.080000          -0.209996E-7       -0.102089E-5
        3.090000          -0.209528E-7       -0.101957E-5
        3.100000          -0.209048E-7       -0.101823E-5
        3.110000          -0.208555E-7       -0.101688E-5
        3.120000          -0.208049E-7       -0.101551E-5
        3.130000          -0.207530E-7       -0.101412E-5
        3.140000          -0.206997E-7       -0.101271E-5
        3.150000          -0.206452E-7       -0.101129E-5
        3.160000          -0.205892E-7       -0.100984E-5
        3.170000          -0.205318E-7       -0.100838E-5
        3.180000          -0.204730E-7       -0.100690E-5
        3.190000          -0.204128E-7       -0.100540E-5
        3.200000          -0.203510E-7       -0.100389E-5
        3.210000          -0.202877E-7       -0.100235E-5
        3.220000          -0.202229E-7       -0.100080E-5
        3.230000          -0.201564E-7       -0.999220E-6
        3.240000          -0.200884E-7       -0.997625E-6
        3.250000          -0.200187E-7       -0.996007E-6
        3.260000          -0.199474E-7       -0.994370E-6
        3.270000          -0.198743E-7       -0.992714E-6
        3.280000          -0.197995E-7       -0.991034E-6
        3.290000          -0.197229E-7       -0.989335E-6
        3.300000          -0.196445E-7       -0.987611E-6
        3.310000          -0.195643E-7       -0.985867E-6
        3.320000          -0.194822E-7       -0.984100E-6
        3.330000          -0.193982E-7       -0.982311E-6
        3.340000          -0.193121E-7       -0.980497E-6
        3.350000          -0.192241E-7       -0.978662E-6
        3.360000          -0.191341E-7       -0.976802E-6
        3.370000          -0.190420E-7       -0.974917E-6
        3.380000          -0.189478E-7       -0.973009E-6
        3.390000          -0.188514E-7       -0.971076E-6
        3.400000          -0.187528E-7       -0.969120E-6
        3.410000          -0.186520E-7       -0.967136E-6
        3.420000          -0.185489E-7       -0.965126E-6
        3.430000          -0.184434E-7       -0.963089E-6
        3.440000          -0.183356E-7       -0.961028E-6
        3.450000          -0.182253E-7       -0.958939E-6
        3.460000          -0.181126E-7       -0.956823E-6
        3.470000          -0.179973E-7       -0.954680E-6
        3.480000          -0.178795E-7       -0.952506E-6
        3.490000          -0.177590E-7       -0.950305E-6
        3.500000          -0.176359E-7       -0.948076E-6
        3.510000          -0.175099E-7       -0.945818E-6
        3.520000          -0.173813E-7       -0.943529E-6
        3.530000          -0.172497E-7       -0.941209E-6
        3.540000          -0.171153E-7       -0.938859E-6
        3.550000          -0.169778E-7       -0.936479E-6
        3.560000          -0.168374E-7       -0.934066E-6
        3.570000          -0.166939E-7       -0.931622E-6
        3.580000          -0.165472E-7       -0.929145E-6
        3.590000          -0.163973E-7       -0.926635E-6
        3.600000          -0.162442E-7       -0.924091E-6
        3.610000          -0.160876E-7       -0.921513E-6
        3.620000          -0.159277E-7       -0.918902E-6
        3.630000          -0.157643E-7       -0.916256E-6
        3.640000          -0.155973E-7       -0.913572E-6
        3.650000          -0.154267E-7       -0.910854E-6
        3.660000          -0.152524E-7       -0.908098E-6
        3.670000          -0.150742E-7       -0.905307E-6
        3.680000          -0.148923E-7       -0.902476E-6
        3.690000          -0.147064E-7       -0.899609E-6
        3.700000          -0.145164E-7       -0.896700E-6
        3.710000          -0.143223E-7       -0.893754E-6
        3.720000          -0.141241E-7       -0.890768E-6
        3.730000          -0.139216E-7       -0.887739E-6
        3.740000          -0.137146E-7       -0.884670E-6
        3.750000          -0.135032E-7       -0.881560E-6
        3.760000          -0.132872E-7       -0.878406E-6
        3.770000          -0.130666E-7       -0.875209E-6
        3.780000          -0.128413E-7       -0.871968E-6
        3.790000          -0.126110E-7       -0.868682E-6
        3.800000          -0.123758E-7       -0.865352E-6
        3.810000          -0.121355E-7       -0.861975E-6
        3.820000          -0.118900E-7       -0.858551E-6
        3.830000          -0.116393E-7       -0.855080E-6
        3.840000          -0.113831E-7       -0.851560E-6
        3.850000          -0.111214E-7       -0.847991E-6
        3.860000          -0.108540E-7       -0.844373E-6
        3.870000          -0.105809E-7       -0.840704E-6
        3.880000          -0.103019E-7       -0.836984E-6
        3.890000          -0.100169E-7       -0.833211E-6
        3.900000          -0.972568E-8       -0.829384E-6
        3.910000          -0.942816E-8       -0.825505E-6
        3.920000          -0.912422E-8       -0.821570E-6
        3.930000          -0.881374E-8       -0.817577E-6
        3.940000          -0.849650E-8       -0.813529E-6
        3.950000          -0.817242E-8       -0.809424E-6
        3.960000          -0.784127E-8       -0.805260E-6
        3.970000          -0.750293E-8       -0.801038E-6
        3.980000          -0.715726E-8       -0.796753E-6
        3.990000          -0.680408E-8       -0.792407E-6
        4.000000          -0.644324E-8       -0.787999E-6
        4.010000          -0.607449E-8       -0.783529E-6
        4.020000          -0.569777E-8       -0.778992E-6
        4.030000          -0.531279E-8       -0.774389E-6
        4.040000          -0.491944E-8       -0.769718E-6
        4.050000          -0.451744E-8       -0.764981E-6
        4.060000          -0.410664E-8       -0.760173E-6
        4.070000          -0.368684E-8       -0.755296E-6
        4.080000          -0.325784E-8       -0.750348E-6
        4.090000          -0.281937E-8       -0.745327E-6
        4.100000          -0.237127E-8       -0.740231E-6
        4.110000          -0.191333E-8       -0.735060E-6
        4.120000          -0.144523E-8       -0.729810E-6
        4.130000          -0.96681E-09       -0.724485E-6
        4.140000          -0.47776E-09       -0.719078E-6
        4.150000           0.22072E-10       -0.713592E-6
        4.160000           0.53304E-09       -0.708023E-6
        4.170000           0.105540E-8       -0.702371E-6
        4.180000           0.158939E-8       -0.696634E-6
        4.190000           0.213533E-8       -0.690809E-6
        4.200000           0.269346E-8       -0.684897E-6
        4.210000           0.326413E-8       -0.678891E-6
        4.220000           0.384763E-8       -0.672798E-6
        4.230000           0.444426E-8       -0.666611E-6
        4.240000           0.505431E-8       -0.660328E-6
        4.250000           0.567818E-8       -0.653948E-6
        4.260000           0.631619E-8       -0.647469E-6
        4.270000           0.696867E-8       -0.640893E-6
        4.280000           0.763605E-8       -0.634210E-6
        4.290000           0.831863E-8       -0.627427E-6
        4.300000           0.901684E-8       -0.620535E-6
        4.310000           0.973101E-8       -0.613537E-6
        4.320000           0.104616E-7       -0.606429E-6
        4.330000           0.112090E-7       -0.599206E-6
        4.340000           0.119737E-7       -0.591872E-6
        4.350000           0.127561E-7       -0.584420E-6
        4.360000           0.135566E-7       -0.576850E-6
        4.370000           0.143758E-7       -0.569159E-6
        4.380000           0.152141E-7       -0.561344E-6
        4.390000           0.160720E-7       -0.553404E-6
        4.400000           0.169501E-7       -0.545335E-6
        4.410000           0.178488E-7       -0.537135E-6
        4.420000           0.187688E-7       -0.528803E-6
        4.430000           0.197105E-7       -0.520334E-6
        4.440000           0.206747E-7       -0.511728E-6
        4.450000           0.216618E-7       -0.502978E-6
        4.460000           0.226724E-7       -0.494087E-6
        4.470000           0.237074E-7       -0.485045E-6
        4.480000           0.247671E-7       -0.475856E-6
        4.490000           0.258526E-7       -0.466511E-6
        4.500000           0.269643E-7       -0.457010E-6
        4.510000           0.281030E-7       -0.447352E-6
        4.520000           0.292695E-7       -0.437530E-6
        4.530000           0.304645E-7       -0.427541E-6
        4.540000           0.316889E-7       -0.417381E-6
        4.550000           0.329435E-7       -0.407051E-6
        4.560000           0.342291E-7       -0.396541E-6
        4.570000           0.355466E-7       -0.385854E-6
        4.580000           0.368970E-7       -0.374979E-6
        4.590000           0.382811E-7       -0.363916E-6
        4.600000           0.397001E-7       -0.352662E-6
        4.610000           0.411548E-7       -0.341210E-6
        4.620000           0.426463E-7       -0.329556E-6
        4.630000           0.441758E-7       -0.317698E-6
        4.640000           0.457443E-7       -0.305630E-6
        4.650000           0.473531E-7       -0.293347E-6
        4.660000           0.490033E-7       -0.280845E-6
        4.670000           0.506962E-7       -0.268118E-6
        4.680000           0.524330E-7       -0.255161E-6
        4.690000           0.542151E-7       -0.241972E-6
        4.700000           0.560439E-7       -0.228539E-6
        4.710000           0.579209E-7       -0.214865E-6
        4.720000           0.598475E-7       -0.200939E-6
        4.730000           0.618252E-7       -0.186755E-6
        4.740000           0.638559E-7       -0.172310E-6
        4.750000           0.659409E-7       -0.157595E-6
        4.760000           0.680822E-7       -0.142604E-6
        4.770000           0.702814E-7       -0.127333E-6
        4.780000           0.725406E-7       -0.111774E-6
        4.790000           0.748615E-7       -0.959169E-7
        4.800000           0.772463E-7       -0.797587E-7
        4.810000           0.796970E-7       -0.632901E-7
        4.820000           0.822159E-7       -0.465051E-7
        4.830000           0.848052E-7       -0.293956E-7
        4.840000           0.874671E-7       -0.119506E-7
        4.850000           0.902045E-7        0.583505E-8
        4.860000           0.930194E-7        0.239705E-7
        4.870000           0.959148E-7        0.424652E-7
        4.880000           0.988934E-7        0.613269E-7
        4.890000           0.101958E-6        0.805677E-7
        4.900000           0.105112E-6        0.100195E-6
        4.910000           0.108358E-6        0.120220E-6
        4.920000           0.111699E-6        0.140650E-6
        4.930000           0.115140E-6        0.161501E-6
        4.940000           0.118683E-6        0.182780E-6
        4.950000           0.122332E-6        0.204498E-6
        4.960000           0.126091E-6        0.226672E-6
        4.970000           0.129964E-6        0.249310E-6
        4.980000           0.133956E-6        0.272425E-6
        4.990000           0.138071E-6        0.296029E-6
        5.000000           0.142312E-6        0.320139E-6
        5.010000           0.146687E-6        0.344765E-6
        5.020000           0.151198E-6        0.369924E-6
        5.030000           0.155853E-6        0.395632E-6
        5.040000           0.160655E-6        0.421904E-6
        5.050000           0.165612E-6        0.448752E-6
        5.060000           0.170729E-6        0.476198E-6
        5.070000           0.176012E-6        0.504257E-6
        5.080000           0.181469E-6        0.532947E-6
        5.090000           0.187106E-6        0.562289E-6
        5.100000           0.192931E-6        0.592298E-6
        5.110000           0.198951E-6        0.622996E-6
        5.120000           0.205175E-6        0.654407E-6
        5.130000           0.211612E-6        0.686550E-6
        5.140000           0.218270E-6        0.719448E-6
        5.150000           0.225159E-6        0.753124E-6
        5.160000           0.232289E-6        0.787601E-6
        5.170000           0.239670E-6        0.822910E-6
        5.180000           0.247314E-6        0.859069E-6
        5.190000           0.255232E-6        0.896115E-6
        5.200000           0.263438E-6        0.934070E-6
        5.210000           0.271943E-6        0.972963E-6
        5.220000           0.280763E-6        0.101283E-5
        5.230000           0.289911E-6        0.105371E-5
        5.240000           0.299402E-6        0.109562E-5
        5.250000           0.309254E-6        0.113860E-5
        5.260000           0.319484E-6        0.118270E-5
        5.270000           0.330110E-6        0.122794E-5
        5.280000           0.341152E-6        0.127438E-5
        5.290000           0.352630E-6        0.132204E-5
        5.300000           0.364567E-6        0.137099E-5
        5.310000           0.376986E-6        0.142126E-5
        5.320000           0.389911E-6        0.147289E-5
        5.330000           0.403369E-6        0.152595E-5
        5.340000           0.417390E-6        0.158048E-5
        5.350000           0.432002E-6        0.163655E-5
        5.360000           0.447237E-6        0.169420E-5
        5.370000           0.463131E-6        0.175350E-5
        5.380000           0.479720E-6        0.181451E-5
        5.390000           0.497042E-6        0.187731E-5
        5.400000           0.515141E-6        0.194196E-5
        5.410000           0.534061E-6        0.200854E-5
        5.420000           0.553850E-6        0.207712E-5
        5.430000           0.574561E-6        0.214779E-5
        5.440000           0.596248E-6        0.222064E-5
        5.450000           0.618972E-6        0.229575E-5
        5.460000           0.642798E-6        0.237324E-5
        5.470000           0.667795E-6        0.245318E-5
        5.480000           0.694040E-6        0.253570E-5
        5.490000           0.721611E-6        0.262091E-5
        5.500000           0.750599E-6        0.270894E-5
        5.510000           0.781098E-6        0.279989E-5
        5.520000           0.813212E-6        0.289392E-5
        5.530000           0.847052E-6        0.299117E-5
        5.540000           0.882742E-6        0.309178E-5
        5.550000           0.920414E-6        0.319592E-5
        5.560000           0.960213E-6        0.330376E-5
        5.570000           0.100230E-5        0.341548E-5
        5.580000           0.104684E-5        0.353127E-5
        5.590000           0.109404E-5        0.365132E-5
        5.600000           0.114409E-5        0.377587E-5
        5.610000           0.119722E-5        0.390514E-5
        5.620000           0.125370E-5        0.403937E-5
        5.630000           0.131379E-5        0.417882E-5
        5.640000           0.137780E-5        0.432378E-5
        5.650000           0.144608E-5        0.447453E-5
        5.660000           0.151900E-5        0.463138E-5
        5.670000           0.159698E-5        0.479468E-5
        5.680000           0.168048E-5        0.496476E-5
        5.690000           0.177002E-5        0.514201E-5
        5.700000           0.186619E-5        0.532681E-5
        5.710000           0.196964E-5        0.551961E-5
        5.720000           0.208110E-5        0.572082E-5
        5.730000           0.220138E-5        0.593092E-5
        5.740000           0.233142E-5        0.615040E-5
        5.750000           0.247226E-5        0.637978E-5
        5.760000           0.262510E-5        0.661957E-5
        5.770000           0.279127E-5        0.687031E-5
        5.780000           0.297230E-5        0.713255E-5
        5.790000           0.316996E-5        0.740685E-5
        5.800000           0.338623E-5        0.769373E-5
        5.810000           0.362340E-5        0.799370E-5
        5.820000           0.388411E-5        0.830718E-5
        5.830000           0.417137E-5        0.863453E-5
        5.840000           0.448867E-5        0.897594E-5
        5.850000           0.483999E-5        0.933140E-5
        5.860000           0.522998E-5        0.970058E-5
        5.870000           0.566395E-5        0.100828E-4
        5.880000           0.614804E-5        0.104766E-4
        5.890000           0.668927E-5        0.108800E-4
        5.900000           0.729568E-5        0.112898E-4
        5.910000           0.797637E-5        0.117012E-4
        5.920000           0.874152E-5        0.121075E-4
        5.930000           0.960234E-5        0.124995E-4
        5.940000           0.105708E-4        0.128643E-4
        5.950000           0.116591E-4        0.131848E-4
        5.960000           0.128787E-4        0.134380E-4
        5.970000           0.142389E-4        0.135942E-4
        5.980000           0.157442E-4        0.136158E-4
        5.990000           0.173908E-4        0.134566E-4
        6.000000           0.191619E-4        0.130628E-4
        6.010000           0.210218E-4        0.123760E-4
        6.020000           0.229106E-4        0.113397E-4
        6.030000           0.247404E-4        0.991028E-5
        6.040000           0.263974E-4        0.807121E-5
        6.050000           0.277526E-4        0.584843E-5
        6.060000           0.286818E-4        0.332008E-5
        6.070000           0.290913E-4        0.614296E-6
        6.080000           0.289420E-4       -0.210841E-5
        6.090000           0.282595E-4       -0.468431E-5
        6.100000           0.271267E-4       -0.697662E-5
        6.110000           0.256627E-4       -0.889589E-5
        6.120000           0.239963E-4       -0.104050E-4
        6.130000           0.222447E-4       -0.115113E-4
        6.140000           0.205013E-4       -0.122521E-4
        6.150000           0.188319E-4       -0.126805E-4
        6.160000           0.172776E-4       -0.128533E-4
        6.170000           0.158600E-4       -0.128240E-4
        6.180000           0.145864E-4       -0.126394E-4
        6.190000           0.134554E-4       -0.123378E-4
        6.200000           0.124599E-4       -0.119500E-4
        6.210000           0.115903E-4       -0.114995E-4
        6.220000           0.108358E-4       -0.110043E-4
        6.230000           0.101859E-4       -0.104775E-4
        6.240000           0.963064E-5       -0.992880E-5
        6.250000           0.916100E-5       -0.936489E-5
        6.260000           0.876916E-5       -0.879042E-5
        6.270000           0.844846E-5       -0.820840E-5
        6.280000           0.819336E-5       -0.762059E-5
        6.290000           0.799937E-5       -0.702788E-5
        6.300000           0.786306E-5       -0.643043E-5
        6.310000           0.778192E-5       -0.582790E-5
        6.320000           0.775437E-5       -0.521964E-5
        6.330000           0.777968E-5       -0.460466E-5
        6.340000           0.785801E-5       -0.398185E-5
        6.350000           0.799037E-5       -0.334997E-5
        6.360000           0.817866E-5       -0.270778E-5
        6.370000           0.842571E-5       -0.205408E-5
        6.380000           0.873536E-5       -0.138782E-5
        6.390000           0.911251E-5       -0.708198E-6
        6.400000           0.956329E-5       -0.147823E-7
        6.410000           0.100951E-4        0.692292E-6
        6.420000           0.107170E-4        0.141210E-5
        6.430000           0.114395E-4        0.214261E-5
        6.440000           0.122751E-4        0.288028E-5
        6.450000           0.132382E-4        0.361950E-5
        6.460000           0.143456E-4        0.435186E-5
        6.470000           0.156161E-4        0.506514E-5
        6.480000           0.170707E-4        0.574212E-5
        6.490000           0.187318E-4        0.635899E-5
        6.500000           0.206228E-4        0.688338E-5
        6.510000           0.227656E-4        0.727208E-5
        6.520000           0.251781E-4        0.746871E-5
        6.530000           0.278693E-4        0.740158E-5
        6.540000           0.308325E-4        0.698267E-5
        6.550000           0.340363E-4        0.610911E-5
        6.560000           0.374131E-4        0.466910E-5
        6.570000           0.408490E-4        0.255455E-5
        6.580000           0.441770E-4       -0.318219E-6
        6.590000           0.471816E-4       -0.398077E-5
        6.600000           0.496183E-4       -0.838409E-5
        6.610000           0.512531E-4       -0.133806E-4
        6.620000           0.519113E-4       -0.187296E-4
        6.630000           0.515207E-4       -0.241310E-4
        6.640000           0.501298E-4       -0.292807E-4
        6.650000           0.478935E-4       -0.339265E-4
        6.660000           0.450315E-4       -0.379045E-4
        6.670000           0.417809E-4       -0.411473E-4
        6.680000           0.383563E-4       -0.436694E-4
        6.690000           0.349284E-4       -0.455399E-4
        6.700000           0.316173E-4       -0.468561E-4
        6.710000           0.284980E-4       -0.477227E-4
        6.720000           0.256095E-4       -0.482387E-4
        6.730000           0.229651E-4       -0.484901E-4
        6.740000           0.205615E-4       -0.485490E-4
        6.750000           0.183851E-4       -0.484730E-4
        6.760000           0.164172E-4       -0.483070E-4
        6.770000           0.146369E-4       -0.480858E-4
        6.780000           0.130229E-4       -0.478357E-4
        6.790000           0.115549E-4       -0.475766E-4
        6.800000           0.102141E-4       -0.473232E-4
        6.810000           0.898325E-5       -0.470863E-4
        6.820000           0.784684E-5       -0.468742E-4
        6.830000           0.679096E-5       -0.466927E-4
        6.840000           0.580312E-5       -0.465462E-4
        6.850000           0.487215E-5       -0.464377E-4
        6.860000           0.398796E-5       -0.463698E-4
        6.870000           0.314138E-5       -0.463443E-4
        6.880000           0.232399E-5       -0.463626E-4
        6.890000           0.152797E-5       -0.464257E-4
        6.900000           0.745951E-6       -0.465346E-4
        6.910000          -0.291386E-7       -0.466903E-4
        6.920000          -0.804187E-6       -0.468937E-4
        6.930000          -0.158603E-5       -0.471453E-4
        6.940000          -0.238158E-5       -0.474463E-4
        6.950000          -0.319795E-5       -0.477975E-4
        6.960000          -0.404260E-5       -0.481997E-4
        6.970000          -0.492349E-5       -0.486538E-4
        6.980000          -0.584916E-5       -0.491606E-4
        6.990000          -0.682901E-5       -0.497208E-4
        7.000000          -0.787342E-5       -0.503349E-4
        7.010000          -0.899397E-5       -0.510031E-4
        7.020000          -0.102037E-4       -0.517249E-4
        7.030000          -0.115173E-4       -0.524992E-4
        7.039999          -0.129516E-4       -0.533237E-4
        7.050000          -0.145257E-4       -0.541946E-4
        7.059999          -0.162612E-4       -0.551060E-4
        7.070000          -0.181831E-4       -0.560489E-4
        7.079999          -0.203193E-4       -0.570104E-4
        7.090000          -0.227014E-4       -0.579723E-4
        7.099999          -0.253645E-4       -0.589088E-4
        7.110000          -0.283464E-4       -0.597848E-4
        7.119999          -0.316873E-4       -0.605525E-4
        7.130000          -0.354267E-4       -0.611482E-4
        7.140000          -0.396005E-4       -0.614881E-4
        7.150000          -0.442335E-4       -0.614643E-4
        7.160000          -0.493316E-4       -0.609421E-4
        7.170000          -0.548675E-4       -0.597595E-4
        7.180000          -0.607642E-4       -0.577322E-4
        7.190000          -0.668752E-4       -0.546680E-4
        7.200000          -0.729688E-4       -0.503933E-4
        7.210000          -0.787221E-4       -0.447944E-4
        7.220000          -0.837376E-4       -0.378666E-4
        7.230000          -0.875906E-4       -0.297603E-4
        7.240000          -0.899053E-4       -0.207986E-4
        7.250000          -0.904401E-4       -0.114506E-4
        7.260000          -0.891511E-4       -0.225529E-5
        7.270000          -0.862019E-4        0.627930E-5
        7.280000          -0.819199E-4        0.137654E-4
        7.290000          -0.767147E-4        0.199820E-4
        7.300000          -0.709967E-4        0.248722E-4
        7.310000          -0.651183E-4        0.285064E-4
        7.320000          -0.593464E-4        0.310332E-4
        7.330000          -0.538603E-4        0.326346E-4
        7.340000          -0.487648E-4        0.334950E-4
        7.350000          -0.441083E-4        0.337818E-4
        7.360000          -0.399000E-4        0.336377E-4
        7.370000          -0.361250E-4        0.331793E-4
        7.380000          -0.327544E-4        0.324981E-4
        7.390000          -0.297528E-4        0.316653E-4
        7.400000          -0.270828E-4        0.307342E-4
        7.410000          -0.247079E-4        0.297451E-4
        7.420000          -0.225938E-4        0.287274E-4
        7.430000          -0.207095E-4        0.277025E-4
        7.440000          -0.190270E-4        0.266856E-4
        7.450000          -0.175218E-4        0.256875E-4
        7.460000          -0.161723E-4        0.247154E-4
        7.470000          -0.149595E-4        0.237741E-4
        7.480000          -0.138671E-4        0.228666E-4
        7.489999          -0.128807E-4        0.219942E-4
        7.500000          -0.119880E-4        0.211577E-4
        7.510000          -0.111783E-4        0.203570E-4
        7.520000          -0.104421E-4        0.195914E-4
        7.530000          -0.977126E-5        0.188599E-4
        7.540000          -0.915865E-5        0.181614E-4
        7.550000          -0.859805E-5        0.174946E-4
        7.560000          -0.808398E-5        0.168581E-4
        7.570000          -0.761165E-5        0.162505E-4
        7.580000          -0.717685E-5        0.156704E-4
        7.590000          -0.677585E-5        0.151164E-4
        7.600000          -0.640539E-5        0.145870E-4
        7.610000          -0.606254E-5        0.140811E-4
        7.620000          -0.574473E-5        0.135974E-4
        7.630000          -0.544967E-5        0.131346E-4
        7.640000          -0.517529E-5        0.126917E-4
        7.650000          -0.491979E-5        0.122675E-4
        7.660000          -0.468152E-5        0.118611E-4
        7.670000          -0.445902E-5        0.114714E-4
        7.680000          -0.425097E-5        0.110977E-4
        7.690000          -0.405619E-5        0.107389E-4
        7.700000          -0.387360E-5        0.103944E-4
        7.710000          -0.370225E-5        0.100634E-4
        7.720000          -0.354125E-5        0.974518E-5
        7.730000          -0.338981E-5        0.943905E-5
        7.740000          -0.324722E-5        0.914442E-5
        7.750000          -0.311281E-5        0.886069E-5
        7.760000          -0.298601E-5        0.858732E-5
        7.770000          -0.286625E-5        0.832379E-5
        7.780000          -0.275304E-5        0.806959E-5
        7.789999          -0.264593E-5        0.782429E-5
        7.800000          -0.254450E-5        0.758745E-5
        7.809999          -0.244837E-5        0.735864E-5
        7.820000          -0.235718E-5        0.713752E-5
        7.829999          -0.227062E-5        0.692369E-5
        7.840000          -0.218838E-5        0.671685E-5
        7.849999          -0.211020E-5        0.651663E-5
        7.860000          -0.203581E-5        0.632276E-5
        7.870000          -0.196499E-5        0.613494E-5
        7.880000          -0.189751E-5        0.595291E-5
        7.890000          -0.183318E-5        0.577641E-5
        7.900000          -0.177181E-5        0.560520E-5
        7.910000          -0.171323E-5        0.543905E-5
        7.920000          -0.165727E-5        0.527773E-5
        7.930000          -0.160379E-5        0.512105E-5
        7.940000          -0.155265E-5        0.496880E-5
        7.950000          -0.150371E-5        0.482082E-5
        7.960000          -0.145687E-5        0.467691E-5
        7.970000          -0.141199E-5        0.453691E-5
        7.980000          -0.136899E-5        0.440066E-5
        7.990000          -0.132775E-5        0.426802E-5
        8.000000          -0.128819E-5        0.413883E-5
        8.010000          -0.125023E-5        0.401297E-5
        8.020000          -0.121377E-5        0.389030E-5
        8.030000          -0.117874E-5        0.377070E-5
        8.040000          -0.114508E-5        0.365405E-5
        8.050000          -0.111272E-5        0.354023E-5
        8.059999          -0.108158E-5        0.342915E-5
        8.070000          -0.105162E-5        0.332069E-5
        8.080000          -0.102277E-5        0.321477E-5
        8.090000          -0.994992E-6        0.311128E-5
        8.099999          -0.968225E-6        0.301014E-5
        8.110000          -0.942425E-6        0.291126E-5
        8.120000          -0.917549E-6        0.281457E-5
        8.130000          -0.893554E-6        0.271998E-5
        8.139999          -0.870402E-6        0.262742E-5
        8.150000          -0.848053E-6        0.253681E-5
        8.160000          -0.826473E-6        0.244810E-5
        8.170000          -0.805630E-6        0.236120E-5
        8.179999          -0.785491E-6        0.227607E-5
        8.190000          -0.766026E-6        0.219263E-5
        8.200000          -0.747206E-6        0.211083E-5
        8.209999          -0.729005E-6        0.203062E-5
        8.219999          -0.711396E-6        0.195194E-5
        8.230000          -0.694355E-6        0.187473E-5
        8.240001          -0.677860E-6        0.179896E-5
        8.250000          -0.661889E-6        0.172458E-5
        8.260000          -0.646420E-6        0.165153E-5
        8.270000          -0.631433E-6        0.157977E-5
        8.280000          -0.616909E-6        0.150926E-5
        8.290000          -0.602831E-6        0.143996E-5
        8.300000          -0.589181E-6        0.137183E-5
        8.310000          -0.575942E-6        0.130484E-5
        8.320000          -0.563099E-6        0.123894E-5
        8.330000          -0.550637E-6        0.117410E-5
        8.340000          -0.538541E-6        0.111029E-5
        8.350000          -0.526799E-6        0.104747E-5
        8.360000          -0.515396E-6        0.985611E-6
        8.370000          -0.504320E-6        0.924688E-6
        8.380000          -0.493560E-6        0.864664E-6
        8.390000          -0.483104E-6        0.805511E-6
        8.400000          -0.472941E-6        0.747204E-6
        8.410000          -0.463060E-6        0.689718E-6
        8.420000          -0.453453E-6        0.633019E-6
        8.430000          -0.444107E-6        0.577094E-6
        8.440000          -0.435015E-6        0.521912E-6
        8.450000          -0.426169E-6        0.467448E-6
        8.460000          -0.417558E-6        0.413674E-6
        8.469999          -0.409176E-6        0.360592E-6
        8.480000          -0.401014E-6        0.308150E-6
        8.490000          -0.393064E-6        0.256345E-6
        8.500000          -0.385320E-6        0.205154E-6
        8.509999          -0.377775E-6        0.154558E-6
        8.520000          -0.370421E-6        0.104534E-6
        8.530000          -0.363253E-6        0.550699E-7
        8.540000          -0.356263E-6        0.614158E-8
        8.549999          -0.349447E-6       -0.422653E-7
        8.559999          -0.342798E-6       -0.901662E-7
        8.570000          -0.336310E-6       -0.137578E-6
        8.580000          -0.329979E-6       -0.184522E-6
        8.589999          -0.323798E-6       -0.231006E-6
        8.600000          -0.317763E-6       -0.277054E-6
        8.610001          -0.311869E-6       -0.322672E-6
        8.620000          -0.306111E-6       -0.367876E-6
        8.630000          -0.300485E-6       -0.412682E-6
        8.640000          -0.294986E-6       -0.457098E-6
        8.650001          -0.289611E-6       -0.501147E-6
        8.660000          -0.284353E-6       -0.544836E-6
        8.670000          -0.279210E-6       -0.588172E-6
        8.680000          -0.274178E-6       -0.631173E-6
        8.690001          -0.269251E-6       -0.673857E-6
        8.700000          -0.264429E-6       -0.716225E-6
        8.710000          -0.259705E-6       -0.758302E-6
        8.720000          -0.255077E-6       -0.800078E-6
        8.730000          -0.250540E-6       -0.841581E-6
        8.740000          -0.246092E-6       -0.882811E-6
        8.750000          -0.241730E-6       -0.923790E-6
        8.760000          -0.237449E-6       -0.964516E-6
        8.770000          -0.233246E-6       -0.100500E-5
        8.780000          -0.229119E-6       -0.104526E-5
        8.790000          -0.225064E-6       -0.108531E-5
        8.800000          -0.221078E-6       -0.112513E-5
        8.809999          -0.217157E-6       -0.116476E-5
        8.820000          -0.213300E-6       -0.120420E-5
        8.830000          -0.209502E-6       -0.124345E-5
        8.840000          -0.205760E-6       -0.128252E-5
        8.849999          -0.202072E-6       -0.132143E-5
        8.860000          -0.198435E-6       -0.136017E-5
        8.870000          -0.194845E-6       -0.139876E-5
        8.880000          -0.191299E-6       -0.143720E-5
        8.889999          -0.187795E-6       -0.147550E-5
        8.900000          -0.184329E-6       -0.151368E-5
        8.910000          -0.180899E-6       -0.155173E-5
        8.919999          -0.177500E-6       -0.158966E-5
        8.929999          -0.174130E-6       -0.162748E-5
        8.940000          -0.170786E-6       -0.166519E-5
        8.950000          -0.167465E-6       -0.170281E-5
        8.959999          -0.164162E-6       -0.174033E-5
        8.970000          -0.160875E-6       -0.177776E-5
        8.980000          -0.157600E-6       -0.181511E-5
        8.990000          -0.154333E-6       -0.185238E-5
        9.000000          -0.151072E-6       -0.188959E-5
        9.010000          -0.147812E-6       -0.192672E-5
        9.020000          -0.144549E-6       -0.196379E-5
        9.030000          -0.141279E-6       -0.200080E-5
        9.040000          -0.137998E-6       -0.203777E-5
        9.050000          -0.134702E-6       -0.207467E-5
        9.060000          -0.131387E-6       -0.211153E-5
        9.070000          -0.128046E-6       -0.214836E-5
        9.080000          -0.124677E-6       -0.218514E-5
        9.090000          -0.121273E-6       -0.222190E-5
        9.100000          -0.117830E-6       -0.225861E-5
        9.110000          -0.114342E-6       -0.229530E-5
        9.120000          -0.110803E-6       -0.233195E-5
        9.130000          -0.107206E-6       -0.236859E-5
        9.140000          -0.103546E-6       -0.240519E-5
        9.150000          -0.998160E-7       -0.244177E-5
        9.160000          -0.960083E-7       -0.247833E-5
        9.170000          -0.921156E-7       -0.251487E-5
        9.179999          -0.881302E-7       -0.255139E-5
        9.190000          -0.840434E-7       -0.258789E-5
        9.200000          -0.798464E-7       -0.262436E-5
        9.210000          -0.755297E-7       -0.266081E-5
        9.219999          -0.710835E-7       -0.269724E-5
        9.230000          -0.664969E-7       -0.273363E-5
        9.240000          -0.617583E-7       -0.277000E-5
        9.250000          -0.568560E-7       -0.280634E-5
        9.259999          -0.517774E-7       -0.284263E-5
        9.270000          -0.465083E-7       -0.287889E-5
        9.280000          -0.410342E-7       -0.291509E-5
        9.290000          -0.353391E-7       -0.295124E-5
        9.299999          -0.294072E-7       -0.298734E-5
        9.309999          -0.232194E-7       -0.302336E-5
        9.320000          -0.167570E-7       -0.305930E-5
        9.330000          -0.999859E-8       -0.309516E-5
        9.340000          -0.292299E-8       -0.313092E-5
        9.350000           0.449319E-8       -0.316657E-5
        9.360001           0.122770E-7       -0.320209E-5
        9.370000           0.204548E-7       -0.323748E-5
        9.380000           0.290575E-7       -0.327270E-5
        9.390000           0.381167E-7       -0.330776E-5
        9.400001           0.476668E-7       -0.334263E-5
        9.410000           0.577463E-7       -0.337729E-5
        9.420000           0.683946E-7       -0.341170E-5
        9.430000           0.796568E-7       -0.344585E-5
        9.440000           0.915795E-7       -0.347972E-5
        9.450000           0.104215E-6       -0.351327E-5
        9.460000           0.117621E-6       -0.354647E-5
        9.470000           0.131856E-6       -0.357928E-5
        9.480000           0.146990E-6       -0.361166E-5
        9.490000           0.163092E-6       -0.364359E-5
        9.500000           0.180244E-6       -0.367500E-5
        9.510000           0.198533E-6       -0.370586E-5
        9.520000           0.218052E-6       -0.373610E-5
        9.530000           0.238907E-6       -0.376568E-5
        9.540000           0.261211E-6       -0.379453E-5
        9.550000           0.285090E-6       -0.382259E-5
        9.559999           0.310683E-6       -0.384979E-5
        9.570000           0.338140E-6       -0.387605E-5
        9.580000           0.367631E-6       -0.390129E-5
        9.590000           0.399340E-6       -0.392542E-5
        9.599999           0.433473E-6       -0.394835E-5
        9.610000           0.470256E-6       -0.396997E-5
        9.620000           0.509944E-6       -0.399019E-5
        9.629999           0.552816E-6       -0.400888E-5
        9.639999           0.599186E-6       -0.402592E-5
        9.650000           0.649403E-6       -0.404118E-5
        9.660000           0.703855E-6       -0.405453E-5
        9.669999           0.762982E-6       -0.406581E-5
        9.679999           0.827273E-6       -0.407489E-5
        9.690000           0.897280E-6       -0.408160E-5
        9.700000           0.973628E-6       -0.408579E-5
        9.710000           0.105701E-5       -0.408730E-5
        9.720000           0.114822E-5       -0.408594E-5
        9.730000           0.124815E-5       -0.408161E-5
        9.740000           0.135783E-5       -0.407413E-5
        9.750000           0.147841E-5       -0.406339E-5
        9.760000           0.161121E-5       -0.404929E-5
        9.770000           0.175775E-5       -0.403179E-5
        9.780000           0.191973E-5       -0.401090E-5
        9.790000           0.209913E-5       -0.398674E-5
        9.800000           0.229821E-5       -0.395953E-5
        9.810000           0.251956E-5       -0.392967E-5
        9.820000           0.276615E-5       -0.389779E-5
        9.830000           0.304138E-5       -0.386483E-5
        9.840000           0.334915E-5       -0.383212E-5
        9.850000           0.369391E-5       -0.380158E-5
        9.860000           0.408070E-5       -0.377584E-5
        9.870000           0.451522E-5       -0.375851E-5
        9.880000           0.500381E-5       -0.375448E-5
        9.889999           0.555342E-5       -0.377030E-5
        9.900000           0.617149E-5       -0.381473E-5
        9.910000           0.686559E-5       -0.389930E-5
        9.920000           0.764300E-5       -0.403905E-5
        9.929999           0.850972E-5       -0.425338E-5
        9.940000           0.946915E-5       -0.456671E-5
        9.950000           0.105200E-4       -0.500911E-5
        9.960000           0.116535E-4       -0.561622E-5
        9.969999           0.128496E-4       -0.642792E-5
        9.980000           0.140731E-4       -0.748529E-5
        9.990000           0.152702E-4       -0.882457E-5
        10.00000           0.163673E-4       -0.104684E-4
        10.01000           0.172747E-4       -0.124149E-4
        10.02000           0.178967E-4       -0.146275E-4
        10.03000           0.181491E-4       -0.170304E-4
        10.04000           0.179780E-4       -0.195147E-4
        10.05000           0.173753E-4       -0.219549E-4
        10.06000           0.163816E-4       -0.242328E-4
        10.07000           0.150764E-4       -0.262579E-4
        10.08000           0.135591E-4       -0.279807E-4
        10.09000           0.119290E-4       -0.293913E-4
        10.10000           0.102705E-4       -0.305110E-4
        10.11000           0.864667E-5       -0.313799E-4
        10.12000           0.709823E-5       -0.320459E-4
        10.13000           0.564732E-5       -0.325568E-4
        10.14000           0.430201E-5       -0.329556E-4
        10.15000           0.306091E-5       -0.332786E-4
        10.16000           0.191676E-5       -0.335552E-4
        10.17000           0.859174E-6       -0.338084E-4
        10.18000          -0.123695E-6       -0.340561E-4
        10.19000          -0.104398E-5       -0.343119E-4
        10.20000          -0.191355E-5       -0.345858E-4
        10.21000          -0.274365E-5       -0.348857E-4
        10.22000          -0.354490E-5       -0.352175E-4
        10.23000          -0.432721E-5       -0.355858E-4
        10.24000          -0.509995E-5       -0.359939E-4
        10.25000          -0.587204E-5       -0.364449E-4
        10.26000          -0.665213E-5       -0.369411E-4
        10.27000          -0.744872E-5       -0.374846E-4
        10.28000          -0.827037E-5       -0.380771E-4
        10.29000          -0.912586E-5       -0.387204E-4
        10.30000          -0.100243E-4       -0.394159E-4
        10.31000          -0.109756E-4       -0.401649E-4
        10.32000          -0.119901E-4       -0.409686E-4
        10.33000          -0.130794E-4       -0.418279E-4
        10.34000          -0.142564E-4       -0.427433E-4
        10.35000          -0.155353E-4       -0.437147E-4
        10.36000          -0.169324E-4       -0.447412E-4
        10.37000          -0.184659E-4       -0.458208E-4
        10.38000          -0.201568E-4       -0.469500E-4
        10.39000          -0.220287E-4       -0.481229E-4
        10.40000          -0.241090E-4       -0.493308E-4
        10.41000          -0.264283E-4       -0.505608E-4
        10.42000          -0.290217E-4       -0.517946E-4
        10.43000          -0.319285E-4       -0.530063E-4
        10.44000          -0.351911E-4       -0.541600E-4
        10.45000          -0.388561E-4       -0.552072E-4
        10.46000          -0.429711E-4       -0.560822E-4
        10.47000          -0.475822E-4       -0.566977E-4
        10.48000          -0.527277E-4       -0.569401E-4
        10.49000          -0.584298E-4       -0.566641E-4
        10.50000          -0.646809E-4       -0.556894E-4
        10.51000          -0.714252E-4       -0.538019E-4
        10.52000          -0.785348E-4       -0.507626E-4
        10.53000          -0.857837E-4       -0.463293E-4
        10.54000          -0.928272E-4       -0.402981E-4
        10.55000          -0.991979E-4       -0.325637E-4
        10.56000          -0.104337E-3       -0.231926E-4
        10.57000          -0.107674E-3       -0.124847E-4
        10.58000          -0.108745E-3       -0.991034E-6
        10.59000          -0.107328E-3        0.105462E-4
        10.60000          -0.103527E-3        0.213313E-4
        10.61000          -0.977644E-4        0.306876E-4
        10.62000          -0.906705E-4        0.381946E-4
        10.63000          -0.829274E-4        0.437348E-4
        10.64000          -0.751249E-4        0.474458E-4
        10.65000          -0.676841E-4        0.496197E-4
        10.66000          -0.608478E-4        0.505991E-4
        10.67000          -0.547155E-4        0.507054E-4
        10.68000          -0.492920E-4        0.502038E-4
        10.69000          -0.445306E-4        0.492957E-4
        10.70000          -0.403622E-4        0.481263E-4
        10.71000          -0.367133E-4        0.467969E-4
        10.72000          -0.335145E-4        0.453769E-4
        10.73000          -0.307042E-4        0.439134E-4
        10.74000          -0.282290E-4        0.424379E-4
        10.75000          -0.260435E-4        0.409713E-4
        10.76000          -0.241090E-4        0.395275E-4
        10.77000          -0.223932E-4        0.381151E-4
        10.78000          -0.208682E-4        0.367392E-4
        10.79000          -0.195107E-4        0.354026E-4
        10.80000          -0.183008E-4        0.341063E-4
        10.81000          -0.172215E-4        0.328500E-4
        10.82000          -0.162582E-4        0.316325E-4
        10.83000          -0.153985E-4        0.304519E-4
        10.84000          -0.146317E-4        0.293060E-4
        10.85000          -0.139487E-4        0.281919E-4
        10.86000          -0.133416E-4        0.271068E-4
        10.87000          -0.128039E-4        0.260472E-4
        10.88000          -0.123300E-4        0.250098E-4
        10.89000          -0.119150E-4        0.239904E-4
        10.90000          -0.115552E-4        0.229850E-4
        10.91000          -0.112477E-4        0.219887E-4
        10.92000          -0.109905E-4        0.209963E-4
        10.93000          -0.107829E-4        0.200017E-4
        10.94000          -0.106254E-4        0.189978E-4
        10.95000          -0.105205E-4        0.179769E-4
        10.96000          -0.104732E-4        0.169299E-4
        10.97000          -0.104922E-4        0.158472E-4
        10.98000          -0.105905E-4        0.147188E-4
        10.99000          -0.107870E-4        0.135362E-4
        11.00000          -0.111077E-4        0.122939E-4
        11.01000          -0.115853E-4        0.109931E-4
        11.02000          -0.122586E-4        0.964483E-5
        11.03000          -0.131690E-4        0.827396E-5
        11.04000          -0.143556E-4        0.692075E-5
        11.05000          -0.158496E-4        0.564074E-5
        11.06000          -0.176695E-4        0.450180E-5
        11.07000          -0.198189E-4        0.358072E-5
        11.08000          -0.222848E-4        0.296031E-5
        11.09000          -0.250365E-4        0.272832E-5
        11.10000          -0.280217E-4        0.297678E-5
        11.11000          -0.311593E-4        0.379900E-5
        11.12000          -0.343308E-4        0.528081E-5
        11.13000          -0.373740E-4        0.748368E-5
        11.14000          -0.400857E-4        0.104204E-4
        11.15000          -0.422402E-4        0.140288E-4
        11.16000          -0.436251E-4        0.181550E-4
        11.17000          -0.440882E-4        0.225574E-4
        11.18000          -0.435801E-4        0.269418E-4
        11.19000          -0.421720E-4        0.310157E-4
        11.20000          -0.400388E-4        0.345458E-4
        11.21000          -0.374161E-4        0.373949E-4
        11.22000          -0.345471E-4        0.395292E-4
        11.23000          -0.316400E-4        0.409984E-4
        11.24000          -0.288458E-4        0.419026E-4
        11.25000          -0.262559E-4        0.423599E-4
        11.26000          -0.239128E-4        0.424836E-4
        11.27000          -0.218251E-4        0.423693E-4
        11.28000          -0.199819E-4        0.420916E-4
        11.29000          -0.183624E-4        0.417060E-4
        11.30000          -0.169433E-4        0.412523E-4
        11.31000          -0.157016E-4        0.407585E-4
        11.32000          -0.146167E-4        0.402442E-4
        11.33000          -0.136706E-4        0.397231E-4
        11.34000          -0.128483E-4        0.392046E-4
        11.35000          -0.121373E-4        0.386954E-4
        11.36000          -0.115275E-4        0.382003E-4
        11.37000          -0.110109E-4        0.377227E-4
        11.38000          -0.105815E-4        0.372654E-4
        11.39000          -0.102350E-4        0.368308E-4
        11.40000          -0.996862E-5        0.364211E-4
        11.41000          -0.978130E-5        0.360389E-4
        11.42000          -0.967327E-5        0.356876E-4
        11.43000          -0.964615E-5        0.353713E-4
        11.44000          -0.970282E-5        0.350957E-4
        11.45000          -0.984729E-5        0.348686E-4
        11.46000          -0.100844E-4        0.347002E-4
        11.47000          -0.104192E-4        0.346045E-4
        11.48000          -0.108568E-4        0.345994E-4
        11.49000          -0.114000E-4        0.347086E-4
        11.50000          -0.120487E-4        0.349617E-4
        11.51000          -0.127960E-4        0.353952E-4
        11.52000          -0.136253E-4        0.360517E-4
        11.53000          -0.145054E-4        0.369781E-4
        11.54000          -0.153856E-4        0.382210E-4
        11.55000          -0.161930E-4        0.398183E-4
        11.56000          -0.168320E-4        0.417881E-4
        11.57000          -0.171916E-4        0.441163E-4
        11.58000          -0.171595E-4        0.467469E-4
        11.59000          -0.166433E-4        0.495808E-4
        11.60000          -0.155900E-4        0.524875E-4
        11.61000          -0.139979E-4        0.553269E-4
        11.62000          -0.119137E-4        0.579745E-4
        11.63000          -0.941674E-5        0.603402E-4
        11.64000          -0.659720E-5        0.623742E-4
        11.65000          -0.353699E-5        0.640617E-4
        11.66000          -0.298084E-6        0.654101E-4
        11.67000           0.308086E-5        0.664346E-4
        11.68000           0.658153E-5        0.671460E-4
        11.69000           0.101992E-4        0.675417E-4
        11.70000           0.139334E-4        0.676006E-4
        11.71000           0.177781E-4        0.672808E-4
        11.72000           0.217095E-4        0.665219E-4
        11.73000           0.256751E-4        0.652509E-4
        11.74000           0.295823E-4        0.633950E-4
        11.75000           0.332937E-4        0.609016E-4
        11.76000           0.366308E-4        0.577632E-4
        11.77000           0.393943E-4        0.540428E-4
        11.78000           0.413997E-4        0.498873E-4
        11.79000           0.425200E-4        0.455200E-4
        11.80000           0.427221E-4        0.412065E-4
        11.81000           0.420774E-4        0.372049E-4
        11.82000           0.407427E-4        0.337184E-4
        11.83000           0.389216E-4        0.308684E-4
        11.84000           0.368216E-4        0.286932E-4
        11.85000           0.346236E-4        0.271657E-4
        11.86000           0.324667E-4        0.262184E-4
        11.87000           0.304470E-4        0.257654E-4
        11.88000           0.286236E-4        0.257193E-4
        11.89000           0.270280E-4        0.259996E-4
        11.90000           0.256727E-4        0.265378E-4
        11.91000           0.245578E-4        0.272776E-4
        11.92000           0.236768E-4        0.281740E-4
        11.93000           0.230199E-4        0.291923E-4
        11.94000           0.225761E-4        0.303056E-4
        11.95000           0.223345E-4        0.314939E-4
        11.96000           0.222859E-4        0.327429E-4
        11.97000           0.224226E-4        0.340428E-4
        11.98000           0.227401E-4        0.353878E-4
        11.99000           0.232376E-4        0.367747E-4
        12.00000           0.239186E-4        0.382019E-4
        12.01000           0.247909E-4        0.396683E-4
        12.02000           0.258674E-4        0.411717E-4
        12.03000           0.271653E-4        0.427075E-4
        12.04000           0.287062E-4        0.442683E-4
        12.05000           0.305158E-4        0.458422E-4
        12.06000           0.326245E-4        0.474118E-4
        12.07000           0.350664E-4        0.489525E-4
        12.08000           0.378797E-4        0.504298E-4
        12.09000           0.411055E-4        0.517969E-4
        12.10000           0.447859E-4        0.529909E-4
        12.11000           0.489605E-4        0.539283E-4
        12.12000           0.536607E-4        0.545009E-4
        12.13000           0.589012E-4        0.545718E-4
        12.14000           0.646661E-4        0.539734E-4
        12.15000           0.708924E-4        0.525104E-4
        12.16000           0.774489E-4        0.499710E-4
        12.17000           0.841159E-4        0.461509E-4
        12.18000           0.905732E-4        0.408926E-4
        12.19000           0.964068E-4        0.341378E-4
        12.20000           0.101148E-3        0.259824E-4
        12.21000           0.104347E-3        0.167118E-4
        12.22000           0.105665E-3        0.679181E-5
        12.23000           0.104964E-3       -0.319544E-5
        12.24000           0.102338E-3       -0.126575E-4
        12.25000           0.980894E-4       -0.211011E-4
        12.26000           0.926501E-4       -0.282050E-4
        12.27000           0.864876E-4       -0.338363E-4
        12.28000           0.800254E-4       -0.380243E-4
        12.29000           0.736007E-4       -0.409065E-4
        12.30000           0.674515E-4       -0.426757E-4
        12.31000           0.617267E-4       -0.435390E-4
        12.32000           0.565042E-4       -0.436917E-4
        12.33000           0.518120E-4       -0.433040E-4
        12.34000           0.476457E-4       -0.425175E-4
        12.35000           0.439818E-4       -0.414454E-4
        12.36000           0.407876E-4       -0.401770E-4
        12.37000           0.380270E-4       -0.387816E-4
        12.38000           0.356646E-4       -0.373130E-4
        12.39000           0.336676E-4       -0.358137E-4
        12.40000           0.320069E-4       -0.343185E-4
        12.41000           0.306568E-4       -0.328573E-4
        12.42000           0.295948E-4       -0.314580E-4
        12.43000           0.287999E-4       -0.301480E-4
        12.44000           0.282512E-4       -0.289567E-4
        12.45000           0.279245E-4       -0.279156E-4
        12.46000           0.277897E-4       -0.270583E-4
        12.47000           0.278066E-4       -0.264186E-4
        12.48000           0.279223E-4       -0.260255E-4
        12.49000           0.280700E-4       -0.258967E-4
        12.50000           0.281722E-4       -0.260302E-4
        12.51000           0.281488E-4       -0.263970E-4
        12.52000           0.279304E-4       -0.269384E-4
        12.53000           0.274725E-4       -0.275722E-4
        12.54000           0.267650E-4       -0.282055E-4
        12.55000           0.258333E-4       -0.287525E-4
        12.56000           0.247294E-4       -0.291481E-4
        12.57000           0.235184E-4       -0.293556E-4
        12.58000           0.222652E-4       -0.293649E-4
        12.59000           0.210248E-4       -0.291865E-4
        12.60000           0.198385E-4       -0.288433E-4
        12.61000           0.187336E-4       -0.283631E-4
        12.62000           0.177257E-4       -0.277742E-4
        12.63000           0.168220E-4       -0.271017E-4
        12.64000           0.160234E-4       -0.263671E-4
        12.65000           0.153274E-4       -0.255874E-4
        12.66000           0.147294E-4       -0.247756E-4
        12.67000           0.142244E-4       -0.239416E-4
        12.68000           0.138071E-4       -0.230923E-4
        12.69000           0.134729E-4       -0.222326E-4
        12.70000           0.132177E-4       -0.213655E-4
        12.71000           0.130387E-4       -0.204929E-4
        12.72000           0.129337E-4       -0.196157E-4
        12.73000           0.129016E-4       -0.187341E-4
        12.74000           0.129427E-4       -0.178477E-4
        12.75000           0.130581E-4       -0.169560E-4
        12.76000           0.132500E-4       -0.160582E-4
        12.77000           0.135220E-4       -0.151537E-4
        12.78000           0.138790E-4       -0.142420E-4
        12.79000           0.143273E-4       -0.133229E-4
        12.80000           0.148746E-4       -0.123969E-4
        12.81000           0.155305E-4       -0.114654E-4
        12.82000           0.163063E-4       -0.105311E-4
        12.83000           0.172154E-4       -0.959828E-5
        12.84000           0.182735E-4       -0.867380E-5
        12.85000           0.194984E-4       -0.776758E-5
        12.86000           0.209104E-4       -0.689392E-5
        12.87000           0.225317E-4       -0.607272E-5
        12.88000           0.243857E-4       -0.533127E-5
        12.89000           0.264963E-4       -0.470631E-5
        12.90000           0.288852E-4       -0.424632E-5
        12.91000           0.315685E-4       -0.401389E-5
        12.92000           0.345513E-4       -0.408761E-5
        12.93000           0.378200E-4       -0.456222E-5
        12.94000           0.413328E-4       -0.554600E-5
        12.95000           0.450077E-4       -0.715272E-5
        12.96000           0.487136E-4       -0.948636E-5
        12.97000           0.522662E-4       -0.126175E-4
        12.98000           0.554367E-4       -0.165541E-4
        12.99000           0.579795E-4       -0.212154E-4
        13.00000           0.596759E-4       -0.264177E-4
        13.01000           0.603855E-4       -0.318919E-4
        13.02000           0.600849E-4       -0.373264E-4
        13.03000           0.588760E-4       -0.424271E-4
        13.04000           0.569609E-4       -0.469730E-4
        13.05000           0.545943E-4       -0.508464E-4
        13.06000           0.520334E-4       -0.540345E-4
        13.07000           0.495006E-4       -0.566100E-4
        13.08000           0.471640E-4       -0.587036E-4
        13.09000           0.451318E-4       -0.604792E-4
        13.10000           0.434539E-4       -0.621166E-4
        13.11000           0.421246E-4       -0.637997E-4
        13.12000           0.410812E-4       -0.657079E-4
        13.13000           0.401994E-4       -0.680044E-4
        13.14000           0.392873E-4       -0.708166E-4
        13.15000           0.380867E-4       -0.742039E-4
        13.16000           0.362930E-4       -0.781185E-4
        13.17000           0.336029E-4       -0.823685E-4
        13.18000           0.297904E-4       -0.866095E-4
        13.19000           0.247915E-4       -0.903818E-4
        13.20000           0.187632E-4       -0.932010E-4
        13.21000           0.120839E-4       -0.946786E-4
        13.22000           0.528181E-5       -0.946279E-4
        13.23000          -0.108709E-5       -0.931147E-4
        13.24000          -0.656613E-5       -0.904305E-4
        13.25000          -0.108853E-4       -0.870051E-4
        13.26000          -0.139837E-4       -0.832950E-4
        13.27000          -0.159723E-4       -0.796897E-4
        13.28000          -0.170650E-4       -0.764617E-4
        13.29000          -0.175097E-4       -0.737599E-4
        13.30000          -0.175380E-4       -0.716328E-4
        13.31000          -0.173390E-4       -0.700611E-4
        13.32000          -0.170535E-4       -0.689890E-4
        13.33000          -0.167778E-4       -0.683468E-4
        13.34000          -0.165740E-4       -0.680645E-4
        13.35000          -0.164789E-4       -0.680797E-4
        13.36000          -0.165130E-4       -0.683399E-4
        13.37000          -0.166864E-4       -0.688027E-4
        13.38000          -0.170036E-4       -0.694350E-4
        13.39000          -0.174664E-4       -0.702112E-4
        13.40000          -0.180756E-4       -0.711122E-4
        13.41000          -0.188330E-4       -0.721229E-4
        13.42000          -0.197413E-4       -0.732321E-4
        13.43000          -0.208050E-4       -0.744303E-4
        13.44000          -0.220302E-4       -0.757096E-4
        13.45000          -0.234251E-4       -0.770622E-4
        13.46000          -0.249993E-4       -0.784799E-4
        13.47000          -0.267635E-4       -0.799534E-4
        13.48000          -0.287288E-4       -0.814723E-4
        13.49000          -0.309060E-4       -0.830244E-4
        13.50000          -0.333044E-4       -0.845966E-4
        13.51000          -0.359314E-4       -0.861764E-4
        13.52000          -0.387922E-4       -0.877538E-4
        13.53000          -0.418923E-4       -0.893241E-4
        13.54000          -0.452404E-4       -0.908896E-4
        13.55000          -0.488549E-4       -0.924600E-4
        13.56000          -0.527701E-4       -0.940477E-4
        13.57000          -0.570408E-4       -0.956615E-4
        13.58000          -0.617430E-4       -0.972959E-4
        13.59000          -0.669709E-4       -0.989218E-4
        13.60000          -0.728303E-4       -0.100478E-3
        13.61000          -0.794304E-4       -0.101867E-3
        13.62000          -0.868764E-4       -0.102948E-3
        13.63000          -0.952559E-4       -0.103533E-3
        13.64000          -0.104633E-3       -0.103383E-3
        13.65000          -0.115020E-3       -0.102203E-3
        13.66000          -0.126363E-3       -0.996424E-4
        13.67000          -0.138494E-3       -0.953085E-4
        13.68000          -0.151109E-3       -0.887927E-4
        13.69000          -0.163718E-3       -0.797312E-4
        13.70000          -0.175653E-3       -0.678798E-4
        13.71000          -0.186089E-3       -0.532255E-4
        13.72000          -0.194150E-3       -0.360609E-4
        13.73000          -0.199053E-3       -0.170378E-4
        13.74000          -0.200284E-3        0.290992E-5
        13.75000          -0.197713E-3        0.226912E-4
        13.76000          -0.191619E-3        0.412768E-4
        13.77000          -0.182606E-3        0.578424E-4
        13.78000          -0.171453E-3        0.718805E-4
        13.79000          -0.158973E-3        0.831810E-4
        13.80000          -0.145903E-3        0.917951E-4
        13.81000          -0.132850E-3        0.979451E-4
        13.82000          -0.120260E-3        0.101963E-3
        13.83000          -0.108439E-3        0.104222E-3
        13.84000          -0.975506E-4        0.105094E-3
        13.85000          -0.876636E-4        0.104916E-3
        13.86000          -0.787660E-4        0.103977E-3
        13.87000          -0.708057E-4        0.102507E-3
        13.88000          -0.637003E-4        0.100686E-3
        13.89000          -0.573630E-4        0.986488E-4
        13.90000          -0.517022E-4        0.964954E-4
        13.91000          -0.466347E-4        0.942980E-4
        13.92000          -0.420839E-4        0.921084E-4
        13.93000          -0.379793E-4        0.899620E-4
        13.94000          -0.342608E-4        0.878845E-4
        13.95000          -0.308731E-4        0.858919E-4
        13.96000          -0.277696E-4        0.839953E-4
        13.97000          -0.249069E-4        0.822002E-4
        13.98000          -0.222483E-4        0.805100E-4
        13.99000          -0.197590E-4        0.789243E-4
        14.00000          -0.174094E-4        0.774419E-4
        14.01000          -0.151704E-4        0.760586E-4
        14.02000          -0.130168E-4        0.747697E-4
        14.03000          -0.109235E-4        0.735681E-4
        14.04000          -0.886782E-5        0.724453E-4
        14.05000          -0.682713E-5        0.713902E-4
        14.06000          -0.478108E-5        0.703896E-4
        14.07000          -0.270931E-5        0.694262E-4
        14.08000          -0.594798E-6        0.684796E-4
        14.09000           0.157776E-5        0.675239E-4
        14.10000           0.381740E-5        0.665289E-4
        14.11000           0.612716E-5        0.654589E-4
        14.12000           0.849796E-5        0.642753E-4
        14.13000           0.109083E-4        0.629390E-4
        14.14000           0.133191E-4        0.614179E-4
        14.15000           0.156775E-4        0.596935E-4
        14.16000           0.179197E-4        0.577719E-4
        14.17000           0.199861E-4        0.556884E-4
        14.18000           0.218345E-4        0.535085E-4
        14.19000           0.234585E-4        0.513154E-4
        14.20000           0.248934E-4        0.491935E-4
        14.21000           0.262156E-4        0.472042E-4
        14.22000           0.275273E-4        0.453723E-4
        14.23000           0.289403E-4        0.436756E-4
        14.24000           0.305567E-4        0.420479E-4
        14.25000           0.324583E-4        0.403822E-4
        14.26000           0.346944E-4        0.385390E-4
        14.27000           0.372758E-4        0.363491E-4
        14.28000           0.401610E-4        0.336210E-4
        14.29000           0.432423E-4        0.301493E-4
        14.30000           0.463287E-4        0.257293E-4
        14.31000           0.491246E-4        0.201931E-4
        14.32000           0.512263E-4        0.134531E-4
        14.33000           0.521363E-4        0.557488E-5
        14.34000           0.513256E-4       -0.316395E-5
        14.35000           0.483397E-4       -0.122231E-4
        14.36000           0.429401E-4       -0.208339E-4
        14.37000           0.352361E-4       -0.280998E-4
        14.38000           0.257355E-4       -0.331938E-4
        14.39000           0.152934E-4       -0.355559E-4
        14.40000           0.492739E-5       -0.350455E-4
        14.41000          -0.439681E-5       -0.319651E-4
        14.42000          -0.119786E-4       -0.269589E-4
        14.43000          -0.174759E-4       -0.208340E-4
        14.44000          -0.209041E-4       -0.143634E-4
        14.45000          -0.225329E-4       -0.815915E-5
        14.46000          -0.227630E-4       -0.261036E-5
        14.47000          -0.220135E-4        0.209501E-5
        14.48000          -0.206518E-4        0.592607E-5
        14.49000          -0.189650E-4        0.894434E-5
        14.50000          -0.171559E-4        0.112604E-4
        14.51000          -0.153577E-4        0.129964E-4
        14.52000          -0.136490E-4        0.142702E-4
        14.53000          -0.120717E-4        0.151839E-4
        14.54000          -0.106418E-4        0.158228E-4
        14.55000          -0.936138E-5        0.162546E-4
        14.56000          -0.822265E-5        0.165330E-4
        14.57000          -0.721423E-5        0.166987E-4
        14.58000          -0.632216E-5        0.167831E-4
        14.59000          -0.553286E-5        0.168099E-4
        14.60000          -0.483281E-5        0.167969E-4
        14.61000          -0.421002E-5        0.167574E-4
        14.62000          -0.365326E-5        0.167012E-4
        14.63000          -0.315285E-5        0.166359E-4
        14.64000          -0.270025E-5        0.165671E-4
        14.65000          -0.228770E-5        0.164986E-4
        14.66000          -0.190869E-5        0.164338E-4
        14.67000          -0.155722E-5        0.163747E-4
        14.68000          -0.122818E-5        0.163230E-4
        14.69000          -0.916801E-6        0.162801E-4
        14.70000          -0.618951E-6        0.162467E-4
        14.71000          -0.330659E-6        0.162235E-4
        14.72000          -0.483886E-7        0.162109E-4
        14.73000           0.231410E-6        0.162093E-4
        14.74000           0.512000E-6        0.162188E-4
        14.75000           0.796811E-6        0.162393E-4
        14.76000           0.108914E-5        0.162708E-4
        14.77000           0.139258E-5        0.163129E-4
        14.78000           0.171075E-5        0.163650E-4
        14.79000           0.204771E-5        0.164264E-4
        14.80000           0.240765E-5        0.164957E-4
        14.81000           0.279538E-5        0.165713E-4
        14.82000           0.321595E-5        0.166508E-4
        14.83000           0.367513E-5        0.167309E-4
        14.84000           0.417895E-5        0.168070E-4
        14.85000           0.473414E-5        0.168730E-4
        14.86000           0.534739E-5        0.169208E-4
        14.87000           0.602567E-5        0.169395E-4
        14.88000           0.677489E-5        0.169152E-4
        14.89000           0.759975E-5        0.168297E-4
        14.90000           0.850137E-5        0.166607E-4
        14.91000           0.947617E-5        0.163809E-4
        14.92000           0.105119E-4        0.159594E-4
        14.93000           0.115859E-4        0.153628E-4
        14.94000           0.126604E-4        0.145604E-4
        14.95000           0.136824E-4        0.135297E-4
        14.96000           0.145844E-4        0.122655E-4
        14.97000           0.152919E-4        0.107876E-4
        14.98000           0.157348E-4        0.914722E-5
        14.99000           0.158637E-4        0.742239E-5
        15.00000           0.156618E-4        0.570882E-5
        15.01000           0.151507E-4        0.410150E-5
        15.02000           0.143842E-4        0.267646E-5
        15.03000           0.134358E-4        0.148155E-5
        15.04000           0.123818E-4        0.532791E-6
        15.05000           0.112906E-4       -0.178658E-6
        15.06000           0.102149E-4       -0.678833E-6
        15.07000           0.919132E-5       -0.100129E-5
        15.08000           0.824104E-5       -0.118125E-5
        15.09000           0.737464E-5       -0.125104E-5
        15.10000           0.659416E-5       -0.123850E-5
        15.11000           0.589713E-5       -0.116636E-5
        15.12000           0.527775E-5       -0.105252E-5
        15.13000           0.472927E-5       -0.910780E-6
        15.14000           0.424417E-5       -0.751454E-6
        15.15000           0.381540E-5       -0.582277E-6
        15.16000           0.343609E-5       -0.408781E-6
        15.17000           0.310027E-5       -0.235015E-6
        15.18000           0.280239E-5       -0.637347E-7
        15.19000           0.253775E-5        0.103081E-6
        15.20000           0.230207E-5        0.264207E-6
        15.21000           0.209179E-5        0.418814E-6
        15.22000           0.190370E-5        0.566494E-6
        15.23000           0.173512E-5        0.706998E-6
        15.24000           0.158363E-5        0.840352E-6
        15.25000           0.144724E-5        0.966637E-6
        15.26000           0.132414E-5        0.108607E-5
        15.27000           0.121283E-5        0.119885E-5
        15.28000           0.111193E-5        0.130530E-5
        15.29000           0.102033E-5        0.140567E-5
        15.30000           0.936968E-6        0.150032E-5
        15.31000           0.860994E-6        0.158950E-5
        15.32000           0.791605E-6        0.167356E-5
        15.33000           0.728142E-6        0.175275E-5
        15.34000           0.669983E-6        0.182740E-5
        15.35000           0.616619E-6        0.189772E-5
        15.36000           0.567563E-6        0.196401E-5
        15.37000           0.522410E-6        0.202650E-5
        15.38000           0.480796E-6        0.208540E-5
        15.39000           0.442383E-6        0.214094E-5
        15.40000           0.406888E-6        0.219332E-5
        15.41000           0.374040E-6        0.224274E-5
        15.42000           0.343616E-6        0.228935E-5
        15.43000           0.315394E-6        0.233334E-5
        15.44000           0.289196E-6        0.237486E-5
        15.45000           0.264844E-6        0.241405E-5
        15.46000           0.242192E-6        0.245104E-5
        15.47000           0.221094E-6        0.248598E-5
        15.48000           0.201433E-6        0.251897E-5
        15.49000           0.183087E-6        0.255013E-5
        15.50000           0.165959E-6        0.257955E-5
        15.51000           0.149951E-6        0.260735E-5
        15.52000           0.134980E-6        0.263360E-5
        15.53000           0.120966E-6        0.265840E-5
        15.54000           0.107840E-6        0.268183E-5
        15.55000           0.955337E-7        0.270395E-5
        15.56000           0.839903E-7        0.272485E-5
        15.57000           0.731516E-7        0.274459E-5
        15.58000           0.629706E-7        0.276323E-5
        15.59000           0.533974E-7        0.278083E-5
        15.60000           0.443922E-7        0.279744E-5
        15.61000           0.359128E-7        0.281312E-5
        15.62000           0.279251E-7        0.282791E-5
        15.63000           0.203929E-7        0.284187E-5
        15.64000           0.132875E-7        0.285502E-5
        15.65000           0.657691E-8        0.286743E-5
        15.66000           0.23677E-09        0.287911E-5
        15.67000          -0.575975E-8        0.289011E-5
        15.68000          -0.114351E-7        0.290045E-5
        15.69000          -0.168124E-7        0.291019E-5
        15.70000          -0.219104E-7        0.291934E-5
        15.71000          -0.267497E-7        0.292793E-5
        15.72000          -0.313471E-7        0.293598E-5
        15.73000          -0.357201E-7        0.294354E-5
        15.74000          -0.398847E-7        0.295061E-5
        15.75000          -0.438552E-7        0.295721E-5
        15.76000          -0.476461E-7        0.296338E-5
        15.77000          -0.512702E-7        0.296913E-5
        15.78000          -0.547413E-7        0.297448E-5
        15.79000          -0.580698E-7        0.297944E-5
        15.80000          -0.612691E-7        0.298404E-5
        15.81000          -0.643484E-7        0.298829E-5
        15.82000          -0.673192E-7        0.299219E-5
        15.83000          -0.701908E-7        0.299578E-5
        15.84000          -0.729740E-7        0.299905E-5
        15.85000          -0.756766E-7        0.300203E-5
        15.86000          -0.783092E-7        0.300471E-5
        15.87000          -0.808794E-7        0.300713E-5
        15.88000          -0.833966E-7        0.300927E-5
        15.89000          -0.858685E-7        0.301115E-5
        15.90000          -0.883040E-7        0.301278E-5
        15.91000          -0.907108E-7        0.301418E-5
        15.92000          -0.930970E-7        0.301533E-5
        15.93000          -0.954706E-7        0.301626E-5
        15.94000          -0.978400E-7        0.301696E-5
        15.95000          -0.100212E-6        0.301743E-5
        15.96000          -0.102596E-6        0.301770E-5
        15.97000          -0.104999E-6        0.301776E-5
        15.98000          -0.107429E-6        0.301760E-5
        15.99000          -0.109895E-6        0.301725E-5
        16.00000          -0.112406E-6        0.301668E-5
        16.01000          -0.114968E-6        0.301592E-5
        16.02000          -0.117592E-6        0.301496E-5
        16.03000          -0.120286E-6        0.301379E-5
        16.04000          -0.123060E-6        0.301243E-5
        16.05000          -0.125922E-6        0.301086E-5
        16.06000          -0.128883E-6        0.300909E-5
        16.07000          -0.131952E-6        0.300711E-5
        16.08000          -0.135141E-6        0.300493E-5
        16.09000          -0.138459E-6        0.300253E-5
        16.10000          -0.141917E-6        0.299992E-5
        16.11000          -0.145528E-6        0.299709E-5
        16.12000          -0.149301E-6        0.299404E-5
        16.13000          -0.153250E-6        0.299075E-5
        16.14000          -0.157386E-6        0.298722E-5
        16.15000          -0.161723E-6        0.298345E-5
        16.16000          -0.166271E-6        0.297942E-5
        16.17000          -0.171046E-6        0.297513E-5
        16.18000          -0.176057E-6        0.297056E-5
        16.19000          -0.181318E-6        0.296571E-5
        16.20000          -0.186840E-6        0.296055E-5
        16.21000          -0.192635E-6        0.295508E-5
        16.22000          -0.198710E-6        0.294928E-5
        16.23000          -0.205076E-6        0.294312E-5
        16.24000          -0.211735E-6        0.293659E-5
        16.25000          -0.218693E-6        0.292967E-5
        16.26000          -0.225945E-6        0.292232E-5
        16.27000          -0.233487E-6        0.291450E-5
        16.28000          -0.241302E-6        0.290619E-5
        16.29000          -0.249370E-6        0.289733E-5
        16.30000          -0.257656E-6        0.288785E-5
        16.31000          -0.266117E-6        0.287768E-5
        16.32000          -0.274686E-6        0.286673E-5
        16.33000          -0.283283E-6        0.285486E-5
        16.34000          -0.291802E-6        0.284193E-5
        16.35000          -0.300110E-6        0.282772E-5
        16.36000          -0.308043E-6        0.281196E-5
        16.37000          -0.315405E-6        0.279428E-5
        16.38000          -0.321967E-6        0.277422E-5
        16.39000          -0.327474E-6        0.275112E-5
        16.40000          -0.331662E-6        0.272416E-5
        16.41000          -0.334285E-6        0.269219E-5
        16.42000          -0.335177E-6        0.265377E-5
        16.43000          -0.334347E-6        0.260695E-5
        16.44000          -0.332135E-6        0.254929E-5
        16.45000          -0.329449E-6        0.247768E-5
        16.46000          -0.328107E-6        0.238841E-5
        16.47000          -0.331285E-6        0.227724E-5
        16.48000          -0.344049E-6        0.213967E-5
        16.49000          -0.373860E-6        0.197173E-5
        16.50000          -0.430889E-6        0.177083E-5
        16.51000          -0.527784E-6        0.153732E-5
        16.52000          -0.678807E-6        0.127561E-5
        16.53000          -0.897986E-6        0.995343E-6
        16.54000          -0.119719E-5        0.711033E-6
        16.55000          -0.158404E-5        0.441132E-6
        16.56000          -0.206145E-5        0.205857E-6
        16.57000          -0.262752E-5        0.257892E-7
        16.58000          -0.327710E-5       -0.792039E-7
        16.59000          -0.400191E-5       -0.894777E-7
        16.60000          -0.479122E-5        0.150900E-7
        16.61000          -0.562959E-5        0.255798E-6
        16.62000          -0.649551E-5        0.654769E-6
        16.63000          -0.735779E-5        0.123240E-5
        16.64000          -0.817485E-5        0.200350E-5
        16.65000          -0.889443E-5        0.297029E-5
        16.66000          -0.945922E-5        0.411694E-5
        16.67000          -0.981484E-5        0.540433E-5
        16.68000          -0.992191E-5        0.677291E-5
        16.69000          -0.976546E-5        0.814920E-5
        16.70000          -0.935905E-5        0.946049E-5
        16.71000          -0.874117E-5        0.106460E-4
        16.72000          -0.796504E-5        0.116671E-4
        16.73000          -0.708803E-5        0.125071E-4
        16.74000          -0.616167E-5        0.131692E-4
        16.75000          -0.522789E-5        0.136687E-4
        16.76000          -0.431683E-5        0.140282E-4
        16.77000          -0.344920E-5        0.142722E-4
        16.78000          -0.263723E-5        0.144252E-4
        16.79000          -0.188756E-5        0.145106E-4
        16.80000          -0.120141E-5        0.145498E-4
        16.81000          -0.576136E-6        0.145623E-4
        16.82000          -0.490592E-8        0.145652E-4
        16.83000           0.521775E-6        0.145722E-4
        16.84000           0.101532E-5        0.145931E-4
        16.85000           0.148812E-5        0.146344E-4
        16.86000           0.195200E-5        0.146994E-4
        16.87000           0.241835E-5        0.147888E-4
        16.88000           0.289733E-5        0.149018E-4
        16.89000           0.339867E-5        0.150364E-4
        16.90000           0.393133E-5        0.151893E-4
        16.91000           0.450443E-5        0.153567E-4
        16.92000           0.512693E-5        0.155336E-4
        16.93000           0.580850E-5        0.157137E-4
        16.94000           0.655884E-5        0.158886E-4
        16.95000           0.738846E-5        0.160477E-4
        16.96000           0.830738E-5        0.161766E-4
        16.97000           0.932555E-5        0.162572E-4
        16.98000           0.104505E-4        0.162659E-4
        16.99000           0.116866E-4        0.161730E-4
        17.00000           0.130313E-4        0.159424E-4
        17.01000           0.144729E-4        0.155323E-4
        17.02000           0.159844E-4        0.148972E-4
        17.03000           0.175214E-4        0.139928E-4
        17.04000           0.190173E-4        0.127844E-4
        17.05000           0.203867E-4        0.112566E-4
        17.06000           0.215309E-4        0.942620E-5
        17.07000           0.223535E-4        0.734811E-5
        17.08000           0.227789E-4        0.511706E-5
        17.09000           0.227705E-4        0.285353E-5
        17.10000           0.223410E-4        0.685831E-6
        17.11000           0.215487E-4       -0.127601E-5
        17.12000           0.204839E-4       -0.295484E-5
        17.13000           0.192483E-4       -0.431538E-5
        17.14000           0.179383E-4       -0.535814E-5
        17.15000           0.166324E-4       -0.611090E-5
        17.16000           0.153886E-4       -0.661577E-5
        17.17000           0.142435E-4       -0.692059E-5
        17.18000           0.132175E-4       -0.707163E-5
        17.19000           0.123181E-4       -0.711041E-5
        17.20000           0.115447E-4       -0.707185E-5
        17.21000           0.108915E-4       -0.698426E-5
        17.22000           0.103503E-4       -0.686989E-5
        17.23000           0.991314E-5       -0.674632E-5
        17.24000           0.957245E-5       -0.662804E-5
        17.25000           0.932229E-5       -0.652848E-5
        17.26000           0.915716E-5       -0.646158E-5
        17.27000           0.907095E-5       -0.644308E-5
        17.28000           0.905479E-5       -0.649077E-5
        17.29000           0.909503E-5       -0.662384E-5
        17.30000           0.917128E-5       -0.686110E-5
        17.31000           0.925515E-5       -0.721768E-5
        17.32000           0.931060E-5       -0.770124E-5
        17.33000           0.929664E-5       -0.830699E-5
        17.34000           0.917280E-5       -0.901527E-5
        17.35000           0.890671E-5       -0.979082E-5
        17.36000           0.848082E-5       -0.105883E-4
        17.37000           0.789645E-5       -0.113594E-4
        17.38000           0.717174E-5       -0.120629E-4
        17.39000           0.633646E-5       -0.126697E-4
        17.40000           0.542349E-5       -0.131660E-4
        17.41000           0.446329E-5       -0.135502E-4
        17.42000           0.347892E-5       -0.138296E-4
        17.43000           0.248618E-5       -0.140145E-4
        17.44000           0.149327E-5       -0.141159E-4
        17.45000           0.504017E-6       -0.141422E-4
        17.46000          -0.481063E-6       -0.140982E-4
        17.47000          -0.146129E-5       -0.139854E-4
        17.48000          -0.243531E-5       -0.138024E-4
        17.49000          -0.339866E-5       -0.135469E-4
        17.50000          -0.434501E-5       -0.132171E-4
        17.51000          -0.526595E-5       -0.128137E-4
        17.52000          -0.615434E-5       -0.123400E-4
        17.53000          -0.700526E-5       -0.118013E-4
        17.54000          -0.781803E-5       -0.112016E-4
        17.55000          -0.859351E-5       -0.105406E-4
        17.56000          -0.933123E-5       -0.981194E-5
        17.57000          -0.100235E-4       -0.900468E-5
        17.58000          -0.106521E-4       -0.810838E-5
        17.59000          -0.111884E-4       -0.711958E-5
        17.60000          -0.115973E-4       -0.604983E-5
        17.61000          -0.118463E-4       -0.492793E-5
        17.62000          -0.119153E-4       -0.379901E-5
        17.63000          -0.118042E-4       -0.271513E-5
        17.64000          -0.115342E-4       -0.172571E-5
        17.65000          -0.111427E-4       -0.866669E-6
        17.66000          -0.106753E-4       -0.156914E-6
        17.67000          -0.101764E-4        0.402206E-6
        17.68000          -0.968390E-5        0.821807E-6
        17.69000          -0.922624E-5        0.112081E-5
        17.70000          -0.882306E-5        0.132072E-5
        17.71000          -0.848657E-5        0.144295E-5
        17.72000          -0.822443E-5        0.150714E-5
        17.73000          -0.804124E-5        0.153125E-5
        17.74000          -0.794009E-5        0.153220E-5
        17.75000          -0.792282E-5        0.152679E-5
        17.76000          -0.798983E-5        0.153259E-5
        17.77000          -0.813943E-5        0.156848E-5
        17.78000          -0.836655E-5        0.165480E-5
        17.79000          -0.866153E-5        0.181301E-5
        17.80000          -0.900826E-5        0.206432E-5
        17.81000          -0.938327E-5        0.242755E-5
        17.82000          -0.975499E-5        0.291517E-5
        17.83000          -0.100860E-4        0.352955E-5
        17.84000          -0.103373E-4        0.425859E-5
        17.85000          -0.104754E-4        0.507547E-5
        17.86000          -0.104794E-4        0.594089E-5
        17.87000          -0.103468E-4        0.681151E-5
        17.88000          -0.100931E-4        0.764834E-5
        17.89000          -0.974674E-5        0.842583E-5
        17.90000          -0.934117E-5        0.913459E-5
        17.91000          -0.890617E-5        0.978159E-5
        17.92000          -0.846201E-5        0.103848E-4
        17.93000          -0.801571E-5        0.109683E-4
        17.94000          -0.756089E-5        0.115548E-4
        17.95000          -0.707956E-5        0.121607E-4
        17.96000          -0.654593E-5        0.127912E-4
        17.97000          -0.593296E-5        0.134375E-4
        17.98000          -0.521821E-5        0.140780E-4
        17.99000          -0.439035E-5        0.146815E-4
        18.00000          -0.345090E-5        0.152134E-4
        18.01000          -0.241473E-5        0.156418E-4
        18.02000          -0.130583E-5        0.159419E-4
        18.03000          -0.155075E-6        0.160971E-4
        18.04000           0.100395E-5        0.161007E-4
        18.05000           0.213565E-5        0.159557E-4
        18.06000           0.320644E-5        0.156759E-4
        18.07000           0.418740E-5        0.152867E-4
        18.08000           0.506073E-5        0.148227E-4
        18.09000           0.582290E-5        0.143236E-4
        18.10000           0.648699E-5        0.138261E-4
        18.11000           0.707893E-5        0.133578E-4
        18.12000           0.763275E-5        0.129320E-4
        18.13000           0.818332E-5        0.125474E-4
        18.14000           0.876179E-5        0.121890E-4
        18.15000           0.939117E-5        0.118314E-4
        18.16000           0.100847E-4        0.114411E-4
        18.17000           0.108432E-4        0.109802E-4
        18.18000           0.116538E-4        0.104082E-4
        18.19000           0.124877E-4        0.968795E-5
        18.20000           0.133002E-4        0.878995E-5
        18.21000           0.140317E-4        0.770136E-5
        18.22000           0.146152E-4        0.643219E-5
        18.23000           0.149862E-4        0.502128E-5
        18.24000           0.150971E-4        0.353276E-5
        18.25000           0.149290E-4        0.204800E-5
        18.26000           0.144961E-4        0.648402E-6
        18.27000           0.138419E-4       -0.598228E-6
        18.28000           0.130272E-4       -0.164943E-5
        18.29000           0.121173E-4       -0.248869E-5
        18.30000           0.111709E-4       -0.312182E-5
        18.31000           0.102339E-4       -0.356967E-5
        18.32000           0.933882E-5       -0.386005E-5
        18.33000           0.850493E-5       -0.402262E-5
        18.34000           0.774241E-5       -0.408499E-5
        18.35000           0.705397E-5       -0.407114E-5
        18.36000           0.643831E-5       -0.400085E-5
        18.37000           0.589110E-5       -0.388983E-5
        18.38000           0.540708E-5       -0.375034E-5
        18.39000           0.498018E-5       -0.359161E-5
        18.40000           0.460472E-5       -0.342067E-5
        18.41000           0.427509E-5       -0.324260E-5
        18.42000           0.398640E-5       -0.306119E-5
        18.43000           0.373414E-5       -0.287906E-5
        18.44000           0.351454E-5       -0.269818E-5
        18.45000           0.332421E-5       -0.251979E-5
        18.46000           0.316040E-5       -0.234483E-5
        18.47000           0.302071E-5       -0.217383E-5
        18.48000           0.290326E-5       -0.200723E-5
        18.49000           0.280648E-5       -0.184523E-5
        18.50000           0.272922E-5       -0.168807E-5
        18.51000           0.267061E-5       -0.153588E-5
        18.52000           0.263009E-5       -0.138896E-5
        18.53000           0.260741E-5       -0.124760E-5
        18.54000           0.260256E-5       -0.111235E-5
        18.55000           0.261577E-5       -0.983938E-6
        18.56000           0.264748E-5       -0.863470E-6
        18.57000           0.269828E-5       -0.752420E-6
        18.58000           0.276881E-5       -0.652876E-6
        18.59000           0.285967E-5       -0.567537E-6
        18.60000           0.297115E-5       -0.499986E-6
        18.61000           0.310300E-5       -0.454680E-6
        18.62000           0.325388E-5       -0.437105E-6
        18.63000           0.342093E-5       -0.453586E-6
        18.64000           0.359886E-5       -0.510914E-6
        18.65000           0.377951E-5       -0.615536E-6
        18.66000           0.395126E-5       -0.772135E-6
        18.67000           0.409938E-5       -0.981794E-6
        18.68000           0.420754E-5       -0.124029E-5
        18.69000           0.426018E-5       -0.153665E-5
        18.70000           0.424600E-5       -0.185381E-5
        18.71000           0.416083E-5       -0.217061E-5
        18.72000           0.400888E-5       -0.246595E-5
        18.73000           0.380190E-5       -0.272235E-5
        18.74000           0.355601E-5       -0.292891E-5
        18.75000           0.328854E-5       -0.308166E-5
        18.76000           0.301479E-5       -0.318258E-5
        18.77000           0.274684E-5       -0.323749E-5
        18.78000           0.249274E-5       -0.325413E-5
        18.79000           0.225735E-5       -0.324056E-5
        18.80000           0.204272E-5       -0.320419E-5
        18.81000           0.184922E-5       -0.315136E-5
        18.82000           0.167595E-5       -0.308720E-5
        18.83000           0.152149E-5       -0.301576E-5
        18.84000           0.138401E-5       -0.294003E-5
        18.85000           0.126171E-5       -0.286232E-5
        18.86000           0.115280E-5       -0.278422E-5
        18.87000           0.105564E-5       -0.270691E-5
        18.88000           0.968726E-6       -0.263117E-5
        18.89000           0.890752E-6       -0.255754E-5
        18.90000           0.820532E-6       -0.248634E-5
        18.91000           0.757073E-6       -0.241777E-5
        18.92000           0.699467E-6       -0.235187E-5
        18.93000           0.646968E-6       -0.228868E-5
        18.94000           0.598892E-6       -0.222811E-5
        18.95000           0.554680E-6       -0.217006E-5
        18.96000           0.513828E-6       -0.211438E-5
        18.97000           0.475932E-6       -0.206091E-5
        18.98000           0.440640E-6       -0.200944E-5
        18.99000           0.407699E-6       -0.195977E-5
        19.00000           0.376912E-6       -0.191166E-5
        19.01000           0.348189E-6       -0.186493E-5
        19.02000           0.321506E-6       -0.181939E-5
        19.03000           0.296931E-6       -0.177491E-5
        19.04000           0.274580E-6       -0.173151E-5
        19.05000           0.254566E-6       -0.168925E-5
        19.06000           0.236963E-6       -0.164838E-5
        19.07000           0.221725E-6       -0.160916E-5
        19.08000           0.208678E-6       -0.157192E-5
        19.09000           0.197516E-6       -0.153689E-5
        19.10000           0.187864E-6       -0.150420E-5
        19.11000           0.179326E-6       -0.147387E-5
        19.12000           0.171553E-6       -0.144580E-5
        19.13000           0.164257E-6       -0.141982E-5
        19.14000           0.157237E-6       -0.139573E-5
        19.15000           0.150356E-6       -0.137333E-5
        19.16000           0.143535E-6       -0.135243E-5
        19.17000           0.136731E-6       -0.133287E-5
        19.18000           0.129928E-6       -0.131453E-5
        19.19000           0.123121E-6       -0.129728E-5
        19.20000           0.116316E-6       -0.128104E-5
        19.21000           0.109521E-6       -0.126574E-5
        19.22000           0.102743E-6       -0.125134E-5
        19.23000           0.959873E-7       -0.123776E-5
        19.24000           0.892608E-7       -0.122499E-5
        19.25000           0.825635E-7       -0.121300E-5
        19.26000           0.758978E-7       -0.120176E-5
        19.27000           0.692598E-7       -0.119124E-5
        19.28000           0.626483E-7       -0.118145E-5
        19.29000           0.560561E-7       -0.117235E-5
        19.30000           0.494788E-7       -0.116395E-5
        19.31000           0.429070E-7       -0.115622E-5
        19.32000           0.363339E-7       -0.114917E-5
        19.33000           0.297481E-7       -0.114279E-5
        19.34000           0.231410E-7       -0.113708E-5
        19.35000           0.164993E-7       -0.113203E-5
        19.36000           0.981321E-8       -0.112765E-5
        19.37000           0.306770E-8       -0.112393E-5
        19.38000          -0.374867E-8       -0.112087E-5
        19.39000          -0.106525E-7       -0.111848E-5
        19.40000          -0.176579E-7       -0.111677E-5
        19.41000          -0.247799E-7       -0.111573E-5
        19.42000          -0.320381E-7       -0.111539E-5
        19.43000          -0.394483E-7       -0.111573E-5
        19.44000          -0.470324E-7       -0.111679E-5
        19.45000          -0.548086E-7       -0.111855E-5
        19.46000          -0.628018E-7       -0.112106E-5
        19.47000          -0.710330E-7       -0.112430E-5
        19.48000          -0.795306E-7       -0.112831E-5
        19.49000          -0.883196E-7       -0.113310E-5
        19.50000          -0.974325E-7       -0.113869E-5
        19.51000          -0.106899E-6       -0.114511E-5
        19.52000          -0.116757E-6       -0.115237E-5
        19.53000          -0.127042E-6       -0.116051E-5
        19.54000          -0.137799E-6       -0.116956E-5
        19.55000          -0.149070E-6       -0.117954E-5
        19.56000          -0.160910E-6       -0.119049E-5
        19.57000          -0.173370E-6       -0.120245E-5
        19.58000          -0.186515E-6       -0.121546E-5
        19.59000          -0.200408E-6       -0.122956E-5
        19.60000          -0.215129E-6       -0.124479E-5
        19.61000          -0.230757E-6       -0.126122E-5
        19.62000          -0.247388E-6       -0.127888E-5
        19.63000          -0.265121E-6       -0.129784E-5
        19.64000          -0.284078E-6       -0.131815E-5
        19.65000          -0.304383E-6       -0.133988E-5
        19.66000          -0.326186E-6       -0.136310E-5
        19.67000          -0.349648E-6       -0.138788E-5
        19.68000          -0.374961E-6       -0.141428E-5
        19.69000          -0.402327E-6       -0.144239E-5
        19.70000          -0.431995E-6       -0.147228E-5
        19.71000          -0.464228E-6       -0.150401E-5
        19.72000          -0.499346E-6       -0.153768E-5
        19.73000          -0.537694E-6       -0.157334E-5
        19.74000          -0.579688E-6       -0.161106E-5
        19.75000          -0.625792E-6       -0.165088E-5
        19.76000          -0.676532E-6       -0.169282E-5
        19.77000          -0.732542E-6       -0.173687E-5
        19.78000          -0.794514E-6       -0.178299E-5
        19.79000          -0.863286E-6       -0.183106E-5
        19.80000          -0.939777E-6       -0.188088E-5
        19.81000          -0.102509E-5       -0.193215E-5
        19.82000          -0.112044E-5       -0.198439E-5
        19.83000          -0.122725E-5       -0.203693E-5
        19.84000          -0.134707E-5       -0.208877E-5
        19.85000          -0.148169E-5       -0.213860E-5
        19.86000          -0.163296E-5       -0.218454E-5
        19.87000          -0.180291E-5       -0.222411E-5
        19.88000          -0.199344E-5       -0.225397E-5
        19.89000          -0.220632E-5       -0.226978E-5
        19.90000          -0.244267E-5       -0.226595E-5
        19.91000          -0.270267E-5       -0.223553E-5
        19.92000          -0.298464E-5       -0.217021E-5
        19.93000          -0.328447E-5       -0.206054E-5
        19.94000          -0.359431E-5       -0.189681E-5
        19.95000          -0.390209E-5       -0.167024E-5
        19.96000          -0.419091E-5       -0.137532E-5
        19.97000          -0.444029E-5       -0.101211E-5
        19.98000          -0.462829E-5       -0.588886E-6
        19.99000          -0.473577E-5       -0.122592E-6
        20.00000          -0.475056E-5        0.362084E-6
# 
# 06/20/2023 at 00:07 yambo @ unimi-XPS-8930 [start]
# 06/20/2023 at 00:07                        [end]
#
# .-Input file  yambo.in
# | rim_cut                          # [R] Coulomb potential
# | optics                           # [R] Linear Response optical properties
# | dipoles                          # [R] Oscillator strenghts (or dipoles)
# | bse                              # [R][BSE] Bethe Salpeter Equation.
# | ElecTemp= 0.025861         eV    # Electronic Temperature
# | BoseTemp= 0.025861         eV    # Bosonic Temperature
# | DIP_Threads= 1                   # [OPENMP/X] Number of threads for dipoles
# | BS_nCPU_LinAlg_INV= 1            # [PARALLEL] CPUs for Linear Algebra (if -1 it is automatically set)
# | BS_nCPU_LinAlg_DIAGO= 1          # [PARALLEL] CPUs for Linear Algebra (if -1 it is automatically set)
# | X_Threads= 1                     # [OPENMP/X] Number of threads for response functions
# | K_Threads= 1                     # [OPENMP/BSK] Number of threads for response functions
# | RandQpts=0                       # [RIM] Number of random q-points in the BZ
# | RandGvec= 1                RL    # [RIM] Coulomb interaction RS components
# | CUTGeo= "ws xyz"                 # [CUT] Coulomb Cutoff geometry: box/cylinder/sphere/ws/slab X/Y/Z/XY..
# | % CUTBox
# |  0.000000 | 0.000000 | 0.000000 |        # [CUT] [au] Box sides
# | %
# | CUTRadius= 0.000000              # [CUT] [au] Sphere/Cylinder radius
# | CUTCylLen= 0.000000              # [CUT] [au] Cylinder length
# | CUTwsGvec= 0.700000              # [CUT] WS cutoff: number of G to be modified
# | BSKmod= "IP"                     # [BSE] IP/Hartree/HF/ALDA/SEX/BSfxc
# | BSEmod= "retarded"               # [BSE] resonant/retarded/coupling
# | Lkind= "Lbar"                    # [BSE,X] bar(default)/full
# | DipBandsALL                    # [DIP] Compute all bands range, not only valence and conduction
# | DipComputed= "R V P"             # [DIP] [default R P V; extra P2 Spin Orb]
# | DbGdQsize= 1.000000              # [X,DbGd][o/o] Percentual of the total DbGd transitions to be used
# | BSENGexx= 28671            RL    # [BSK] Exchange components
# | % BSEQptR
# |  1 | 1 |                             # [BSK] Transferred momenta range
# | %
# | % BSEBands
# |   1 | 20 |                           # [BSK] Bands range
# | %
# | % BEnRange
# |   0.00000 | 20.00000 |         eV    # [BSS] Energy range
# | %
# | % BDmRange
# |  0.100000 | 0.100000 |         eV    # [BSS] Damping range
# | %
# | BEnSteps= 2001                   # [BSS] Energy steps
# | % BLongDir
# |  1.000000 | 0.000000 | 0.000000 |        # [BSS] [cc] Electric Field versor
# | %
# | BSEprop= "abs dichr jdos"        # [BSS] Can be any among abs/jdos/kerr/magn/dich/photolum/esrt
