#                                                           
#  ____  ____     _       ____    ____  ______      ___     
# |_  _||_  _|   / \     |_   \  /   _||_   _ \   ."   `.   
#   \ \  / /    / _ \      |   \/   |    | |_) | /  .-.  \  
#    \ \/ /    / ___ \     | |\  /| |    |  __". | |   | |  
#    _|  |_  _/ /   \ \_  _| |_\/_| |_  _| |__) |\  `-"  /  
#   |______||____| |____||_____||_____||_______/  `.___."   
#                                                           
#                                                           
#                                                           
#        Version 4.3.0 Revision 15624 Hash 7ed12fb          
#                      MPI+SLK Build                        
#                http://www.yambo-code.org                  
#
# Absorption @ Q(1) [q->0 direction] : 1.000000  0.000000  0.000000
#
#
#
# - The Green`s function is Retarded -
# - Using the Velocity Gauge -
# - [r,Vnl] *is* included -
#
#
#    Diamagnetic term
#    A [nel]
#    -8.683607
#
#    E/ev[1]      EPS-Im[2]    EPS-Re[3]
#
   0.2000        1175.        751.9   
   0.2195        1177.        618.8   
   0.2391        1163.        495.0   
   0.2586        1136.        382.1   
   0.2782        1098.        281.3   
   0.2977        1052.        192.9   
   0.3173        1001.        116.5   
   0.3368        947.9        51.63   
   0.3564        893.3       -2.728   
   0.3759        839.0       -47.63   
   0.3955        786.0       -84.17   
   0.4150        735.0       -113.5   
   0.4346        686.6       -136.6   
   0.4541        641.0       -154.5   
   0.4737        598.5       -167.9   
   0.4932        558.9       -177.8   
   0.5128        522.3       -184.7   
      0.5323     488.5437    -189.1474
      0.5519     457.5261    -191.7010
      0.5714     429.0617    -192.7463
      0.5910     402.9571    -192.6242
      0.6105     379.0253    -191.6267
      0.6301     357.0647    -189.9871
      0.6496     336.8830    -187.8988
      0.6692     318.2838    -185.5058
      0.6887     301.0798    -182.9140
      0.7083     285.1183    -180.2151
      0.7278     270.2279    -177.4418
      0.7474     256.2871    -174.6300
      0.7669     243.1680    -171.7722
      0.7865     230.7873    -168.8703
      0.8060     219.0772    -165.9156
      0.8256     207.9737    -162.8822
      0.8451     197.4459    -159.7653
      0.8647     187.4642    -156.5546
      0.8842     178.0146    -153.2555
      0.9038     169.0795    -149.8699
      0.9233     160.6465    -146.4097
      0.9429     152.7034    -142.8915
      0.9624     145.2357    -139.3332
      0.9820     138.2267    -135.7531
      1.0015     131.6595    -132.1726
      1.0211     125.5125    -128.6080
      1.0406     119.7685    -125.0823
      1.0602     114.3983    -121.6009
      1.0797     109.3868    -118.1880
      1.0992     104.7057    -114.8480
      1.1188     100.3356    -111.5961
      1.1383      96.2529    -108.4384
      1.1579      92.4333    -105.3785
      1.1774      88.8577    -102.4241
     1.19699     85.50375    -99.57563
     1.21654     82.35054    -96.83138
     1.23609     79.38033    -94.19125
     1.25564     76.57555    -91.65091
     1.27519     73.92170    -89.20705
     1.29474     71.40609    -86.85529
     1.31429     69.01600    -84.58799
     1.33383     66.74365    -82.40286
     1.35338     64.58063    -80.29485
     1.37293     62.51947    -78.25986
     1.39248     60.55319    -76.29383
     1.41203     58.67693    -74.39741
     1.43158     56.88161    -72.56334
     1.45113     55.16371    -70.79473
     1.47068     53.51310    -69.08240
     1.49023     51.92723    -67.42987
     1.50977     50.39674    -65.82642
     1.52932     48.91785    -64.26974
     1.54887     47.48748    -62.75576
     1.56842     46.10136    -61.27635
     1.58797     44.75920    -59.82766
     1.60752     43.46056    -58.40453
     1.62707     42.20597    -57.00172
     1.64662     40.99726    -55.61699
     1.66617     39.83591    -54.24688
     1.68571     38.72560    -52.89395
     1.70526     37.66759    -51.55687
     1.72481     36.66339    -50.23619
     1.74436     35.71425    -48.93316
     1.76391     34.82080    -47.65015
     1.78346     33.98382    -46.39123
     1.80301     33.20226    -45.15761
     1.82256     32.47550    -43.95322
     1.84211     31.80168    -42.78047
     1.86165     31.17832    -41.64099
     1.88120     30.60403    -40.54164
     1.90075     30.07487    -39.48323
     1.92030     29.58701    -38.46895
     1.93985     29.13555    -37.49962
     1.95940     28.71621    -36.57950
     1.97895     28.32238    -35.70716
     1.99850     27.94882    -34.88540
     2.01805     27.58851    -34.11190
     2.03759     27.23480    -33.38467
     2.05714     26.88191    -32.70194
     2.07669     26.52426    -32.05964
     2.09624     26.15627    -31.45050
     2.11579     25.77443    -30.86883
     2.13534     25.37700    -30.30918
     2.15489     24.96270    -29.76277
     2.17444     24.53234    -29.22370
     2.19398     24.08795    -28.68449
     2.21353     23.63316    -28.14223
     2.23308     23.17136    -27.59049
     2.25263     22.70744    -27.02745
     2.27218     22.24566    -26.45080
     2.29173     21.79032    -25.85936
     2.31128     21.34568    -25.25336
     2.33083     20.91562    -24.63450
     2.35038     20.50284    -24.00262
     2.36992     20.10992    -23.35931
     2.38947     19.73929    -22.70729
     2.40902     19.39226    -22.04740
     2.42857     19.07043    -21.38208
     2.44812     18.77443    -20.71257
     2.46767     18.50505    -20.04066
     2.48722     18.26285    -19.36763
     2.50677     18.04826    -18.69546
     2.52632     17.86175    -18.02617
     2.54586     17.70319    -17.35935
     2.56541     17.57289    -16.69749
     2.58496     17.47137    -16.04216
     2.60451     17.39842    -15.39417
     2.62406     17.35435    -14.75479
     2.64361     17.33916    -14.12484
     2.66316     17.35313    -13.50649
     2.68271     17.39660    -12.90152
     2.70226     17.46935    -12.31076
     2.72180     17.57159    -11.73692
     2.74135     17.70297    -11.18067
     2.76090     17.86321    -10.64440
     2.78045     18.05227    -10.13213
     2.80000     18.26909     -9.64478
     2.81955     18.51255     -9.18497
     2.83910     18.78127     -8.75521
     2.85865     19.07331     -8.35875
     2.87820     19.38623     -7.99788
     2.89774     19.71729     -7.67460
     2.91729     20.06291     -7.39097
     2.93684     20.41947     -7.14877
     2.95639     20.78261     -6.94842
     2.97594     21.14827     -6.79053
     2.99549     21.51177     -6.67400
     3.01504     21.86897     -6.59728
     3.03459     22.21614     -6.55886
     3.05414     22.55035     -6.55638
     3.07368     22.86862     -6.58536
     3.09323     23.16941     -6.64371
     3.11278     23.45168     -6.72759
     3.13233     23.71514     -6.83439
     3.15188     23.96000     -6.96119
     3.17143     24.18678     -7.10607
     3.19098     24.39626     -7.26756
     3.21053     24.58904     -7.44443
     3.23008     24.76557     -7.63579
     3.24962     24.92607     -7.84152
     3.26917     25.07055     -8.06149
     3.28872     25.19838     -8.29539
     3.30827     25.30898     -8.54273
     3.32782     25.40146     -8.80317
     3.34737     25.47469     -9.07576
     3.36692     25.52767     -9.35948
     3.38647     25.55925     -9.65242
     3.40602     25.56901     -9.95374
     3.42556     25.55612    -10.26096
     3.44511     25.52052    -10.57204
     3.46466     25.46247    -10.88514
     3.48421     25.38243    -11.19849
     3.50376     25.28127    -11.51035
     3.52331     25.16013    -11.81987
     3.54286     25.01993    -12.12549
     3.56241     24.86142    -12.42751
     3.58195     24.68534    -12.72487
     3.60150     24.49206    -13.01750
     3.62105     24.28156    -13.30540
     3.64060     24.05334    -13.58781
     3.66015     23.80714    -13.86412
     3.67970     23.54222    -14.13327
     3.69925     23.25831    -14.39328
     3.71880     22.95505    -14.64235
     3.73835     22.63274    -14.87785
     3.75789     22.29228    -15.09766
     3.77744     21.93486    -15.29835
     3.79699     21.56256    -15.47876
     3.81654     21.17788    -15.63614
     3.83609     20.78386    -15.76903
     3.85564     20.38358    -15.87622
     3.87519     19.98078    -15.95783
     3.89474     19.57877    -16.01365
     3.91429     19.18098    -16.04491
     3.93383     18.79046    -16.05279
     3.95338     18.40984    -16.03956
     3.97293     18.04141    -16.00754
     3.99248     17.68686    -15.95943
     4.01203     17.34725    -15.89786
     4.03158     17.02317    -15.82593
     4.05113     16.71472    -15.74642
     4.07068     16.42139    -15.66188
     4.09023     16.14234    -15.57457
     4.10977     15.87638    -15.48643
     4.12932     15.62203    -15.39918
     4.14887     15.37781    -15.31417
     4.16842     15.14198    -15.23216
     4.18797     14.91292    -15.15387
     4.20752     14.68893    -15.07919
     4.22707     14.46863    -15.00823
     4.24662     14.25059    -14.94075
     4.26617     14.03363    -14.87623
     4.28571     13.81670    -14.81401
     4.30526     13.59896    -14.75340
     4.32481     13.37965    -14.69341
     4.34436     13.15824    -14.63314
     4.36391     12.93426    -14.57169
     4.38346     12.70748    -14.50806
     4.40301     12.47799    -14.44114
     4.42256     12.24583    -14.36977
     4.44211     12.01146    -14.29266
     4.46165     11.77545    -14.20895
     4.48120     11.53865    -14.11796
     4.50075     11.30199    -14.01866
     4.52030     11.06664    -13.91082
     4.53985     10.83375    -13.79387
     4.55940     10.60462    -13.66798
     4.57895     10.38045    -13.53319
     4.59850     10.16243    -13.38984
     4.61804      9.95164    -13.23866
     4.63759      9.74899    -13.08031
     4.65714      9.55531    -12.91563
     4.67669      9.37119    -12.74584
     4.69624      9.19708    -12.57137
     4.71579      9.03334    -12.39370
     4.73534      8.88011    -12.21369
     4.75489      8.73740    -12.03241
     4.77444      8.60509    -11.85073
     4.79398      8.48303    -11.66957
     4.81353      8.37088    -11.48972
     4.83308      8.26833    -11.31210
     4.85263      8.17489    -11.13714
     4.87218      8.09014    -10.96532
     4.89173      8.01360    -10.79756
     4.91128      7.94485    -10.63412
     4.93083      7.88333    -10.47540
     4.95038      7.82861    -10.32179
     4.96992      7.78023    -10.17348
     4.98947      7.73773    -10.03117
    5.009023     7.700702    -9.894861
    5.028571     7.668531    -9.764930
    5.048120     7.640841    -9.641916
    5.067669     7.617009    -9.525816
    5.087218     7.596399    -9.417239
    5.106767     7.578263    -9.316473
    5.126316     7.561739    -9.223592
    5.145864     7.546010    -9.139103
    5.165413     7.530041    -9.062716
    5.184962     7.512707    -8.994662
    5.204511     7.492858    -8.934158
    5.224060     7.469502    -8.881245
    5.243609     7.441422    -8.834940
    5.263158     7.407799    -8.794451
    5.282707     7.367636    -8.758535
    5.302256     7.320482    -8.726184
    5.321805     7.265819    -8.695692
    5.341353     7.203587    -8.665879
    5.360902     7.133905    -8.635197
    5.380451     7.057265    -8.602395
    5.400000     6.974188    -8.566164
    5.419549     6.885644    -8.525381
    5.439097     6.792547    -8.479289
    5.458646     6.696034    -8.427139
    5.478195     6.597226    -8.368461
    5.497744     6.497324    -8.303034
    5.517293     6.397392    -8.230941
    5.536842     6.298568    -8.152168
    5.556391     6.201784    -8.067103
    5.575940     6.107893    -7.976157
    5.595489     6.017652    -7.879807
    5.615037     5.931707    -7.778620
    5.634586     5.850595    -7.673228
    5.654135     5.774703    -7.564266
    5.673684     5.704355    -7.452376
    5.693233     5.639775    -7.338242
    5.712782     5.581112    -7.222378
    5.732330     5.528417    -7.105424
    5.751880     5.481733    -6.988022
    5.771429     5.441002    -6.870718
    5.790977     5.406059    -6.753950
    5.810526     5.376831    -6.638304
    5.830075     5.353107    -6.524219
    5.849624     5.334627    -6.412065
    5.869173     5.321165    -6.302227
    5.888722     5.312407    -6.194989
    5.908270     5.308135    -6.090799
    5.927820     5.307971    -5.989748
    5.947368     5.311662    -5.892033
    5.966917     5.318856    -5.797900
    5.986466     5.329279    -5.707607
    6.006015     5.342629    -5.620935
    6.025564     5.358624    -5.538027
    6.045113     5.377060    -5.459187
    6.064662     5.397695    -5.384139
    6.084210     5.420303    -5.313039
    6.103759     5.444752    -5.245999
    6.123308     5.470894    -5.182957
    6.142857     5.498550    -5.124060
    6.162406     5.527574    -5.069261
    6.181955     5.557844    -5.018858
    6.201504     5.589124    -4.972782
    6.221053     5.621264    -4.931342
    6.240601     5.654010    -4.894584
    6.260150     5.687091    -4.862773
    6.279699     5.720157    -4.836049
    6.299248     5.752837    -4.814466
    6.318797     5.784724    -4.798251
    6.338346     5.815264    -4.787344
    6.357895     5.844018    -4.781796
    6.377443     5.870387    -4.781475
    6.396993     5.893900    -4.786351
    6.416541     5.913910    -4.795905
    6.436090     5.929955    -4.810148
    6.455639     5.941482    -4.828531
    6.475188     5.948027    -4.850539
    6.494737     5.949227    -4.875687
    6.514286     5.944717    -4.903272
    6.533834     5.934330    -4.932701
    6.553383     5.917890    -4.963223
    6.572932     5.895421    -4.994132
    6.592481     5.866994    -5.024786
    6.612030     5.832752    -5.054609
    6.631579     5.792973    -5.082860
    6.651128     5.747959    -5.109086
    6.670677     5.698099    -5.132774
    6.690226     5.643795    -5.153531
    6.709774     5.585458    -5.171102
    6.729323     5.523544    -5.185090
    6.748872     5.458446    -5.195404
    6.768421     5.390571    -5.201864
    6.787970     5.320365    -5.204393
    6.807518     5.248100    -5.202733
    6.827068     5.174215    -5.196966
    6.846617     5.099053    -5.187068
    6.866165     5.022929    -5.172916
    6.885714     4.946242    -5.154557
    6.905263     4.869256    -5.131999
    6.924812     4.792369    -5.105190
    6.944361     4.715868    -5.074298
    6.963910     4.640116    -5.039325
    6.983459     4.565401    -5.000444
    7.003008     4.492040    -4.957705
    7.022557     4.420310    -4.911281
    7.042106     4.350528    -4.861497
    7.061654     4.282876    -4.808402
    7.081203     4.217609    -4.752275
    7.100752     4.154923    -4.693334
    7.120301     4.094991    -4.631797
    7.139850     4.037968    -4.568064
    7.159399     3.983933    -4.502211
    7.178947     3.932997    -4.434605
    7.198497     3.885220    -4.365526
    7.218046     3.840646    -4.295156
    7.237594     3.799264    -4.223839
    7.257143     3.761047    -4.151760
    7.276692     3.725995    -4.079135
    7.296241     3.694017    -4.006261
    7.315789     3.665041    -3.933244
    7.335339     3.638972    -3.860362
    7.354887     3.615721    -3.787792
    7.374436     3.595145    -3.715612
    7.393985     3.577166    -3.643879
    7.413534     3.561617    -3.572787
    7.433083     3.548381    -3.502347
    7.452632     3.537387    -3.432709
    7.472181     3.528504    -3.363842
    7.491729     3.521636    -3.295771
    7.511279     3.516716    -3.228482
    7.530828     3.513687    -3.162100
    7.550376     3.512495    -3.096454
    7.569925     3.513132    -3.031750
    7.589474     3.515574    -2.967746
    7.609023     3.519842    -2.904669
    7.628572     3.525952    -2.842461
    7.648120     3.533909    -2.781195
    7.667669     3.543757    -2.720979
    7.687218     3.555509    -2.661905
    7.706768     3.569142    -2.604010
    7.726316     3.584694    -2.547507
    7.745865     3.602111    -2.492511
    7.765414     3.621338    -2.439132
    7.784963     3.642326    -2.387552
    7.804512     3.664961    -2.338000
    7.824060     3.689087    -2.290536
    7.843609     3.714564    -2.245360
    7.863158     3.741182    -2.202484
    7.882707     3.768775    -2.162139
    7.902256     3.797054    -2.124187
    7.921804     3.825828    -2.088853
    7.941354     3.854827    -2.055964
    7.960903     3.883830    -2.025572
    7.980451     3.912594    -1.997572
    8.000000     3.940916    -1.971844
# 
# 07/24/2018 at 15:52 YAMBO_RT @ NewLaptop [start]
# 07/24/2018 at 15:52                      [end]
#
# .-Input file : yambo.in
# | optics                         # [R OPT] Optics
# | bse                            # [R BSE] Bethe Salpeter Equation.
# | BoseTemp= 0.000000     eV      # Bosonic Temperature
# | FFTGvecs= 1721         RL      # [FFT] Plane-waves
# | BSEmod= "retarded"             # [BSE] resonant/retarded/coupling
# | BSKmod= "IP"                   # [BSE] IP/Hartree/HF/ALDA/SEX/BSfxc
# | Gauge= "velocity"              # [BSE] Gauge (length|velocity)
# | #EvalKerr                      # [BSE] Compute the Kerr effect
# | #AnHall                        # [BSE] Add the anomalous Hall effect to eps if using length gauge
# | % BEnRange
# |  0.200000 | 8.000000 | eV      # [BSS] Energy range
# | %
# | % BDmRange
# |  0.300000 | 0.500000 | eV      # [BSS] Damping range
# | %
# | BEnSteps=  400                 # [BSS] Energy steps
# | % BLongDir
# |  1.000000 | 0.000000 | 0.000000 |        # [BSS] [cc] Electric Field
# | %
# | % BSEBands
# |   1 | 13 |                     # [BSK] Bands range
# | %
