#                                                           
#   __   __     _        __  __       ____      U  ___  u   
#   \ \ / / U  /"\  U u |" \/ "| u U | __") u    \/"_ \/    
#    \ V /   \/ _ \/   \| |\/| |/   \|  _ \/     | | | |    
#   U_|"|_u  / ___ \    | |  | |     | |_) | .-,_| |_| |    
#     |_|   /_/   \_\   |_|  |_|     |____/   \_)-\___/     
# .-,//|(_   \\    >>  <<,-,,-.     _|| \\_        \\       
#  \_) (__) (__)  (__)  (./  \.)   (__) (__)      (__)      
#                                                           
#                                                           
#        Version 4.3.0 Revision 15642 Hash 4a43e30          
#                      MPI+SLK Build                        
#                http://www.yambo-code.org                  
#
# Absorption @ Q(1) [q->0 direction] :0.1000E-4  0.000     0.000   
#
#
#
# - The Green`s function is Retarded -
# - Using the Length Gauge -
# - [r,Vnl] *is* included -
#
#
#    Diamagnetic term
#    A [nel]
#    -8.683380
#
#    E/ev[1]      EPS-Im[2]    EPS-Re[3]
#
   0.2000        1175.        752.0   
   0.2195        1177.        618.9   
   0.2391        1163.        495.0   
   0.2586        1136.        382.1   
   0.2782        1098.        281.3   
   0.2977        1052.        192.8   
   0.3173        1002.        116.5   
   0.3368        948.0        51.60   
   0.3564        893.4       -2.762   
   0.3759        839.1       -47.66   
   0.3955        786.1       -84.21   
   0.4150        735.1       -113.5   
   0.4346        686.7       -136.6   
   0.4541        641.1       -154.5   
   0.4737        598.5       -168.0   
   0.4932        558.9       -177.8   
   0.5128        522.3       -184.7   
      0.5323     488.5965    -189.1850
      0.5519     457.5759    -191.7389
      0.5714     429.1059    -192.7823
      0.5910     403.0009    -192.6606
      0.6105     379.0659    -191.6614
      0.6301     357.1031    -190.0206
      0.6496     336.9158    -187.9294
      0.6692     318.3140    -185.5356
      0.6887     301.1137    -182.9479
      0.7083     285.1464    -180.2440
      0.7278     270.2573    -177.4728
      0.7474     256.3114    -174.6551
      0.7669     243.1942    -171.8000
      0.7865     230.8138    -168.8990
      0.8060     219.0983    -165.9394
      0.8256     207.9951    -162.9063
      0.8451     197.4657    -159.7888
      0.8647     187.4843    -156.5790
      0.8842     178.0326    -153.2780
      0.9038     169.0961    -149.8912
      0.9233     160.6622    -146.4308
      0.9429     152.7183    -142.9115
      0.9624     145.2499    -139.3521
      0.9820     138.2405    -135.7722
      1.0015     131.6725    -132.1911
      1.0211     125.5259    -128.6271
      1.0406     119.7793    -125.0981
      1.0602     114.4110    -121.6196
      1.0797     109.3982    -118.2055
      1.0992     104.7178    -114.8669
      1.1188     100.3472    -111.6145
      1.1383      96.2634    -108.4554
      1.1579      92.4440    -105.3956
      1.1774      88.8671    -102.4400
     1.19699     85.51186    -99.58963
     1.21654     82.35812    -96.84464
     1.23609     79.38740    -94.20357
     1.25564     76.58246    -91.66331
     1.27519     73.92850    -89.21934
     1.29474     71.41222    -86.86674
     1.31429     69.02259    -84.60055
     1.33383     66.75027    -82.41523
     1.35338     64.58682    -80.30678
     1.37293     62.52542    -78.27164
     1.39248     60.55939    -76.30607
     1.41203     58.68213    -74.40796
     1.43158     56.88744    -72.57523
     1.45113     55.16852    -70.80489
     1.47068     53.51881    -69.09388
     1.49023     51.93169    -67.43914
     1.50977     50.40136    -65.83632
     1.52932     48.92269    -64.27995
     1.54887     47.49158    -62.76496
     1.56842     46.10552    -61.28566
     1.58797     44.76306    -59.83639
     1.60752     43.46397    -58.41232
     1.62707     42.20925    -57.00950
     1.64662     41.00047    -55.62468
     1.66617     39.83984    -54.25601
     1.68571     38.72928    -52.90301
     1.70526     37.67091    -51.56514
     1.72481     36.66649    -50.24386
     1.74436     35.71729    -48.94077
     1.76391     34.82393    -47.65807
     1.78346     33.98656    -46.39851
     1.80301     33.20486    -45.16450
     1.82256     32.47780    -43.95956
     1.84211     31.80388    -42.78650
     1.86165     31.18103    -41.64849
     1.88120     30.60653    -40.54870
     1.90075     30.07716    -39.48984
     1.92030     29.58906    -38.47480
     1.93985     29.13779    -37.50583
     1.95940     28.71803    -36.58495
     1.97895     28.32445    -35.71313
     1.99850     27.95067    -34.89080
     2.01805     27.59027    -34.11729
     2.03759     27.23687    -33.39077
     2.05714     26.88400    -32.70799
     2.07669     26.52599    -32.06476
     2.09624     26.15801    -31.45580
     2.11579     25.77638    -30.87449
     2.13534     25.37871    -30.31423
     2.15489     24.96424    -29.76770
     2.17444     24.53385    -29.22830
     2.19398     24.08954    -28.68972
     2.21353     23.63461    -28.14682
     2.23308     23.17286    -27.59518
     2.25263     22.70882    -27.03202
     2.27218     22.24696    -26.45505
     2.29173     21.79168    -25.86379
     2.31128     21.34715    -25.25822
     2.33083     20.91688    -24.63870
     2.35038     20.50403    -24.00679
     2.36992     20.11121    -23.36374
     2.38947     19.74048    -22.71124
     2.40902     19.39345    -22.05142
     2.42857     19.07147    -21.38577
     2.44812     18.77539    -20.71613
     2.46767     18.50605    -20.04410
     2.48722     18.26385    -19.37136
     2.50677     18.04932    -18.69934
     2.52632     17.86269    -18.02947
     2.54586     17.70414    -17.36306
     2.56541     17.57394    -16.70139
     2.58496     17.47227    -16.04578
     2.60451     17.39925    -15.39757
     2.62406     17.35514    -14.75801
     2.64361     17.34001    -14.12837
     2.66316     17.35407    -13.51011
     2.68271     17.39743    -12.90480
     2.70226     17.47014    -12.31411
     2.72180     17.57223    -11.73972
     2.74135     17.70367    -11.18371
     2.76090     17.86407    -10.64818
     2.78045     18.05309    -10.13545
     2.80000     18.26983     -9.64786
     2.81955     18.51332     -9.18802
     2.83910     18.78201     -8.75845
     2.85865     19.07403     -8.36195
     2.87820     19.38700     -8.00088
     2.89774     19.71801     -7.67763
     2.91729     20.06366     -7.39400
     2.93684     20.42010     -7.15155
     2.95639     20.78329     -6.95116
     2.97594     21.14876     -6.79298
     2.99549     21.51228     -6.67633
     3.01504     21.86953     -6.59984
     3.03459     22.21682     -6.56151
     3.05414     22.55087     -6.55854
     3.07368     22.86921     -6.58780
     3.09323     23.17004     -6.64600
     3.11278     23.45232     -6.73001
     3.13233     23.71584     -6.83670
     3.15188     23.96068     -6.96348
     3.17143     24.18748     -7.10831
     3.19098     24.39692     -7.26961
     3.21053     24.58954     -7.44633
     3.23008     24.76613     -7.63779
     3.24962     24.92667     -7.84366
     3.26917     25.07111     -8.06361
     3.28872     25.19900     -8.29751
     3.30827     25.30963     -8.54486
     3.32782     25.40210     -8.80525
     3.34737     25.47538     -9.07780
     3.36692     25.52833     -9.36142
     3.38647     25.56004     -9.65456
     3.40602     25.56962     -9.95571
     3.42556     25.55675    -10.26278
     3.44511     25.52116    -10.57395
     3.46466     25.46308    -10.88712
     3.48421     25.38308    -11.20046
     3.50376     25.28191    -11.51236
     3.52331     25.16073    -11.82169
     3.54286     25.02046    -12.12752
     3.56241     24.86191    -12.42917
     3.58195     24.68587    -12.72650
     3.60150     24.49257    -13.01925
     3.62105     24.28200    -13.30708
     3.64060     24.05386    -13.58959
     3.66015     23.80766    -13.86596
     3.67970     23.54274    -14.13496
     3.69925     23.25880    -14.39495
     3.71880     22.95546    -14.64385
     3.73835     22.63319    -14.87943
     3.75789     22.29272    -15.09904
     3.77744     21.93535    -15.30019
     3.79699     21.56308    -15.48049
     3.81654     21.17841    -15.63786
     3.83609     20.78435    -15.77077
     3.85564     20.38418    -15.87810
     3.87519     19.98132    -15.95957
     3.89474     19.57933    -16.01537
     3.91429     19.18151    -16.04648
     3.93383     18.79098    -16.05441
     3.95338     18.41035    -16.04109
     3.97293     18.04195    -16.00910
     3.99248     17.68743    -15.96095
     4.01203     17.34783    -15.89950
     4.03158     17.02375    -15.82760
     4.05113     16.71525    -15.74810
     4.07068     16.42191    -15.66349
     4.09023     16.14288    -15.57612
     4.10977     15.87691    -15.48805
     4.12932     15.62258    -15.40085
     4.14887     15.37833    -15.31578
     4.16842     15.14250    -15.23380
     4.18797     14.91339    -15.15541
     4.20752     14.68941    -15.08076
     4.22707     14.46905    -15.00989
     4.24662     14.25100    -14.94234
     4.26617     14.03402    -14.87784
     4.28571     13.81711    -14.81561
     4.30526     13.59934    -14.75491
     4.32481     13.38000    -14.69498
     4.34436     13.15855    -14.63480
     4.36391     12.93456    -14.57344
     4.38346     12.70783    -14.50971
     4.40301     12.47826    -14.44280
     4.42256     12.24607    -14.37124
     4.44211     12.01170    -14.29424
     4.46165     11.77566    -14.21058
     4.48120     11.53882    -14.11950
     4.50075     11.30211    -14.02023
     4.52030     11.06670    -13.91225
     4.53985     10.83384    -13.79541
     4.55940     10.60469    -13.66936
     4.57895     10.38052    -13.53457
     4.59850     10.16249    -13.39128
     4.61804      9.95170    -13.24008
     4.63759      9.74906    -13.08174
     4.65714      9.55533    -12.91706
     4.67669      9.37120    -12.74701
     4.69624      9.19712    -12.57269
     4.71579      9.03335    -12.39498
     4.73534      8.88011    -12.21501
     4.75489      8.73740    -12.03364
     4.77444      8.60511    -11.85192
     4.79398      8.48303    -11.67074
     4.81353      8.37093    -11.49089
     4.83308      8.26832    -11.31314
     4.85263      8.17487    -11.13812
     4.87218      8.09013    -10.96647
     4.89173      8.01362    -10.79865
     4.91128      7.94485    -10.63518
     4.93083      7.88334    -10.47639
     4.95038      7.82863    -10.32278
     4.96992      7.78026    -10.17457
     4.98947      7.73777    -10.03213
    5.009023     7.700699    -9.895762
    5.028571     7.668560    -9.765855
    5.048120     7.640844    -9.642722
    5.067669     7.617032    -9.526695
    5.087218     7.596406    -9.418123
    5.106767     7.578258    -9.317309
    5.126316     7.561770    -9.224518
    5.145864     7.546041    -9.139944
    5.165413     7.530046    -9.063584
    5.184962     7.512709    -8.995360
    5.204511     7.492913    -8.935023
    5.224060     7.469540    -8.882026
    5.243609     7.441525    -8.835733
    5.263158     7.407835    -8.795192
    5.282707     7.367735    -8.759314
    5.302256     7.320538    -8.726875
    5.321805     7.265904    -8.696439
    5.341353     7.203690    -8.666622
    5.360902     7.134054    -8.635994
    5.380451     7.057371    -8.603165
    5.400000     6.974342    -8.566897
    5.419549     6.885788    -8.526164
    5.439097     6.792681    -8.480041
    5.458646     6.696179    -8.427862
    5.478195     6.597391    -8.369186
    5.497744     6.497509    -8.303770
    5.517293     6.397585    -8.231637
    5.536842     6.298762    -8.152891
    5.556391     6.201976    -8.067840
    5.575940     6.108088    -7.976938
    5.595489     6.017838    -7.880580
    5.615037     5.931899    -7.779429
    5.634586     5.850770    -7.674045
    5.654135     5.774876    -7.565088
    5.673684     5.704513    -7.453166
    5.693233     5.639936    -7.338959
    5.712782     5.581278    -7.223110
    5.732330     5.528571    -7.106182
    5.751880     5.481881    -6.988773
    5.771429     5.441130    -6.871417
    5.790977     5.406218    -6.754680
    5.810526     5.376966    -6.639027
    5.830075     5.353220    -6.524927
    5.849624     5.334740    -6.412748
    5.869173     5.321285    -6.302916
    5.888722     5.312533    -6.195702
    5.908270     5.308255    -6.091492
    5.927820     5.308099    -5.990425
    5.947368     5.311795    -5.892747
    5.966917     5.318984    -5.798636
    5.986466     5.329371    -5.708196
    6.006015     5.342731    -5.621533
    6.025564     5.358731    -5.538713
    6.045113     5.377172    -5.459758
    6.064662     5.397781    -5.384735
    6.084210     5.420428    -5.313678
    6.103759     5.444878    -5.246605
    6.123308     5.471011    -5.183585
    6.142857     5.498663    -5.124637
    6.162406     5.527692    -5.069867
    6.181955     5.557930    -5.019417
    6.201504     5.589236    -4.973371
    6.221053     5.621383    -4.931896
    6.240601     5.654142    -4.895195
    6.260150     5.687220    -4.863385
    6.279699     5.720274    -4.836657
    6.299248     5.752955    -4.815103
    6.318797     5.784807    -4.798863
    6.338346     5.815407    -4.787928
    6.357895     5.844155    -4.782375
    6.377443     5.870565    -4.782083
    6.396993     5.894032    -4.786917
    6.416541     5.914066    -4.796577
    6.436090     5.930098    -4.810797
    6.455639     5.941610    -4.829189
    6.475188     5.948160    -4.851173
    6.494737     5.949354    -4.876297
    6.514286     5.944870    -4.903902
    6.533834     5.934488    -4.933297
    6.553383     5.918058    -4.963818
    6.572932     5.895594    -4.994740
    6.592481     5.867140    -5.025459
    6.612030     5.832910    -5.055252
    6.631579     5.793108    -5.083496
    6.651128     5.748118    -5.109714
    6.670677     5.698252    -5.133385
    6.690226     5.643927    -5.154171
    6.709774     5.585607    -5.171722
    6.729323     5.523674    -5.185743
    6.748872     5.458591    -5.196052
    6.768421     5.390719    -5.202515
    6.787970     5.320470    -5.204976
    6.807518     5.248228    -5.203372
    6.827068     5.174330    -5.197613
    6.846617     5.099153    -5.187682
    6.866165     5.023045    -5.173546
    6.885714     4.946328    -5.155149
    6.905263     4.869336    -5.132578
    6.924812     4.792425    -5.105790
    6.944361     4.715935    -5.074874
    6.963910     4.640170    -5.039894
    6.983459     4.565447    -5.000956
    7.003008     4.492105    -4.958228
    7.022557     4.420385    -4.911880
    7.042106     4.350573    -4.862027
    7.061654     4.282925    -4.808946
    7.081203     4.217659    -4.752785
    7.100752     4.154976    -4.693824
    7.120301     4.095042    -4.632317
    7.139850     4.038016    -4.568509
    7.159399     3.983993    -4.502658
    7.178947     3.933054    -4.435082
    7.198497     3.885279    -4.365974
    7.218046     3.840693    -4.295627
    7.237594     3.799315    -4.224280
    7.257143     3.761109    -4.152194
    7.276692     3.726053    -4.079625
    7.296241     3.694067    -4.006717
    7.315789     3.665099    -3.933755
    7.335339     3.639036    -3.860855
    7.354887     3.615777    -3.788260
    7.374436     3.595200    -3.716022
    7.393985     3.577214    -3.644311
    7.413534     3.561674    -3.573248
    7.433083     3.548444    -3.502818
    7.452632     3.537447    -3.433157
    7.472181     3.528559    -3.364279
    7.491729     3.521692    -3.296223
    7.511279     3.516771    -3.228947
    7.530828     3.513732    -3.162514
    7.550376     3.512549    -3.096894
    7.569925     3.513184    -3.032116
    7.589474     3.515631    -2.968158
    7.609023     3.519902    -2.905068
    7.628572     3.526007    -2.842878
    7.648120     3.533977    -2.781649
    7.667669     3.543816    -2.721409
    7.687218     3.555561    -2.662298
    7.706768     3.569211    -2.604432
    7.726316     3.584761    -2.547911
    7.745865     3.602181    -2.492903
    7.765414     3.621425    -2.439553
    7.784963     3.642408    -2.387988
    7.804512     3.665034    -2.338429
    7.824060     3.689164    -2.290947
    7.843609     3.714630    -2.245716
    7.863158     3.741260    -2.202865
    7.882707     3.768837    -2.162462
    7.902256     3.797131    -2.124559
    7.921804     3.825896    -2.089192
    7.941354     3.854905    -2.056319
    7.960903     3.883922    -2.025945
    7.980451     3.912683    -1.997947
    8.000000     3.941008    -1.972216
# 
# 07/31/2018 at 12:10 YAMBO_RT @ narro [start]
# 07/31/2018 at 12:10                  [end]
#
# .-Input file : yambo.in
# | optics                         # [R OPT] Optics
# | bse                            # [R BSE] Bethe Salpeter Equation.
# | BoseTemp= 0.000000     eV      # Bosonic Temperature
# | FFTGvecs= 1721         RL      # [FFT] Plane-waves
# | BSEmod= "retarded"             # [BSE] resonant/retarded/coupling
# | BSKmod= "IP"                   # [BSE] IP/Hartree/HF/ALDA/SEX/BSfxc
# | #EvalKerr                      # [BSE] Compute the Kerr effect
# | #AnHall                        # [BSE] Add the anomalous Hall effect to eps if using length gauge
# | % BEnRange
# |  0.200000 | 8.000000 | eV      # [BSS] Energy range
# | %
# | % BDmRange
# |  0.300000 | 0.500000 | eV      # [BSS] Damping range
# | %
# | BEnSteps=  400                 # [BSS] Energy steps
# | % BLongDir
# | 0.1000E-4 | 0.000    | 0.000    |        # [BSS] [cc] Electric Field
# | %
# | % BSEBands
# |   1 | 13 |                     # [BSK] Bands range
# | %
