#                                                           
#  __  __   ________   ___ __ __    _______   ______        
# /_/\/_/\ /_______/\ /__//_//_/\ /_______/\ /_____/\       
# \ \ \ \ \\::: _  \ \\::\| \| \ \\::: _  \ \\:::_ \ \      
#  \:\_\ \ \\::(_)  \ \\:.      \ \\::(_)  \/_\:\ \ \ \     
#   \::::_\/ \:: __  \ \\:.\-/\  \ \\::  _  \ \\:\ \ \ \    
#     \::\ \  \:.\ \  \ \\. \  \  \ \\::(_)  \ \\:\_\ \ \   
#      \__\/   \__\/\__\/ \__\/ \__\/ \_______\/ \_____\/   
#                                                           
#                                                           
#        Version 4.3.0 Revision 15624 Hash 7ed12fb          
#                      MPI+SLK Build                        
#                http://www.yambo-code.org                  
#
# Absorption @ Q(1) [q->0 direction] :0.1000E-4  0.000     0.000   
#
#
#
# - The Green`s function is Retarded -
# - Using the Length Gauge -
# - [r,Vnl] *is* included -
#
#
#    Diamagnetic term
#    A [nel]
#    -8.683607
#
#    E/ev[1]      EPS-Im[2]    EPS-Re[3]
#
   0.2000        1175.        751.9   
   0.2195        1177.        618.8   
   0.2391        1163.        495.0   
   0.2586        1136.        382.1   
   0.2782        1098.        281.3   
   0.2977        1052.        192.9   
   0.3173        1001.        116.5   
   0.3368        947.9        51.63   
   0.3564        893.3       -2.732   
   0.3759        839.0       -47.63   
   0.3955        786.0       -84.18   
   0.4150        735.0       -113.5   
   0.4346        686.6       -136.6   
   0.4541        641.0       -154.5   
   0.4737        598.5       -167.9   
   0.4932        558.9       -177.8   
   0.5128        522.3       -184.7   
      0.5323     488.5486    -189.1524
      0.5519     457.5312    -191.7068
      0.5714     429.0645    -192.7511
      0.5910     402.9631    -192.6302
      0.6105     379.0299    -191.6320
      0.6301     357.0695    -189.9921
      0.6496     336.8842    -187.9017
      0.6692     318.2845    -185.5086
      0.6887     301.0860    -182.9217
      0.7083     285.1205    -180.2186
      0.7278     270.2329    -177.4483
      0.7474     256.2882    -174.6310
      0.7669     243.1723    -171.7768
      0.7865     230.7932    -168.8766
      0.8060     219.0788    -165.9177
      0.8256     207.9766    -162.8851
      0.8451     197.4481    -159.7683
      0.8647     187.4675    -156.5591
      0.8842     178.0168    -153.2587
      0.9038     169.0811    -149.8724
      0.9233     160.6480    -146.4124
      0.9429     152.7047    -142.8936
      0.9624     145.2370    -139.3346
      0.9820     138.2283    -135.7554
      1.0015     131.6607    -132.1745
      1.0211     125.5148    -128.6109
      1.0406     119.7686    -125.0825
      1.0602     114.4008    -121.6046
      1.0797     109.3886    -118.1907
      1.0992     104.7086    -114.8526
      1.1188     100.3383    -111.6005
      1.1383      96.2549    -108.4418
      1.1579      92.4359    -105.3824
      1.1774      88.8594    -102.4271
     1.19699     85.50444    -99.57697
     1.21654     82.35101    -96.83246
     1.23609     79.38055    -94.19160
     1.25564     76.57579    -91.65159
     1.27519     73.92213    -89.20806
     1.29474     71.40607    -86.85571
     1.31429     69.01669    -84.58963
     1.33383     66.74458    -82.40469
     1.35338     64.58134    -80.29636
     1.37293     62.52009    -78.26149
     1.39248     60.55429    -76.29626
     1.41203     58.67721    -74.39833
     1.43158     56.88274    -72.56575
     1.45113     55.16400    -70.79556
     1.47068     53.51441    -69.08478
     1.49023     51.92744    -67.43021
     1.50977     50.39727    -65.82755
     1.52932     48.91877    -64.27143
     1.54887     47.48782    -62.75662
     1.56842     46.10191    -61.27751
     1.58797     44.75956    -59.82824
     1.60752     43.46059    -58.40444
     1.62707     42.20602    -57.00183
     1.64662     40.99735    -55.61715
     1.66617     39.83685    -54.24864
     1.68571     38.72640    -52.89585
     1.70526     37.66813    -51.55807
     1.72481     36.66380    -50.23690
     1.74436     35.71468    -48.93400
     1.76391     34.82137    -47.65153
     1.78346     33.98412    -46.39204
     1.80301     33.20246    -45.15823
     1.82256     32.47550    -43.95332
     1.84211     31.80164    -42.78042
     1.86165     31.17884    -41.64256
     1.88120     30.60442    -40.54285
     1.90075     30.07514    -39.48406
     1.92030     29.58707    -38.46913
     1.93985     29.13584    -37.50034
     1.95940     28.71616    -36.57950
     1.97895     28.32261    -35.70786
     1.99850     27.94889    -34.88557
     2.01805     27.58853    -34.11217
     2.03759     27.23516    -33.38574
     2.05714     26.88235    -32.70310
     2.07669     26.52438    -32.05996
     2.09624     26.15644    -31.45100
     2.11579     25.77484    -30.86984
     2.13534     25.37719    -30.30956
     2.15489     24.96276    -29.76320
     2.17444     24.53241    -29.22394
     2.19398     24.08815    -28.68534
     2.21353     23.63323    -28.14256
     2.23308     23.17154    -27.59100
     2.25263     22.70753    -27.02782
     2.27218     22.24568    -26.45096
     2.29173     21.79042    -25.85977
     2.31128     21.34593    -25.25425
     2.33083     20.91565    -24.63484
     2.35038     20.50286    -24.00295
     2.36992     20.11008    -23.35997
     2.38947     19.73939    -22.70756
     2.40902     19.39237    -22.04778
     2.42857     19.07041    -21.38219
     2.44812     18.77438    -20.71263
     2.46767     18.50504    -20.04060
     2.48722     18.26289    -19.36794
     2.50677     18.04837    -18.69592
     2.52632     17.86176    -18.02609
     2.54586     17.70322    -17.35973
     2.56541     17.57305    -16.69810
     2.58496     17.47141    -16.04254
     2.60451     17.39840    -15.39443
     2.62406     17.35433    -14.75486
     2.64361     17.33924    -14.12526
     2.66316     17.35331    -13.50706
     2.68271     17.39667    -12.90184
     2.70226     17.46942    -12.31116
     2.72180     17.57153    -11.73681
     2.74135     17.70299    -11.18084
     2.76090     17.86340    -10.64538
     2.78045     18.05243    -10.13268
     2.80000     18.26922     -9.64515
     2.81955     18.51271     -9.18534
     2.83910     18.78142     -8.75588
     2.85865     19.07344     -8.35939
     2.87820     19.38642     -7.99834
     2.89774     19.71747     -7.67515
     2.91729     20.06311     -7.39156
     2.93684     20.41960     -7.14921
     2.95639     20.78275     -6.94881
     2.97594     21.14821     -6.79068
     2.99549     21.51175     -6.67410
     3.01504     21.86900     -6.59764
     3.03459     22.21628     -6.55933
     3.05414     22.55035     -6.55638
     3.07368     22.86868     -6.58571
     3.09323     23.16947     -6.64396
     3.11278     23.45177     -6.72796
     3.13233     23.71524     -6.83468
     3.15188     23.96009     -6.96148
     3.17143     24.18690     -7.10637
     3.19098     24.39633     -7.26766
     3.21053     24.58897     -7.44440
     3.23008     24.76553     -7.63583
     3.24962     24.92608     -7.84174
     3.26917     25.07049     -8.06171
     3.28872     25.19842     -8.29564
     3.30827     25.30902     -8.54299
     3.32782     25.40157     -8.80340
     3.34737     25.47479     -9.07594
     3.36692     25.52777     -9.35957
     3.38647     25.55950     -9.65273
     3.40602     25.56909     -9.95388
     3.42556     25.55622    -10.26100
     3.44511     25.52062    -10.57217
     3.46466     25.46251    -10.88535
     3.48421     25.38256    -11.19872
     3.50376     25.28140    -11.51064
     3.52331     25.16021    -11.81998
     3.54286     25.01997    -12.12580
     3.56241     24.86141    -12.42752
     3.58195     24.68539    -12.72486
     3.60150     24.49214    -13.01762
     3.62105     24.28154    -13.30550
     3.64060     24.05343    -13.58797
     3.66015     23.80720    -13.86437
     3.67970     23.54229    -14.13337
     3.69925     23.25834    -14.39336
     3.71880     22.95500    -14.64236
     3.73835     22.63271    -14.87793
     3.75789     22.29228    -15.09752
     3.77744     21.93487    -15.29871
     3.79699     21.56260    -15.47901
     3.81654     21.17796    -15.63640
     3.83609     20.78389    -15.76931
     3.85564     20.38374    -15.87668
     3.87519     19.98090    -15.95808
     3.89474     19.57888    -16.01398
     3.91429     19.18106    -16.04506
     3.93383     18.79052    -16.05298
     3.95338     18.40991    -16.03971
     3.97293     18.04150    -16.00765
     3.99248     17.68696    -15.95954
     4.01203     17.34735    -15.89810
     4.03158     17.02328    -15.82622
     4.05113     16.71479    -15.74668
     4.07068     16.42144    -15.66209
     4.09023     16.14242    -15.57474
     4.10977     15.87645    -15.48666
     4.12932     15.62213    -15.39945
     4.14887     15.37790    -15.31440
     4.16842     15.14206    -15.23240
     4.18797     14.91295    -15.15400
     4.20752     14.68900    -15.07936
     4.22707     14.46864    -15.00846
     4.24662     14.25062    -14.94093
     4.26617     14.03365    -14.87642
     4.28571     13.81675    -14.81418
     4.30526     13.59899    -14.75348
     4.32481     13.37967    -14.69355
     4.34436     13.15825    -14.63338
     4.36391     12.93430    -14.57200
     4.38346     12.70757    -14.50829
     4.40301     12.47803    -14.44136
     4.42256     12.24588    -14.36982
     4.44211     12.01151    -14.29284
     4.46165     11.77550    -14.20923
     4.48120     11.53868    -14.11813
     4.50075     11.30200    -14.01888
     4.52030     11.06662    -13.91096
     4.53985     10.83376    -13.79411
     4.55940     10.60463    -13.66809
     4.57895     10.38047    -13.53332
     4.59850     10.16247    -13.39006
     4.61804      9.95168    -13.23890
     4.63759      9.74904    -13.08056
     4.65714      9.55534    -12.91591
     4.67669      9.37119    -12.74594
     4.69624      9.19711    -12.57160
     4.71579      9.03334    -12.39392
     4.73534      8.88010    -12.21393
     4.75489      8.73740    -12.03262
     4.77444      8.60512    -11.85091
     4.79398      8.48304    -11.66974
     4.81353      8.37093    -11.48992
     4.83308      8.26831    -11.31220
     4.85263      8.17488    -11.13717
     4.87218      8.09013    -10.96554
     4.89173      8.01362    -10.79773
     4.91128      7.94485    -10.63428
     4.93083      7.88335    -10.47549
     4.95038      7.82863    -10.32190
     4.96992      7.78025    -10.17372
     4.98947      7.73776    -10.03129
    5.009023     7.700695    -9.894920
    5.028571     7.668549    -9.765034
    5.048120     7.640844    -9.641900
    5.067669     7.617010    -9.525883
    5.087218     7.596397    -9.417327
    5.106767     7.578238    -9.316556
    5.126316     7.561769    -9.223772
    5.145864     7.546016    -9.139194
    5.165413     7.530011    -9.062851
    5.184962     7.512678    -8.994675
    5.204511     7.492872    -8.934310
    5.224060     7.469505    -8.881353
    5.243609     7.441467    -8.835074
    5.263158     7.407769    -8.794519
    5.282707     7.367662    -8.758650
    5.302256     7.320444    -8.726224
    5.321805     7.265806    -8.695805
    5.341353     7.203584    -8.666004
    5.360902     7.133922    -8.635352
    5.380451     7.057242    -8.602524
    5.400000     6.974214    -8.566273
    5.419549     6.885655    -8.525546
    5.439097     6.792525    -8.479403
    5.458646     6.696013    -8.427223
    5.478195     6.597232    -8.368546
    5.497744     6.497349    -8.303144
    5.517293     6.397416    -8.230996
    5.536842     6.298599    -8.152214
    5.556391     6.201809    -8.067187
    5.575940     6.107924    -7.976258
    5.595489     6.017675    -7.879930
    5.615037     5.931733    -7.778769
    5.634586     5.850616    -7.673409
    5.654135     5.774720    -7.564431
    5.673684     5.704370    -7.452520
    5.693233     5.639791    -7.338318
    5.712782     5.581136    -7.222448
    5.732330     5.528431    -7.105531
    5.751880     5.481748    -6.988120
    5.771429     5.441003    -6.870772
    5.790977     5.406094    -6.754059
    5.810526     5.376852    -6.638397
    5.830075     5.353103    -6.524330
    5.849624     5.334633    -6.412139
    5.869173     5.321169    -6.302283
    5.888722     5.312428    -6.195118
    5.908270     5.308153    -6.090892
    5.927820     5.307994    -5.989830
    5.947368     5.311690    -5.892160
    5.966917     5.318874    -5.798052
    5.986466     5.329268    -5.707638
    6.006015     5.342619    -5.620964
    6.025564     5.358624    -5.538144
    6.045113     5.377068    -5.459219
    6.064662     5.397657    -5.384192
    6.084210     5.420307    -5.313141
    6.103759     5.444757    -5.246092
    6.123308     5.470892    -5.183032
    6.142857     5.498534    -5.124115
    6.162406     5.527562    -5.069361
    6.181955     5.557796    -5.018895
    6.201504     5.589097    -4.972838
    6.221053     5.621243    -4.931388
    6.240601     5.654002    -4.894671
    6.260150     5.687077    -4.862875
    6.279699     5.720130    -4.836130
    6.299248     5.752812    -4.814581
    6.318797     5.784661    -4.798327
    6.338346     5.815258    -4.787411
    6.357895     5.844008    -4.781864
    6.377443     5.870414    -4.781563
    6.396993     5.893884    -4.786396
    6.416541     5.913921    -4.796051
    6.436090     5.929946    -4.810274
    6.455639     5.941466    -4.828657
    6.475188     5.948015    -4.850681
    6.494737     5.949205    -4.875791
    6.514286     5.944720    -4.903365
    6.533834     5.934336    -4.932768
    6.553383     5.917913    -4.963300
    6.572932     5.895452    -4.994239
    6.592481     5.867001    -5.024946
    6.612030     5.832765    -5.054733
    6.631579     5.792967    -5.082968
    6.651128     5.747980    -5.109201
    6.670677     5.698115    -5.132864
    6.690226     5.643801    -5.153646
    6.709774     5.585474    -5.171177
    6.729323     5.523549    -5.185208
    6.748872     5.458465    -5.195538
    6.768421     5.390597    -5.201976
    6.787970     5.320358    -5.204430
    6.807518     5.248116    -5.202851
    6.827068     5.174227    -5.197118
    6.846617     5.099061    -5.187153
    6.866165     5.022955    -5.173006
    6.885714     4.946245    -5.154652
    6.905263     4.869264    -5.132091
    6.924812     4.792352    -5.105297
    6.944361     4.715864    -5.074380
    6.963910     4.640110    -5.039408
    6.983459     4.565386    -5.000473
    7.003008     4.492045    -4.957760
    7.022557     4.420330    -4.911408
    7.042106     4.350521    -4.861554
    7.061654     4.282878    -4.808456
    7.081203     4.217602    -4.752325
    7.100752     4.154927    -4.693360
    7.120301     4.094992    -4.631874
    7.139850     4.037967    -4.568063
    7.159399     3.983946    -4.502223
    7.178947     3.932998    -4.434647
    7.198497     3.885233    -4.365541
    7.218046     3.840644    -4.295192
    7.237594     3.799267    -4.223862
    7.257143     3.761059    -4.151782
    7.276692     3.726004    -4.079202
    7.296241     3.694027    -4.006314
    7.315789     3.665051    -3.933350
    7.335339     3.638990    -3.860458
    7.354887     3.615726    -3.787850
    7.374436     3.595148    -3.715629
    7.393985     3.577161    -3.643918
    7.413534     3.561623    -3.572831
    7.433083     3.548402    -3.502426
    7.452632     3.537395    -3.432773
    7.472181     3.528512    -3.363892
    7.491729     3.521640    -3.295816
    7.511279     3.516724    -3.228588
    7.530828     3.513679    -3.162140
    7.550376     3.512503    -3.096529
    7.569925     3.513129    -3.031733
    7.589474     3.515576    -2.967785
    7.609023     3.519846    -2.904716
    7.628572     3.525947    -2.842515
    7.648120     3.533920    -2.781271
    7.667669     3.543763    -2.721044
    7.687218     3.555504    -2.661961
    7.706768     3.569150    -2.604075
    7.726316     3.584703    -2.547570
    7.745865     3.602116    -2.492547
    7.765414     3.621362    -2.439204
    7.784963     3.642340    -2.387650
    7.804512     3.664968    -2.338092
    7.824060     3.689100    -2.290616
    7.843609     3.714564    -2.245388
    7.863158     3.741191    -2.202539
    7.882707     3.768772    -2.162118
    7.902256     3.797064    -2.124221
    7.921804     3.825827    -2.088864
    7.941354     3.854828    -2.055992
    7.960903     3.883848    -2.025623
    7.980451     3.912613    -1.997633
    8.000000     3.940935    -1.971893
# 
# 07/24/2018 at 15:52 YAMBO_RT @ NewLaptop [start]
# 07/24/2018 at 15:52                      [end]
#
# .-Input file : yambo.in
# | optics                         # [R OPT] Optics
# | bse                            # [R BSE] Bethe Salpeter Equation.
# | BoseTemp= 0.000000     eV      # Bosonic Temperature
# | FFTGvecs= 1721         RL      # [FFT] Plane-waves
# | BSEmod= "retarded"             # [BSE] resonant/retarded/coupling
# | BSKmod= "IP"                   # [BSE] IP/Hartree/HF/ALDA/SEX/BSfxc
# | #EvalKerr                      # [BSE] Compute the Kerr effect
# | #AnHall                        # [BSE] Add the anomalous Hall effect to eps if using length gauge
# | % BEnRange
# |  0.200000 | 8.000000 | eV      # [BSS] Energy range
# | %
# | % BDmRange
# |  0.300000 | 0.500000 | eV      # [BSS] Damping range
# | %
# | BEnSteps=  400                 # [BSS] Energy steps
# | % BLongDir
# | 0.1000E-4 | 0.000    | 0.000    |        # [BSS] [cc] Electric Field
# | %
# | % BSEBands
# |   1 | 13 |                     # [BSK] Bands range
# | %
