#                                                                     
#  **    **    **     ****     ****  ******     *******               
# //**  **    ****   /**/**   **/** /*////**   **/////**              
#  //****    **//**  /**//** ** /** /*   /**  **     //**             
#   //**    **  //** /** //***  /** /******  /**      /**             
#    /**   **********/**  //*   /** /*//// **/**      /**             
#    /**  /**//////**/**   /    /** /*    /**//**     **              
#    /**  /**     /**/**        /** /*******  //*******               
#    //   //      // //         //  ///////    ///////                
#                                                                     
# Version 5.2.0 Revision 23431 Hash (prev commit) 1d2d4f21de          
#                 Branch is phys-magnons                              
#         MPI+OpenMP+SLK+SLEPC+HDF5_MPI_IO Build                      
#                http://www.yambo-code.org                            
#
# Magnons (S+-) @ Q(1):   0.00000000      1.00000000      0.00000000    [q->0 direction]
#
# [GEN] GF Energies                               : Teter 93(XC)
# [GEN] Green`s Function                          : Retarded
#
# [GEN] Gauge                                     : Length
# [GEN] [r,Vnl] included                          : yes
#
# DIP band range                                  :   6  10
# DIP band range limits                           :  10   6
# DIP e/h energy range                            :  -1.00000000     -1.00000000    [eV]
# RL vectors in the sum                           :  1721
# [r,Vnl] included                                : yes
# Bands ordered                                   : no
# Direct v evaluation                             : no
# Approach used                                   : G-space v
# Dipoles computed                                : R V P Spin
# Wavefunctions                                   : Teter 93(XC)
#
#
# [K] Identifier                                  :   6227
# [K] Dimension                                   :   756
# [K] Bands                                       :   6  10
# [K] Exchange res                                : no
# [K] Correlation res                             : no
# [K] Kernel`s coupling                           : no
# [K] Exchange cpl                                : no
# [K] Correlation cpl                             : no
# [K] W interaction is bare                       : no
# [K] ALDA kernel in R-space                      : no
# [K] E/h energy range                            :  -1.00000000     -1.00000000    [eV]
# [K] Coupling range                              :   100.000000      100.000000    [o/o]
# [X] Response Kind                               : BAR
#
#
#    E[1] [eV]          Im(Spm)            Re(Spm)            Im(Spm_o)          Re(Spm_o)
#
       -10.00000           0.428382E-3        0.055073           0.428382E-3        0.055072
       -9.980000           0.429319E-3        0.055158           0.429318E-3        0.055158
       -9.960000           0.430243E-3        0.055244           0.430243E-3        0.055244
       -9.940000           0.431150E-3        0.055330           0.431151E-3        0.055330
       -9.920000           0.432044E-3        0.055417           0.432045E-3        0.055417
       -9.900000           0.432920E-3        0.055503           0.432921E-3        0.055503
       -9.880000           0.433780E-3        0.055590           0.433780E-3        0.055590
       -9.860000           0.434617E-3        0.055677           0.434617E-3        0.055677
       -9.840000           0.435436E-3        0.055764           0.435436E-3        0.055764
       -9.819999           0.436229E-3        0.055851           0.436229E-3        0.055851
       -9.799999           0.436999E-3        0.055939           0.436999E-3        0.055939
       -9.780000           0.437742E-3        0.056026           0.437741E-3        0.056026
       -9.759999           0.438455E-3        0.056114           0.438455E-3        0.056114
       -9.740000           0.439140E-3        0.056202           0.439139E-3        0.056201
       -9.719999           0.439788E-3        0.056289           0.439789E-3        0.056289
       -9.700000           0.440402E-3        0.056377           0.440403E-3        0.056377
       -9.679999           0.440977E-3        0.056466           0.440978E-3        0.056466
       -9.660000           0.441508E-3        0.056554           0.441510E-3        0.056554
       -9.639999           0.441997E-3        0.056642           0.441998E-3        0.056642
       -9.620000           0.442437E-3        0.056731           0.442436E-3        0.056731
       -9.599999           0.442823E-3        0.056820           0.442822E-3        0.056820
       -9.580000           0.443150E-3        0.056908           0.443150E-3        0.056908
       -9.559999           0.443416E-3        0.056997           0.443416E-3        0.056997
       -9.540000           0.443613E-3        0.057086           0.443613E-3        0.057086
       -9.520000           0.443738E-3        0.057175           0.443738E-3        0.057175
       -9.500000           0.443782E-3        0.057264           0.443783E-3        0.057264
       -9.480000           0.443742E-3        0.057353           0.443741E-3        0.057353
       -9.460000           0.443604E-3        0.057441           0.443606E-3        0.057441
       -9.440000           0.443366E-3        0.057530           0.443367E-3        0.057530
       -9.419999           0.443018E-3        0.057619           0.443017E-3        0.057619
       -9.400000           0.442543E-3        0.057708           0.442543E-3        0.057708
       -9.379999           0.441936E-3        0.057797           0.441937E-3        0.057797
       -9.360000           0.441181E-3        0.057885           0.441181E-3        0.057885
       -9.339999           0.440263E-3        0.057974           0.440265E-3        0.057974
       -9.320000           0.439171E-3        0.058062           0.439171E-3        0.058062
       -9.299999           0.437879E-3        0.058150           0.437880E-3        0.058150
       -9.280000           0.436374E-3        0.058238           0.436375E-3        0.058238
       -9.259999           0.434627E-3        0.058325           0.434629E-3        0.058325
       -9.240000           0.432618E-3        0.058413           0.432618E-3        0.058413
       -9.219999           0.430313E-3        0.058499           0.430314E-3        0.058499
       -9.200000           0.427680E-3        0.058586           0.427681E-3        0.058586
       -9.179999           0.424682E-3        0.058672           0.424682E-3        0.058672
       -9.160000           0.421272E-3        0.058757           0.421271E-3        0.058757
       -9.140000           0.417401E-3        0.058842           0.417401E-3        0.058842
       -9.120000           0.413011E-3        0.058926           0.413012E-3        0.058926
       -9.099999           0.408034E-3        0.059009           0.408035E-3        0.059009
       -9.079999           0.402392E-3        0.059091           0.402394E-3        0.059091
       -9.059999           0.395997E-3        0.059172           0.395997E-3        0.059172
       -9.039999           0.388735E-3        0.059252           0.388735E-3        0.059253
       -9.020000           0.380482E-3        0.059331           0.380482E-3        0.059331
       -8.999999           0.371086E-3        0.059409           0.371087E-3        0.059409
       -8.980000           0.360371E-3        0.059484           0.360372E-3        0.059484
       -8.959999           0.348116E-3        0.059558           0.348117E-3        0.059558
       -8.940000           0.334066E-3        0.059630           0.334065E-3        0.059630
       -8.919999           0.317899E-3        0.059699           0.317899E-3        0.059699
       -8.900000           0.299231E-3        0.059766           0.299231E-3        0.059766
       -8.880000           0.277585E-3        0.059830           0.277585E-3        0.059829
       -8.860000           0.252369E-3        0.059890           0.252367E-3        0.059890
       -8.840000           0.222836E-3        0.059946           0.222836E-3        0.059946
       -8.820000           0.188051E-3        0.059998           0.188053E-3        0.059998
       -8.800000           0.146822E-3        0.060045           0.146820E-3        0.060045
       -8.780000           0.976066E-4        0.060087           0.976066E-4        0.060087
       -8.760000           0.384146E-4        0.060123           0.384137E-4        0.060123
       -8.740000          -0.333584E-4        0.060152          -0.333586E-4        0.060152
       -8.720000          -0.121152E-3        0.060174          -0.121152E-3        0.060174
       -8.700000          -0.229514E-3        0.060190          -0.229515E-3        0.060190
       -8.679999          -0.364488E-3        0.060201          -0.364489E-3        0.060201
       -8.659999          -0.534018E-3        0.060208          -0.534017E-3        0.060208
       -8.639999          -0.748364E-3        0.060217          -0.748366E-3        0.060217
       -8.620000          -0.001020           0.060240          -0.001020           0.060240
       -8.599999          -0.001363           0.060296          -0.001363           0.060296
       -8.580000          -0.001787           0.060418          -0.001787           0.060418
       -8.559999          -0.002288           0.060658          -0.002288           0.060658
       -8.540000          -0.002828           0.061081          -0.002828           0.061081
       -8.520000          -0.003310           0.061737          -0.003310           0.061737
       -8.500000          -0.003593           0.062605          -0.003593           0.062604
       -8.480000          -0.003566           0.063551          -0.003566           0.063551
       -8.460000          -0.003240           0.064393          -0.003240           0.064393
       -8.440000          -0.002737           0.065015          -0.002737           0.065015
       -8.420000          -0.002194           0.065409          -0.002194           0.065409
       -8.400000          -0.001699           0.065631          -0.001699           0.065631
       -8.380000          -0.001283           0.065744          -0.001283           0.065744
       -8.360000          -0.947981E-3        0.065798          -0.947983E-3        0.065798
       -8.339999          -0.681607E-3        0.065824          -0.681610E-3        0.065824
       -8.320000          -0.470619E-3        0.065839          -0.470620E-3        0.065839
       -8.299999          -0.302753E-3        0.065854          -0.302755E-3        0.065854
       -8.280000          -0.168112E-3        0.065873          -0.168113E-3        0.065873
       -8.259999          -0.590560E-4        0.065899          -0.590568E-4        0.065899
       -8.240000           0.301987E-4        0.065933           0.301990E-4        0.065933
       -8.219999           0.104015E-3        0.065974           0.104015E-3        0.065974
       -8.200000           0.165689E-3        0.066022           0.165689E-3        0.066022
       -8.179999           0.217723E-3        0.066077           0.217722E-3        0.066077
       -8.160000           0.262029E-3        0.066138           0.262029E-3        0.066138
       -8.139999           0.300089E-3        0.066205           0.300090E-3        0.066205
       -8.120000           0.333056E-3        0.066277           0.333054E-3        0.066277
       -8.099999           0.361832E-3        0.066353           0.361833E-3        0.066353
       -8.080000           0.387135E-3        0.066434           0.387134E-3        0.066434
       -8.059999           0.409543E-3        0.066519           0.409542E-3        0.066518
       -8.040000           0.429511E-3        0.066606           0.429510E-3        0.066607
       -8.020000           0.447419E-3        0.066697           0.447418E-3        0.066698
       -8.000000           0.463574E-3        0.066791           0.463574E-3        0.066791
       -7.980000           0.478230E-3        0.066888           0.478230E-3        0.066888
       -7.960000           0.491596E-3        0.066987           0.491595E-3        0.066987
       -7.939999           0.503845E-3        0.067089           0.503844E-3        0.067089
       -7.920000           0.515126E-3        0.067192           0.515126E-3        0.067192
       -7.900000           0.525564E-3        0.067297           0.525563E-3        0.067298
       -7.880000           0.535261E-3        0.067405           0.535261E-3        0.067405
       -7.860000           0.544309E-3        0.067514           0.544308E-3        0.067514
       -7.840000           0.552784E-3        0.067624           0.552783E-3        0.067624
       -7.820000           0.560753E-3        0.067737           0.560753E-3        0.067736
       -7.800000           0.568272E-3        0.067850           0.568271E-3        0.067850
       -7.780000           0.575390E-3        0.067965           0.575390E-3        0.067965
       -7.760000           0.582149E-3        0.068082           0.582149E-3        0.068082
       -7.740000           0.588591E-3        0.068199           0.588590E-3        0.068199
       -7.720000           0.594744E-3        0.068318           0.594744E-3        0.068318
       -7.700000           0.600640E-3        0.068438           0.600640E-3        0.068438
       -7.680000           0.606304E-3        0.068559           0.606303E-3        0.068559
       -7.659999           0.611758E-3        0.068681           0.611757E-3        0.068681
       -7.639999           0.617020E-3        0.068804           0.617021E-3        0.068804
       -7.619999           0.622112E-3        0.068929           0.622113E-3        0.068929
       -7.599999           0.627047E-3        0.069054           0.627047E-3        0.069054
       -7.579999           0.631842E-3        0.069180           0.631842E-3        0.069180
       -7.559999           0.636508E-3        0.069307           0.636507E-3        0.069307
       -7.539999           0.641054E-3        0.069435           0.641054E-3        0.069435
       -7.520000           0.645493E-3        0.069564           0.645493E-3        0.069564
       -7.500000           0.649835E-3        0.069693           0.649834E-3        0.069693
       -7.480000           0.654086E-3        0.069824           0.654087E-3        0.069824
       -7.460000           0.658256E-3        0.069955           0.658255E-3        0.069955
       -7.440000           0.662350E-3        0.070087           0.662349E-3        0.070087
       -7.420000           0.666374E-3        0.070221           0.666373E-3        0.070221
       -7.400000           0.670334E-3        0.070354           0.670335E-3        0.070354
       -7.380000           0.674236E-3        0.070489           0.674237E-3        0.070489
       -7.360000           0.678085E-3        0.070624           0.678086E-3        0.070624
       -7.340000           0.681884E-3        0.070760           0.681884E-3        0.070760
       -7.320000           0.685638E-3        0.070897           0.685638E-3        0.070897
       -7.300000           0.689349E-3        0.071034           0.689350E-3        0.071035
       -7.280000           0.693022E-3        0.071173           0.693022E-3        0.071173
       -7.260000           0.696660E-3        0.071312           0.696659E-3        0.071312
       -7.240000           0.700262E-3        0.071452           0.700264E-3        0.071452
       -7.220000           0.703835E-3        0.071592           0.703836E-3        0.071592
       -7.199999           0.707380E-3        0.071733           0.707380E-3        0.071733
       -7.179999           0.710898E-3        0.071875           0.710898E-3        0.071875
       -7.159999           0.714394E-3        0.072018           0.714393E-3        0.072018
       -7.139999           0.717863E-3        0.072161           0.717864E-3        0.072161
       -7.119999           0.721313E-3        0.072305           0.721314E-3        0.072305
       -7.099999           0.724743E-3        0.072450           0.724744E-3        0.072450
       -7.079999           0.728156E-3        0.072595           0.728155E-3        0.072595
       -7.059999           0.731550E-3        0.072741           0.731549E-3        0.072741
       -7.039999           0.734925E-3        0.072888           0.734928E-3        0.072888
       -7.020000           0.738290E-3        0.073035           0.738290E-3        0.073035
       -7.000000           0.741637E-3        0.073183           0.741637E-3        0.073183
       -6.980000           0.744974E-3        0.073331           0.744972E-3        0.073331
       -6.960000           0.748293E-3        0.073481           0.748292E-3        0.073481
       -6.940000           0.751600E-3        0.073631           0.751602E-3        0.073631
       -6.919999           0.754899E-3        0.073781           0.754898E-3        0.073782
       -6.899999           0.758180E-3        0.073933           0.758183E-3        0.073933
       -6.879999           0.761454E-3        0.074085           0.761455E-3        0.074085
       -6.859999           0.764714E-3        0.074238           0.764715E-3        0.074238
       -6.839999           0.767967E-3        0.074391           0.767963E-3        0.074391
       -6.819999           0.771205E-3        0.074545           0.771202E-3        0.074545
       -6.799999           0.774432E-3        0.074699           0.774430E-3        0.074700
       -6.779999           0.777644E-3        0.074855           0.777647E-3        0.074855
       -6.760000           0.780849E-3        0.075011           0.780848E-3        0.075011
       -6.740000           0.784038E-3        0.075167           0.784039E-3        0.075167
       -6.720000           0.787217E-3        0.075324           0.787217E-3        0.075324
       -6.700000           0.790388E-3        0.075482           0.790384E-3        0.075482
       -6.680000           0.793535E-3        0.075640           0.793537E-3        0.075640
       -6.660000           0.796673E-3        0.075799           0.796672E-3        0.075799
       -6.640000           0.799797E-3        0.075959           0.799797E-3        0.075959
       -6.620000           0.802905E-3        0.076119           0.802904E-3        0.076119
       -6.600000           0.805993E-3        0.076280           0.805993E-3        0.076280
       -6.579999           0.809064E-3        0.076442           0.809064E-3        0.076442
       -6.559999           0.812118E-3        0.076604           0.812119E-3        0.076604
       -6.539999           0.815151E-3        0.076767           0.815149E-3        0.076767
       -6.520000           0.818161E-3        0.076930           0.818161E-3        0.076930
       -6.500000           0.821149E-3        0.077094           0.821150E-3        0.077094
       -6.480000           0.824112E-3        0.077259           0.824111E-3        0.077259
       -6.460000           0.827047E-3        0.077424           0.827048E-3        0.077424
       -6.440000           0.829953E-3        0.077590           0.829953E-3        0.077590
       -6.420000           0.832831E-3        0.077756           0.832828E-3        0.077756
       -6.400000           0.835671E-3        0.077923           0.835671E-3        0.077923
       -6.380000           0.838476E-3        0.078090           0.838475E-3        0.078090
       -6.360000           0.841242E-3        0.078258           0.841242E-3        0.078258
       -6.340000           0.843963E-3        0.078427           0.843965E-3        0.078427
       -6.320000           0.846643E-3        0.078596           0.846645E-3        0.078596
       -6.300000           0.849273E-3        0.078766           0.849274E-3        0.078766
       -6.280000           0.851853E-3        0.078936           0.851853E-3        0.078936
       -6.260000           0.854373E-3        0.079107           0.854374E-3        0.079107
       -6.239999           0.856834E-3        0.079278           0.856831E-3        0.079278
       -6.219999           0.859225E-3        0.079449           0.859225E-3        0.079450
       -6.199999           0.861548E-3        0.079622           0.861547E-3        0.079622
       -6.180000           0.863792E-3        0.079794           0.863791E-3        0.079794
       -6.160000           0.865949E-3        0.079968           0.865952E-3        0.079967
       -6.140000           0.868021E-3        0.080141           0.868022E-3        0.080141
       -6.120000           0.869993E-3        0.080315           0.869993E-3        0.080315
       -6.100000           0.871862E-3        0.080489           0.871861E-3        0.080489
       -6.080000           0.873614E-3        0.080664           0.873612E-3        0.080664
       -6.059999           0.875236E-3        0.080839           0.875241E-3        0.080839
       -6.039999           0.876731E-3        0.081015           0.876732E-3        0.081015
       -6.020000           0.878081E-3        0.081191           0.878080E-3        0.081191
       -6.000000           0.879265E-3        0.081366           0.879269E-3        0.081367
       -5.980000           0.880285E-3        0.081543           0.880284E-3        0.081543
       -5.960000           0.881113E-3        0.081719           0.881116E-3        0.081719
       -5.940000           0.881741E-3        0.081896           0.881741E-3        0.081896
       -5.920000           0.882150E-3        0.082073           0.882147E-3        0.082073
       -5.900000           0.882309E-3        0.082250           0.882309E-3        0.082250
       -5.880000           0.882211E-3        0.082427           0.882210E-3        0.082427
       -5.860000           0.881820E-3        0.082603           0.881820E-3        0.082604
       -5.840000           0.881120E-3        0.082780           0.881117E-3        0.082780
       -5.820000           0.880072E-3        0.082957           0.880070E-3        0.082957
       -5.800000           0.878644E-3        0.083134           0.878644E-3        0.083134
       -5.780000           0.876803E-3        0.083310           0.876804E-3        0.083310
       -5.760000           0.874501E-3        0.083486           0.874503E-3        0.083486
       -5.740000           0.871703E-3        0.083661           0.871703E-3        0.083661
       -5.720000           0.868349E-3        0.083836           0.868348E-3        0.083836
       -5.699999           0.864373E-3        0.084011           0.864376E-3        0.084011
       -5.679999           0.859723E-3        0.084184           0.859726E-3        0.084184
       -5.659999           0.854319E-3        0.084357           0.854321E-3        0.084357
       -5.639999           0.848075E-3        0.084529           0.848078E-3        0.084529
       -5.619999           0.840895E-3        0.084700           0.840891E-3        0.084699
       -5.600000           0.832667E-3        0.084869           0.832667E-3        0.084869
       -5.580000           0.823264E-3        0.085037           0.823265E-3        0.085037
       -5.560000           0.812545E-3        0.085203           0.812546E-3        0.085203
       -5.540000           0.800341E-3        0.085367           0.800342E-3        0.085367
       -5.520000           0.786459E-3        0.085528           0.786461E-3        0.085528
       -5.500000           0.770664E-3        0.085688           0.770668E-3        0.085688
       -5.480000           0.752711E-3        0.085844           0.752713E-3        0.085844
       -5.460000           0.732277E-3        0.085997           0.732278E-3        0.085997
       -5.440000           0.708998E-3        0.086147           0.708999E-3        0.086147
       -5.420000           0.682444E-3        0.086292           0.682444E-3        0.086292
       -5.400000           0.652096E-3        0.086433           0.652098E-3        0.086433
       -5.380000           0.617341E-3        0.086568           0.617343E-3        0.086568
       -5.360000           0.577429E-3        0.086698           0.577429E-3        0.086697
       -5.340000           0.531448E-3        0.086821           0.531452E-3        0.086820
       -5.320000           0.478305E-3        0.086936           0.478306E-3        0.086935
       -5.300000           0.416622E-3        0.087042           0.416621E-3        0.087042
       -5.280000           0.344706E-3        0.087139           0.344706E-3        0.087139
       -5.260000           0.260442E-3        0.087224           0.260444E-3        0.087224
       -5.240000           0.161155E-3        0.087298           0.161157E-3        0.087298
       -5.220000           0.434375E-4        0.087357           0.434390E-4        0.087357
       -5.200000          -0.970796E-4        0.087401          -0.970812E-4        0.087401
       -5.180000          -0.266067E-3        0.087428          -0.266069E-3        0.087428
       -5.160000          -0.470931E-3        0.087436          -0.470931E-3        0.087436
       -5.139999          -0.721421E-3        0.087425          -0.721422E-3        0.087424
       -5.119999          -0.001030           0.087394          -0.001030           0.087394
       -5.099999          -0.001415           0.087346          -0.001415           0.087346
       -5.079999          -0.001898           0.087288          -0.001898           0.087288
       -5.059999          -0.002509           0.087235          -0.002509           0.087235
       -5.039999          -0.003283           0.087216          -0.003283           0.087216
       -5.020000          -0.004261           0.087285          -0.004261           0.087285
       -5.000000          -0.005475           0.087534          -0.005475           0.087535
       -4.980000          -0.006920           0.088110          -0.006920           0.088110
       -4.960000          -0.008498           0.089201          -0.008498           0.089201
       -4.940000          -0.009949           0.090966          -0.009949           0.090966
       -4.920000          -0.010866           0.093374          -0.010866           0.093373
       -4.900000          -0.010898           0.096071          -0.010898           0.096070
       -4.880000          -0.010027           0.098521          -0.010027           0.098521
       -4.860000          -0.008588           0.100348          -0.008588           0.100348
       -4.840000          -0.006994           0.101497          -0.006994           0.101497
       -4.820000          -0.005518           0.102118          -0.005518           0.102118
       -4.800000          -0.004271           0.102402          -0.004271           0.102402
       -4.779999          -0.003260           0.102498          -0.003260           0.102498
       -4.760000          -0.002457           0.102504          -0.002457           0.102504
       -4.740000          -0.001820           0.102475          -0.001820           0.102475
       -4.720000          -0.001314           0.102442          -0.001314           0.102442
       -4.700000          -0.907959E-3        0.102422          -0.907962E-3        0.102422
       -4.680000          -0.579169E-3        0.102421          -0.579175E-3        0.102421
       -4.660000          -0.310104E-3        0.102442          -0.310105E-3        0.102442
       -4.640000          -0.875520E-4        0.102486          -0.875540E-4        0.102486
       -4.620000           0.984567E-4        0.102551           0.984581E-4        0.102552
       -4.599999           0.255498E-3        0.102637           0.255498E-3        0.102637
       -4.579999           0.389351E-3        0.102741           0.389350E-3        0.102741
       -4.559999           0.504485E-3        0.102862           0.504482E-3        0.102862
       -4.539999           0.604368E-3        0.102999           0.604366E-3        0.102999
       -4.520000           0.691735E-3        0.103149           0.691733E-3        0.103149
       -4.500000           0.768740E-3        0.103313           0.768740E-3        0.103313
       -4.480000           0.837112E-3        0.103487           0.837112E-3        0.103487
       -4.460000           0.898241E-3        0.103673           0.898242E-3        0.103673
       -4.440000           0.953250E-3        0.103868           0.953251E-3        0.103868
       -4.420000           0.001003           0.104073           0.001003           0.104072
       -4.400000           0.001048           0.104285           0.001048           0.104285
       -4.380000           0.001090           0.104505           0.001090           0.104505
       -4.360000           0.001128           0.104732           0.001128           0.104732
       -4.340000           0.001164           0.104966           0.001164           0.104966
       -4.320000           0.001197           0.105206           0.001197           0.105206
       -4.300000           0.001228           0.105452           0.001228           0.105452
       -4.280000           0.001256           0.105704           0.001256           0.105704
       -4.260000           0.001284           0.105960           0.001284           0.105960
       -4.239999           0.001310           0.106222           0.001310           0.106222
       -4.219999           0.001334           0.106488           0.001334           0.106488
       -4.199999           0.001357           0.106759           0.001357           0.106759
       -4.180000           0.001380           0.107035           0.001380           0.107035
       -4.160000           0.001401           0.107314           0.001401           0.107314
       -4.140000           0.001422           0.107598           0.001422           0.107598
       -4.120000           0.001442           0.107886           0.001442           0.107886
       -4.100000           0.001461           0.108177           0.001461           0.108177
       -4.080000           0.001480           0.108472           0.001480           0.108472
       -4.060000           0.001498           0.108771           0.001498           0.108771
       -4.039999           0.001516           0.109073           0.001516           0.109073
       -4.020000           0.001533           0.109378           0.001533           0.109378
       -4.000000           0.001550           0.109687           0.001550           0.109687
       -3.980000           0.001567           0.110000           0.001567           0.110000
       -3.960000           0.001583           0.110315           0.001583           0.110315
       -3.940000           0.001599           0.110634           0.001599           0.110634
       -3.920000           0.001615           0.110956           0.001615           0.110956
       -3.900000           0.001631           0.111281           0.001631           0.111281
       -3.880000           0.001646           0.111609           0.001646           0.111609
       -3.859999           0.001662           0.111940           0.001662           0.111940
       -3.839999           0.001677           0.112274           0.001677           0.112274
       -3.820000           0.001692           0.112611           0.001692           0.112611
       -3.800000           0.001707           0.112951           0.001707           0.112951
       -3.780000           0.001722           0.113294           0.001722           0.113294
       -3.760000           0.001737           0.113640           0.001737           0.113640
       -3.740000           0.001751           0.113989           0.001751           0.113989
       -3.720000           0.001766           0.114340           0.001766           0.114341
       -3.700000           0.001781           0.114696           0.001781           0.114696
       -3.680000           0.001795           0.115053           0.001795           0.115053
       -3.660000           0.001810           0.115414           0.001810           0.115414
       -3.640000           0.001824           0.115777           0.001824           0.115777
       -3.620000           0.001839           0.116143           0.001839           0.116143
       -3.600000           0.001853           0.116513           0.001853           0.116512
       -3.580000           0.001868           0.116885           0.001868           0.116884
       -3.560000           0.001882           0.117259           0.001882           0.117259
       -3.540000           0.001897           0.117637           0.001897           0.117637
       -3.520000           0.001911           0.118018           0.001911           0.118018
       -3.500000           0.001926           0.118402           0.001926           0.118402
       -3.480000           0.001941           0.118789           0.001941           0.118789
       -3.460000           0.001955           0.119178           0.001955           0.119178
       -3.440000           0.001970           0.119571           0.001970           0.119571
       -3.420000           0.001985           0.119966           0.001985           0.119966
       -3.400000           0.002000           0.120364           0.002000           0.120364
       -3.380000           0.002014           0.120766           0.002014           0.120766
       -3.360000           0.002029           0.121170           0.002029           0.121170
       -3.340000           0.002044           0.121578           0.002044           0.121578
       -3.319999           0.002059           0.121988           0.002059           0.121988
       -3.299999           0.002074           0.122401           0.002074           0.122401
       -3.279999           0.002090           0.122817           0.002090           0.122817
       -3.260000           0.002105           0.123236           0.002105           0.123236
       -3.240000           0.002120           0.123659           0.002120           0.123659
       -3.220000           0.002135           0.124084           0.002135           0.124084
       -3.200000           0.002151           0.124513           0.002151           0.124513
       -3.179999           0.002166           0.124945           0.002166           0.124945
       -3.159999           0.002182           0.125379           0.002182           0.125379
       -3.139999           0.002197           0.125817           0.002197           0.125817
       -3.120000           0.002213           0.126258           0.002213           0.126258
       -3.100000           0.002229           0.126701           0.002229           0.126702
       -3.080000           0.002244           0.127149           0.002244           0.127149
       -3.060000           0.002260           0.127599           0.002260           0.127599
       -3.040000           0.002276           0.128053           0.002276           0.128053
       -3.020000           0.002292           0.128509           0.002292           0.128509
       -3.000000           0.002308           0.128969           0.002308           0.128969
       -2.980000           0.002324           0.129432           0.002324           0.129433
       -2.960000           0.002340           0.129899           0.002340           0.129899
       -2.940000           0.002356           0.130369           0.002356           0.130368
       -2.920000           0.002372           0.130841           0.002372           0.130841
       -2.900000           0.002389           0.131317           0.002389           0.131317
       -2.880000           0.002405           0.131797           0.002405           0.131797
       -2.859999           0.002421           0.132279           0.002421           0.132279
       -2.839999           0.002437           0.132765           0.002437           0.132765
       -2.819999           0.002454           0.133254           0.002454           0.133254
       -2.799999           0.002470           0.133747           0.002470           0.133747
       -2.779999           0.002486           0.134242           0.002486           0.134242
       -2.760000           0.002503           0.134741           0.002503           0.134741
       -2.740000           0.002519           0.135243           0.002519           0.135244
       -2.720000           0.002535           0.135749           0.002535           0.135749
       -2.700000           0.002551           0.136257           0.002551           0.136257
       -2.680000           0.002567           0.136769           0.002567           0.136770
       -2.660000           0.002583           0.137285           0.002583           0.137285
       -2.640000           0.002599           0.137803           0.002599           0.137803
       -2.620000           0.002614           0.138325           0.002614           0.138325
       -2.600000           0.002630           0.138849           0.002630           0.138850
       -2.580000           0.002645           0.139377           0.002645           0.139377
       -2.560000           0.002660           0.139908           0.002660           0.139908
       -2.540000           0.002675           0.140442           0.002675           0.140442
       -2.520000           0.002689           0.140979           0.002689           0.140979
       -2.499999           0.002703           0.141519           0.002703           0.141519
       -2.479999           0.002717           0.142062           0.002717           0.142062
       -2.459999           0.002730           0.142607           0.002730           0.142607
       -2.439999           0.002743           0.143156           0.002743           0.143156
       -2.419999           0.002755           0.143706           0.002755           0.143706
       -2.400000           0.002766           0.144260           0.002766           0.144260
       -2.380000           0.002777           0.144815           0.002777           0.144815
       -2.360000           0.002787           0.145373           0.002787           0.145373
       -2.340000           0.002796           0.145933           0.002796           0.145933
       -2.320000           0.002803           0.146496           0.002803           0.146495
       -2.300000           0.002810           0.147058           0.002810           0.147058
       -2.280000           0.002815           0.147624           0.002815           0.147624
       -2.260000           0.002819           0.148190           0.002819           0.148190
       -2.240000           0.002821           0.148757           0.002821           0.148757
       -2.220000           0.002821           0.149325           0.002821           0.149325
       -2.200000           0.002819           0.149893           0.002819           0.149893
       -2.180000           0.002814           0.150461           0.002814           0.150461
       -2.160000           0.002806           0.151028           0.002806           0.151028
       -2.140000           0.002796           0.151594           0.002796           0.151595
       -2.119999           0.002781           0.152159           0.002781           0.152159
       -2.099999           0.002762           0.152722           0.002762           0.152721
       -2.079999           0.002738           0.153281           0.002738           0.153280
       -2.059999           0.002709           0.153837           0.002709           0.153836
       -2.039999           0.002673           0.154387           0.002673           0.154387
       -2.020000           0.002629           0.154931           0.002629           0.154931
       -2.000000           0.002577           0.155469           0.002577           0.155469
       -1.980000           0.002514           0.155998           0.002514           0.155998
       -1.960000           0.002439           0.156517           0.002439           0.156517
       -1.940000           0.002350           0.157024           0.002350           0.157024
       -1.920000           0.002244           0.157517           0.002244           0.157517
       -1.900000           0.002118           0.157994           0.002118           0.157994
       -1.880000           0.001967           0.158452           0.001967           0.158452
       -1.860000           0.001786           0.158888           0.001786           0.158887
       -1.840000           0.001569           0.159299           0.001569           0.159299
       -1.820000           0.001308           0.159680           0.001308           0.159680
       -1.800000           0.992158E-3        0.160030           0.992166E-3        0.160030
       -1.780000           0.607179E-3        0.160343           0.607161E-3        0.160342
       -1.759999           0.135205E-3        0.160616           0.135201E-3        0.160615
       -1.739999          -0.447475E-3        0.160846          -0.447469E-3        0.160846
       -1.719999          -0.001172           0.161036          -0.001172           0.161036
       -1.699999          -0.002081           0.161191          -0.002081           0.161191
       -1.679999          -0.003230           0.161328          -0.003230           0.161327
       -1.659999          -0.004688           0.161484          -0.004688           0.161484
       -1.640000          -0.006546           0.161732          -0.006546           0.161732
       -1.620000          -0.008898           0.162205          -0.008898           0.162206
       -1.600000          -0.011822           0.163133          -0.011822           0.163132
       -1.580000          -0.015301           0.164869          -0.015301           0.164868
       -1.560000          -0.019083           0.167873          -0.019083           0.167873
       -1.540000          -0.022528           0.172522          -0.022528           0.172522
       -1.520000          -0.024643           0.178711          -0.024643           0.178712
       -1.500000          -0.024598           0.185564          -0.024598           0.185563
       -1.480000          -0.022389           0.191781          -0.022389           0.191781
       -1.460000          -0.018846           0.196481          -0.018846           0.196481
       -1.440000          -0.014959           0.199556          -0.014959           0.199555
       -1.420000          -0.011374           0.201381          -0.011374           0.201381
       -1.399999          -0.008343           0.202414          -0.008343           0.202414
       -1.379999          -0.005883           0.203013          -0.005883           0.203013
       -1.359999          -0.003919           0.203407          -0.003919           0.203407
       -1.339999          -0.002353           0.203730          -0.002353           0.203730
       -1.319999          -0.001099           0.204053          -0.001098           0.204053
       -1.299999          -0.829570E-4        0.204416          -0.829567E-4        0.204416
       -1.280000           0.748624E-3        0.204833           0.748623E-3        0.204834
       -1.260000           0.001438           0.205314           0.001438           0.205314
       -1.240000           0.002017           0.205858           0.002017           0.205858
       -1.220000           0.002510           0.206463           0.002510           0.206463
       -1.200000           0.002934           0.207126           0.002934           0.207126
       -1.180000           0.003304           0.207843           0.003304           0.207843
       -1.160000           0.003629           0.208610           0.003629           0.208610
       -1.140000           0.003920           0.209425           0.003920           0.209425
       -1.120000           0.004181           0.210283           0.004181           0.210283
       -1.100000           0.004418           0.211182           0.004418           0.211183
       -1.080000           0.004636           0.212120           0.004636           0.212121
       -1.060000           0.004838           0.213094           0.004838           0.213094
       -1.040000           0.005027           0.214102           0.005027           0.214103
       -1.019999           0.005204           0.215145           0.005204           0.215145
       -0.999999           0.005371           0.216217           0.005371           0.216217
       -0.979999           0.005531           0.217321           0.005531           0.217321
       -0.960000           0.005685           0.218453           0.005685           0.218452
       -0.940000           0.005833           0.219613           0.005833           0.219613
       -0.920000           0.005976           0.220801           0.005976           0.220801
       -0.900000           0.006116           0.222016           0.006116           0.222016
       -0.880000           0.006252           0.223258           0.006252           0.223258
       -0.860000           0.006387           0.224526           0.006387           0.224526
       -0.840000           0.006519           0.225818           0.006519           0.225819
       -0.820000           0.006650           0.227139           0.006650           0.227138
       -0.800000           0.006780           0.228483           0.006780           0.228483
       -0.780000           0.006909           0.229852           0.006909           0.229853
       -0.760000           0.007038           0.231247           0.007038           0.231248
       -0.740000           0.007166           0.232668           0.007166           0.232668
       -0.720000           0.007295           0.234114           0.007295           0.234113
       -0.700000           0.007424           0.235585           0.007424           0.235585
       -0.680000           0.007554           0.237081           0.007554           0.237081
       -0.659999           0.007685           0.238605           0.007685           0.238604
       -0.639999           0.007817           0.240151           0.007817           0.240152
       -0.619999           0.007950           0.241727           0.007950           0.241727
       -0.599999           0.008085           0.243328           0.008085           0.243328
       -0.580000           0.008221           0.244956           0.008221           0.244955
       -0.560000           0.008358           0.246610           0.008358           0.246611
       -0.540000           0.008498           0.248293           0.008498           0.248293
       -0.520000           0.008639           0.250004           0.008639           0.250003
       -0.500000           0.008783           0.251742           0.008783           0.251741
       -0.480000           0.008929           0.253509           0.008929           0.253509
       -0.460000           0.009078           0.255305           0.009078           0.255305
       -0.440000           0.009229           0.257132           0.009229           0.257131
       -0.420000           0.009383           0.258988           0.009383           0.258988
       -0.400000           0.009539           0.260876           0.009539           0.260875
       -0.380000           0.009699           0.262794           0.009699           0.262794
       -0.360000           0.009862           0.264745           0.009862           0.264745
       -0.340000           0.010028           0.266727           0.010028           0.266728
       -0.320000           0.010197           0.268745           0.010197           0.268745
       -0.299999           0.010370           0.270795           0.010370           0.270795
       -0.279999           0.010547           0.272880           0.010547           0.272880
       -0.259999           0.010727           0.275001           0.010727           0.275001
       -0.239999           0.010912           0.277158           0.010912           0.277158
       -0.220000           0.011101           0.279352           0.011101           0.279352
       -0.200000           0.011294           0.281584           0.011294           0.281585
       -0.180000           0.011492           0.283855           0.011492           0.283856
       -0.160000           0.011694           0.286166           0.011694           0.286165
       -0.140000           0.011901           0.288516           0.011901           0.288516
       -0.120000           0.012114           0.290910           0.012114           0.290909
       -0.100000           0.012331           0.293345           0.012331           0.293345
       -0.080000           0.012554           0.295824           0.012554           0.295824
       -0.060000           0.012783           0.298348           0.012783           0.298348
       -0.040000           0.013018           0.300917           0.013018           0.300918
       -0.020000           0.013258           0.303535           0.013258           0.303535
        0.000000           0.013506           0.306200           0.013506           0.306200
        0.020000           0.013759           0.308915           0.013759           0.308915
        0.040000           0.014020           0.311682           0.014020           0.311682
        0.060001           0.014288           0.314500           0.014288           0.314500
        0.080001           0.014563           0.317372           0.014563           0.317373
        0.100001           0.014846           0.320300           0.014846           0.320300
        0.120001           0.015138           0.323285           0.015138           0.323285
        0.140000           0.015437           0.326328           0.015437           0.326328
        0.160000           0.015745           0.329430           0.015745           0.329431
        0.180000           0.016063           0.332597           0.016063           0.332596
        0.200000           0.016390           0.335824           0.016390           0.335825
        0.220000           0.016726           0.339119           0.016726           0.339119
        0.240000           0.017073           0.342482           0.017073           0.342482
        0.260000           0.017431           0.345914           0.017431           0.345913
        0.280000           0.017800           0.349417           0.017800           0.349417
        0.300000           0.018181           0.352996           0.018181           0.352996
        0.320000           0.018574           0.356650           0.018574           0.356650
        0.340000           0.018979           0.360382           0.018979           0.360382
        0.360000           0.019398           0.364198           0.019398           0.364197
        0.380000           0.019831           0.368096           0.019831           0.368096
        0.400000           0.020279           0.372082           0.020279           0.372082
        0.420000           0.020742           0.376158           0.020742           0.376158
        0.440001           0.021220           0.380327           0.021221           0.380327
        0.460001           0.021716           0.384591           0.021716           0.384592
        0.480001           0.022229           0.388955           0.022229           0.388955
        0.500001           0.022761           0.393423           0.022761           0.393422
        0.520000           0.023312           0.397996           0.023312           0.397996
        0.540000           0.023883           0.402680           0.023883           0.402680
        0.560000           0.024475           0.407477           0.024475           0.407479
        0.580000           0.025090           0.412397           0.025090           0.412396
        0.600000           0.025729           0.417438           0.025729           0.417437
        0.620000           0.026392           0.422608           0.026392           0.422606
        0.640000           0.027082           0.427909           0.027082           0.427908
        0.660000           0.027799           0.433350           0.027799           0.433348
        0.680000           0.028545           0.438931           0.028545           0.438932
        0.700000           0.029323           0.444665           0.029323           0.444665
        0.720000           0.030132           0.450555           0.030132           0.450554
        0.740000           0.030976           0.456605           0.030976           0.456605
        0.760000           0.031857           0.462824           0.031857           0.462825
        0.780000           0.032776           0.469220           0.032776           0.469220
        0.800001           0.033736           0.475801           0.033736           0.475800
        0.820001           0.034739           0.482571           0.034739           0.482572
        0.840001           0.035789           0.489543           0.035789           0.489543
        0.860000           0.036887           0.496725           0.036887           0.496725
        0.880000           0.038038           0.504127           0.038038           0.504127
        0.900000           0.039245           0.511756           0.039245           0.511757
        0.920000           0.040510           0.519627           0.040510           0.519627
        0.940000           0.041840           0.527754           0.041840           0.527752
        0.960000           0.043237           0.536140           0.043237           0.536140
        0.980000           0.044707           0.544806           0.044707           0.544807
        1.000000           0.046255           0.553767           0.046255           0.553765
        1.020000           0.047886           0.563032           0.047886           0.563032
        1.040000           0.049608           0.572623           0.049608           0.572623
        1.060000           0.051426           0.582554           0.051426           0.582555
        1.080000           0.053349           0.592848           0.053349           0.592847
        1.100000           0.055384           0.603519           0.055384           0.603520
        1.120000           0.057542           0.614597           0.057542           0.614596
        1.140000           0.059832           0.626099           0.059832           0.626098
        1.160001           0.062265           0.638052           0.062265           0.638052
        1.180001           0.064855           0.650485           0.064855           0.650485
        1.200001           0.067615           0.663427           0.067615           0.663427
        1.220001           0.070561           0.676912           0.070560           0.676912
        1.240000           0.073710           0.690973           0.073710           0.690974
        1.260000           0.077083           0.705650           0.077083           0.705649
        1.280000           0.080702           0.720985           0.080702           0.720985
        1.300000           0.084591           0.737023           0.084591           0.737023
        1.320000           0.088781           0.753816           0.088781           0.753816
        1.340000           0.093303           0.771419           0.093304           0.771418
        1.360000           0.098196           0.789893           0.098196           0.789892
        1.380000           0.103502           0.809302           0.103502           0.809305
        1.400000           0.109272           0.829728           0.109272           0.829728
        1.420000           0.115562           0.851246           0.115562           0.851247
        1.440000           0.122441           0.873950           0.122441           0.873954
        1.460000           0.129988           0.897944           0.129988           0.897948
        1.480000           0.138296           0.923339           0.138296           0.923340
        1.500000           0.147476           0.950266           0.147476           0.950266
        1.520001           0.157661           0.978856           0.157661           0.978860
        1.540001           0.169010           1.009283           0.169010           1.009283
        1.560001           0.181718           1.041709           0.181718           1.041710
        1.580001           0.196021           1.076335           0.196020           1.076338
        1.600001           0.212211           1.113382           0.212211           1.113383
        1.620000           0.230651           1.153089           0.230652           1.153090
        1.640000           0.251804           1.195711           0.251804           1.195712
        1.660000           0.276247           1.241521           0.276247           1.241522
        1.680000           0.304724           1.290789           0.304724           1.290789
        1.700000           0.338197           1.343748           0.338197           1.343749
        1.720000           0.377907           1.400546           0.377907           1.400545
        1.740000           0.425467           1.461131           0.425466           1.461129
        1.760000           0.482934           1.525063           0.482935           1.525060
        1.780000           0.552865           1.591175           0.552865           1.591179
        1.800000           0.638172           1.657053           0.638172           1.657052
        1.820000           0.741565           1.718228           0.741566           1.718232
        1.840000           0.864041           1.767547           0.864040           1.767549
        1.860000           1.001995           1.795614           1.001994           1.795613
        1.880000           1.143950           1.794716           1.143949           1.794717
        1.900001           1.271701           1.767215           1.271701           1.767218
        1.920001           1.371449           1.731685           1.371450           1.731685
        1.940001           1.448505           1.714687           1.448506           1.714690
        1.960001           1.527550           1.732174           1.527551           1.732173
        1.980000           1.638386           1.780287           1.638382           1.780280
        2.000000           1.804295           1.839572           1.804295           1.839567
        2.020000           2.038705           1.880581           2.038705           1.880584
        2.040000           2.342571           1.865411           2.342569           1.865412
        2.060000           2.696789           1.750381           2.696792           1.750383
        2.080000           3.053170           1.498901           3.053168           1.498903
        2.100000           3.338382           1.105559           3.338376           1.105559
        2.120000           3.481361           0.612539           3.481367           0.612540
        2.140000           3.446014           0.097786           3.446020           0.097787
        2.160000           3.244102          -0.354361           3.244106          -0.354362
        2.180000           2.928808          -0.680950           2.928814          -0.680949
        2.200000           2.573264          -0.859984           2.573263          -0.859982
        2.220000           2.240389          -0.909639           2.240387          -0.909637
        2.240000           1.965863          -0.867430           1.965861          -0.867428
        2.260001           1.761426          -0.770021           1.761428          -0.770020
        2.280001           1.625989          -0.645248           1.625992          -0.645250
        2.300000           1.553872          -0.512850           1.553872          -0.512852
        2.320000           1.538267          -0.387761           1.538268          -0.387760
        2.340000           1.571095          -0.282427           1.571093          -0.282426
        2.360000           1.642091          -0.206378           1.642094          -0.206378
        2.380000           1.740556          -0.164372           1.740557          -0.164370
        2.400000           1.859745          -0.158431           1.859740          -0.158430
        2.420000           1.995838          -0.195221           1.995839          -0.195221
        2.440000           2.137557          -0.287699           2.137554          -0.287700
        2.460000           2.259237          -0.443014           2.259235          -0.443015
        2.480000           2.330413          -0.648549           2.330414          -0.648551
        2.500000           2.334798          -0.873178           2.334796          -0.873180
        2.520000           2.280660          -1.084941           2.280659          -1.084942
        2.540000           2.191233          -1.271082           2.191229          -1.271082
        2.560000           2.081224          -1.439500           2.081226          -1.439504
        2.580000           1.945583          -1.598225           1.945584          -1.598229
        2.600000           1.773355          -1.737682           1.773355          -1.737677
        2.620001           1.568360          -1.836437           1.568361          -1.836435
        2.640001           1.351797          -1.881019           1.351796          -1.881016
        2.660001           1.147381          -1.875294           1.147380          -1.875295
        2.680001           0.969262          -1.833721           0.969263          -1.833714
        2.700001           0.821110          -1.771452           0.821110          -1.771451
        2.720001           0.700544          -1.699756           0.700543          -1.699753
        2.740000           0.603054          -1.625656           0.603053          -1.625654
        2.760000           0.524036          -1.553024           0.524035          -1.553025
        2.780000           0.459545          -1.483822           0.459545          -1.483823
        2.800000           0.406434          -1.418861           0.406434          -1.418861
        2.820000           0.362270          -1.358365           0.362270          -1.358364
        2.840000           0.325187          -1.302227           0.325187          -1.302227
        2.860000           0.293761          -1.250200           0.293762          -1.250200
        2.880000           0.266897          -1.201970           0.266897          -1.201973
        2.900000           0.243746          -1.157218           0.243747          -1.157217
        2.920000           0.223649          -1.115617           0.223649          -1.115620
        2.940000           0.206081          -1.076879           0.206081          -1.076881
        2.960000           0.190631          -1.040732           0.190630          -1.040730
        2.980000           0.176965          -1.006926           0.176964          -1.006929
        3.000001           0.164813          -0.975254           0.164813          -0.975253
        3.020000           0.153957          -0.945513           0.153957          -0.945514
        3.040000           0.144218          -0.917530           0.144218          -0.917535
        3.060000           0.135445          -0.891154           0.135446          -0.891158
        3.080000           0.127515          -0.866240           0.127516          -0.866243
        3.100000           0.120323          -0.842671           0.120323          -0.842672
        3.120000           0.113782          -0.820331           0.113783          -0.820330
        3.140000           0.107818          -0.799117           0.107818          -0.799114
        3.160000           0.102367          -0.778941           0.102367          -0.778942
        3.180000           0.097376          -0.759723           0.097376          -0.759723
        3.200000           0.092799          -0.741388           0.092799          -0.741387
        3.220000           0.088598          -0.723867           0.088598          -0.723868
        3.240000           0.084739          -0.707101           0.084739          -0.707101
        3.260000           0.081194          -0.691030           0.081194          -0.691029
        3.280000           0.077941          -0.675604           0.077941          -0.675603
        3.300000           0.074961          -0.660770           0.074961          -0.660772
        3.320000           0.072238          -0.646488           0.072238          -0.646490
        3.340000           0.069763          -0.632716           0.069763          -0.632715
        3.360001           0.067530          -0.619406           0.067530          -0.619406
        3.380001           0.065537          -0.606529           0.065536          -0.606529
        3.400001           0.063788          -0.594048           0.063787          -0.594047
        3.420001           0.062294          -0.581925           0.062294          -0.581924
        3.440001           0.061075          -0.570131           0.061074          -0.570132
        3.460000           0.060160          -0.558641           0.060160          -0.558643
        3.480000           0.059592          -0.547438           0.059592          -0.547438
        3.500000           0.059434          -0.536506           0.059434          -0.536507
        3.520000           0.059768          -0.525861           0.059768          -0.525863
        3.540000           0.060704          -0.515551           0.060704          -0.515550
        3.560000           0.062374          -0.505677           0.062374          -0.505677
        3.580000           0.064920          -0.496450           0.064920          -0.496449
        3.600000           0.068432          -0.488223           0.068432          -0.488225
        3.620001           0.072831          -0.481528           0.072831          -0.481528
        3.640001           0.077676          -0.476974           0.077676          -0.476973
        3.660001           0.082042          -0.474946           0.082042          -0.474947
        3.680001           0.084744          -0.475192           0.084745          -0.475192
        3.700001           0.084915          -0.476748           0.084915          -0.476748
        3.720001           0.082349          -0.478379           0.082349          -0.478380
        3.740000           0.077433          -0.478969           0.077433          -0.478969
        3.760000           0.071017          -0.477740           0.071017          -0.477740
        3.780000           0.064163          -0.474502           0.064163          -0.474502
        3.800000           0.057717          -0.469609           0.057717          -0.469608
        3.820000           0.052100          -0.463638           0.052100          -0.463637
        3.840000           0.047392          -0.457098           0.047392          -0.457099
        3.860000           0.043502          -0.450351           0.043502          -0.450351
        3.880000           0.040288          -0.443604           0.040288          -0.443603
        3.900000           0.037612          -0.436977           0.037612          -0.436976
        3.920000           0.035358          -0.430526           0.035358          -0.430527
        3.940000           0.033436          -0.424276           0.033436          -0.424276
        3.960000           0.031775          -0.418235           0.031774          -0.418233
        3.980000           0.030322          -0.412394           0.030322          -0.412395
        4.000000           0.029037          -0.406753           0.029036          -0.406753
        4.020000           0.027888          -0.401294           0.027888          -0.401295
        4.040000           0.026853          -0.396012           0.026853          -0.396012
        4.060000           0.025912          -0.390895           0.025912          -0.390895
        4.080000           0.025050          -0.385933           0.025050          -0.385933
        4.100000           0.024257          -0.381115           0.024257          -0.381116
        4.120000           0.023522          -0.376435           0.023522          -0.376435
        4.140000           0.022839          -0.371884           0.022839          -0.371883
        4.160000           0.022200          -0.367454           0.022200          -0.367454
        4.180000           0.021601          -0.363139           0.021601          -0.363138
        4.199999           0.021038          -0.358934           0.021038          -0.358934
        4.219999           0.020507          -0.354833           0.020507          -0.354832
        4.239999           0.020004          -0.350830           0.020004          -0.350829
        4.259999           0.019528          -0.346919           0.019528          -0.346919
        4.280001           0.019077          -0.343099           0.019077          -0.343098
        4.300001           0.018647          -0.339363           0.018647          -0.339363
        4.320001           0.018238          -0.335708           0.018238          -0.335708
        4.340001           0.017849          -0.332131           0.017849          -0.332131
        4.360001           0.017478          -0.328629           0.017477          -0.328630
        4.380001           0.017123          -0.325197           0.017123          -0.325197
        4.400001           0.016785          -0.321834           0.016785          -0.321834
        4.420001           0.016463          -0.318534           0.016463          -0.318535
        4.440001           0.016155          -0.315298           0.016155          -0.315298
        4.460001           0.015861          -0.312121           0.015861          -0.312121
        4.480000           0.015582          -0.308999           0.015582          -0.309000
        4.500000           0.015316          -0.305934           0.015316          -0.305934
        4.520000           0.015063          -0.302920           0.015063          -0.302919
        4.540000           0.014824          -0.299954           0.014824          -0.299953
        4.560000           0.014599          -0.297035           0.014599          -0.297035
        4.580000           0.014388          -0.294162           0.014388          -0.294162
        4.600000           0.014192          -0.291332           0.014192          -0.291332
        4.620000           0.014011          -0.288540           0.014011          -0.288540
        4.640000           0.013847          -0.285788           0.013847          -0.285788
        4.660000           0.013702          -0.283072           0.013702          -0.283073
        4.680000           0.013577          -0.280392           0.013577          -0.280392
        4.700000           0.013477          -0.277746           0.013477          -0.277746
        4.720000           0.013405          -0.275136           0.013405          -0.275136
        4.740000           0.013364          -0.272566           0.013364          -0.272566
        4.760000           0.013356          -0.270043           0.013355          -0.270042
        4.780000           0.013377          -0.267576           0.013377          -0.267576
        4.800000           0.013415          -0.265180           0.013415          -0.265179
        4.820000           0.013444          -0.262851           0.013444          -0.262851
        4.840000           0.013434          -0.260572           0.013434          -0.260572
        4.860000           0.013378          -0.258297           0.013378          -0.258298
        4.880000           0.013298          -0.255991           0.013298          -0.255991
        4.900000           0.013231          -0.253635           0.013231          -0.253635
        4.920000           0.013209          -0.251234           0.013209          -0.251235
        4.940000           0.013250          -0.248798           0.013250          -0.248798
        4.960000           0.013368          -0.246334           0.013368          -0.246334
        4.980000           0.013575          -0.243847           0.013575          -0.243847
        5.000001           0.013886          -0.241337           0.013886          -0.241337
        5.020001           0.014320          -0.238803           0.014320          -0.238803
        5.040001           0.014906          -0.236249           0.014906          -0.236249
        5.060001           0.015683          -0.233676           0.015683          -0.233676
        5.080001           0.016702          -0.231104           0.016702          -0.231104
        5.100001           0.018033          -0.228564           0.018033          -0.228565
        5.120001           0.019759          -0.226127           0.019759          -0.226127
        5.140001           0.021975          -0.223917           0.021974          -0.223918
        5.160001           0.024755          -0.222154           0.024755          -0.222155
        5.180001           0.028086          -0.221175           0.028086          -0.221175
        5.200001           0.031733          -0.221416           0.031733          -0.221417
        5.220001           0.035093          -0.223237           0.035093          -0.223237
        5.240000           0.037236          -0.226540           0.037236          -0.226540
        5.260000           0.037392          -0.230508           0.037392          -0.230508
        5.280000           0.035571          -0.233949           0.035571          -0.233948
        5.300000           0.032542          -0.236080           0.032542          -0.236080
        5.320000           0.029182          -0.236852           0.029182          -0.236851
        5.340000           0.025997          -0.236620           0.025997          -0.236620
        5.360000           0.023130          -0.235743           0.023130          -0.235743
        5.380000           0.020578          -0.234423           0.020578          -0.234424
        5.400000           0.018342          -0.232773           0.018342          -0.232774
        5.420000           0.016435          -0.230895           0.016435          -0.230896
        5.440000           0.014846          -0.228890           0.014846          -0.228889
        5.460000           0.013541          -0.226836           0.013541          -0.226836
        5.480000           0.012471          -0.224793           0.012471          -0.224793
        5.500000           0.011590          -0.222788           0.011590          -0.222788
        5.520000           0.010859          -0.220838           0.010859          -0.220839
        5.540000           0.010245          -0.218949           0.010245          -0.218949
        5.560000           0.009725          -0.217122           0.009725          -0.217121
        5.580000           0.009278          -0.215352           0.009278          -0.215351
        5.600000           0.008891          -0.213638           0.008891          -0.213637
        5.619999           0.008552          -0.211975           0.008552          -0.211975
        5.639999           0.008252          -0.210362           0.008252          -0.210362
        5.659999           0.007984          -0.208793           0.007985          -0.208793
        5.679999           0.007744          -0.207265           0.007744          -0.207265
        5.699999           0.007527          -0.205776           0.007527          -0.205776
        5.719999           0.007328          -0.204322           0.007328          -0.204322
        5.740001           0.007147          -0.202902           0.007147          -0.202902
        5.760001           0.006979          -0.201513           0.006979          -0.201512
        5.780001           0.006824          -0.200152           0.006824          -0.200152
        5.800001           0.006679          -0.198819           0.006679          -0.198820
        5.820001           0.006544          -0.197513           0.006544          -0.197513
        5.840001           0.006417          -0.196230           0.006417          -0.196231
        5.860001           0.006297          -0.194971           0.006297          -0.194971
        5.880001           0.006184          -0.193734           0.006184          -0.193734
        5.900001           0.006077          -0.192517           0.006077          -0.192517
        5.920001           0.005975          -0.191321           0.005975          -0.191320
        5.940001           0.005878          -0.190144           0.005878          -0.190144
        5.960001           0.005785          -0.188984           0.005785          -0.188984
        5.980000           0.005696          -0.187843           0.005696          -0.187843
        6.000000           0.005611          -0.186718           0.005611          -0.186718
        6.020000           0.005529          -0.185610           0.005529          -0.185610
        6.040000           0.005451          -0.184517           0.005451          -0.184517
        6.060000           0.005375          -0.183439           0.005375          -0.183439
        6.080000           0.005302          -0.182375           0.005302          -0.182375
        6.100000           0.005232          -0.181327           0.005232          -0.181327
        6.120000           0.005164          -0.180291           0.005164          -0.180291
        6.140000           0.005098          -0.179268           0.005098          -0.179268
        6.160000           0.005034          -0.178259           0.005034          -0.178259
        6.180000           0.004972          -0.177261           0.004972          -0.177261
        6.200000           0.004912          -0.176276           0.004912          -0.176276
        6.220000           0.004854          -0.175302           0.004854          -0.175302
        6.240000           0.004797          -0.174340           0.004797          -0.174340
        6.260000           0.004742          -0.173389           0.004742          -0.173389
        6.280000           0.004689          -0.172448           0.004689          -0.172448
        6.300000           0.004637          -0.171518           0.004637          -0.171518
        6.320000           0.004586          -0.170598           0.004586          -0.170598
        6.340000           0.004537          -0.169688           0.004537          -0.169688
        6.360000           0.004490          -0.168787           0.004490          -0.168787
        6.380000           0.004443          -0.167897           0.004443          -0.167896
        6.400000           0.004398          -0.167015           0.004398          -0.167014
        6.420000           0.004354          -0.166142           0.004354          -0.166141
        6.440000           0.004311          -0.165277           0.004311          -0.165277
        6.460001           0.004269          -0.164421           0.004269          -0.164421
        6.480001           0.004229          -0.163573           0.004229          -0.163572
        6.500001           0.004190          -0.162733           0.004190          -0.162733
        6.520001           0.004152          -0.161901           0.004152          -0.161901
        6.540001           0.004115          -0.161076           0.004115          -0.161076
        6.560001           0.004079          -0.160259           0.004079          -0.160258
        6.580001           0.004044          -0.159448           0.004044          -0.159449
        6.600001           0.004010          -0.158645           0.004010          -0.158645
        6.620001           0.003978          -0.157847           0.003978          -0.157848
        6.640001           0.003947          -0.157058           0.003947          -0.157058
        6.660000           0.003917          -0.156273           0.003917          -0.156273
        6.680000           0.003888          -0.155495           0.003888          -0.155495
        6.700000           0.003860          -0.154723           0.003860          -0.154722
        6.720000           0.003834          -0.153955           0.003834          -0.153955
        6.740000           0.003809          -0.153193           0.003809          -0.153193
        6.760000           0.003785          -0.152436           0.003785          -0.152436
        6.780000           0.003763          -0.151684           0.003763          -0.151684
        6.800000           0.003743          -0.150936           0.003743          -0.150936
        6.820000           0.003724          -0.150192           0.003724          -0.150193
        6.840000           0.003707          -0.149452           0.003707          -0.149452
        6.860000           0.003693          -0.148717           0.003693          -0.148716
        6.880000           0.003680          -0.147983           0.003680          -0.147983
        6.900000           0.003669          -0.147252           0.003669          -0.147252
        6.920000           0.003661          -0.146524           0.003661          -0.146524
        6.940000           0.003656          -0.145797           0.003656          -0.145797
        6.960000           0.003655          -0.145072           0.003655          -0.145072
        6.980000           0.003656          -0.144348           0.003656          -0.144348
        7.000000           0.003662          -0.143623           0.003662          -0.143623
        7.020000           0.003673          -0.142899           0.003673          -0.142898
        7.039999           0.003688          -0.142173           0.003688          -0.142172
        7.059999           0.003710          -0.141445           0.003710          -0.141444
        7.079999           0.003739          -0.140713           0.003739          -0.140714
        7.099999           0.003777          -0.139979           0.003777          -0.139978
        7.119999           0.003824          -0.139238           0.003824          -0.139238
        7.139999           0.003883          -0.138491           0.003883          -0.138491
        7.159999           0.003956          -0.137737           0.003956          -0.137737
        7.179999           0.004047          -0.136972           0.004047          -0.136973
        7.200001           0.004159          -0.136198           0.004159          -0.136197
        7.220001           0.004297          -0.135409           0.004297          -0.135409
        7.240001           0.004469          -0.134607           0.004469          -0.134607
        7.260001           0.004682          -0.133788           0.004682          -0.133788
        7.280001           0.004948          -0.132954           0.004948          -0.132953
        7.300001           0.005282          -0.132104           0.005282          -0.132104
        7.320001           0.005706          -0.131245           0.005706          -0.131244
        7.340001           0.006244          -0.130385           0.006244          -0.130385
        7.360001           0.006931          -0.129548           0.006931          -0.129548
        7.380001           0.007805          -0.128777           0.007805          -0.128777
        7.400001           0.008905          -0.128146           0.008905          -0.128145
        7.420001           0.010246          -0.127776           0.010246          -0.127777
        7.440001           0.011776          -0.127845           0.011776          -0.127845
        7.460001           0.013309          -0.128537           0.013309          -0.128537
        7.480000           0.014485          -0.129924           0.014485          -0.129923
        7.500000           0.014894          -0.131785           0.014894          -0.131785
        7.520000           0.014357          -0.133623           0.014357          -0.133623
        7.540000           0.013086          -0.134957           0.013086          -0.134957
        7.560000           0.011501          -0.135603           0.011501          -0.135603
        7.580000           0.009943          -0.135649           0.009943          -0.135649
        7.600000           0.008585          -0.135284           0.008585          -0.135284
        7.620000           0.007468          -0.134678           0.007468          -0.134679
        7.640000           0.006574          -0.133950           0.006574          -0.133951
        7.660000           0.005864          -0.133171           0.005864          -0.133171
        7.680000           0.005298          -0.132380           0.005298          -0.132379
        7.700000           0.004845          -0.131597           0.004845          -0.131597
        7.720000           0.004478          -0.130833           0.004478          -0.130833
        7.740000           0.004177          -0.130093           0.004177          -0.130092
        7.760000           0.003929          -0.129376           0.003929          -0.129376
        7.780000           0.003722          -0.128684           0.003722          -0.128684
        7.800000           0.003547          -0.128013           0.003547          -0.128013
        7.820000           0.003398          -0.127363           0.003398          -0.127363
        7.840000           0.003271          -0.126733           0.003271          -0.126733
        7.860000           0.003161          -0.126119           0.003161          -0.126119
        7.880000           0.003065          -0.125522           0.003065          -0.125521
        7.900000           0.002982          -0.124938           0.002982          -0.124938
        7.920000           0.002910          -0.124367           0.002910          -0.124367
        7.940001           0.002847          -0.123809           0.002847          -0.123809
        7.960001           0.002793          -0.123260           0.002793          -0.123261
        7.980001           0.002747          -0.122723           0.002747          -0.122723
        8.000001           0.002710          -0.122195           0.002710          -0.122195
        8.020000           0.002681          -0.121677           0.002681          -0.121677
        8.040001           0.002661          -0.121168           0.002661          -0.121168
        8.060000           0.002651          -0.120672           0.002651          -0.120671
        8.080001           0.002652          -0.120189           0.002652          -0.120189
        8.100000           0.002662          -0.119726           0.002662          -0.119726
        8.120001           0.002675          -0.119287           0.002675          -0.119287
        8.140000           0.002683          -0.118876           0.002683          -0.118876
        8.160001           0.002671          -0.118487           0.002671          -0.118488
        8.180000           0.002633          -0.118109           0.002633          -0.118109
        8.200001           0.002570          -0.117722           0.002570          -0.117723
        8.220000           0.002497          -0.117320           0.002497          -0.117321
        8.240001           0.002423          -0.116904           0.002423          -0.116904
        8.260000           0.002355          -0.116478           0.002355          -0.116478
        8.280000           0.002296          -0.116048           0.002296          -0.116049
        8.300000           0.002245          -0.115618           0.002245          -0.115618
        8.320000           0.002201          -0.115191           0.002201          -0.115190
        8.340000           0.002162          -0.114766           0.002162          -0.114766
        8.360000           0.002127          -0.114346           0.002127          -0.114346
        8.380000           0.002096          -0.113930           0.002096          -0.113930
        8.400000           0.002068          -0.113519           0.002068          -0.113519
        8.420000           0.002042          -0.113112           0.002042          -0.113112
        8.440000           0.002017          -0.112710           0.002017          -0.112710
        8.460000           0.001995          -0.112311           0.001995          -0.112311
        8.480000           0.001973          -0.111917           0.001973          -0.111917
        8.500000           0.001953          -0.111526           0.001953          -0.111526
        8.520000           0.001933          -0.111139           0.001933          -0.111139
        8.540000           0.001915          -0.110755           0.001915          -0.110755
        8.559999           0.001897          -0.110375           0.001897          -0.110375
        8.580000           0.001880          -0.109998           0.001880          -0.109999
        8.599999           0.001863          -0.109625           0.001863          -0.109625
        8.620000           0.001847          -0.109255           0.001847          -0.109255
        8.639999           0.001831          -0.108888           0.001831          -0.108888
        8.660001           0.001816          -0.108524           0.001816          -0.108524
        8.680001           0.001801          -0.108163           0.001801          -0.108163
        8.700001           0.001786          -0.107805           0.001786          -0.107805
        8.720001           0.001772          -0.107450           0.001772          -0.107450
        8.740001           0.001758          -0.107097           0.001758          -0.107097
        8.760001           0.001745          -0.106747           0.001745          -0.106748
        8.780001           0.001732          -0.106400           0.001732          -0.106400
        8.800000           0.001719          -0.106056           0.001719          -0.106056
        8.820001           0.001706          -0.105713           0.001706          -0.105714
        8.840000           0.001693          -0.105374           0.001693          -0.105374
        8.860001           0.001681          -0.105037           0.001681          -0.105037
        8.880000           0.001669          -0.104702           0.001669          -0.104703
        8.900001           0.001657          -0.104370           0.001657          -0.104370
        8.920000           0.001646          -0.104040           0.001646          -0.104040
        8.940001           0.001634          -0.103713           0.001634          -0.103712
        8.960000           0.001623          -0.103387           0.001623          -0.103387
        8.980000           0.001612          -0.103064           0.001612          -0.103064
        9.000000           0.001601          -0.102743           0.001601          -0.102743
        9.020000           0.001590          -0.102424           0.001590          -0.102424
        9.040000           0.001579          -0.102108           0.001579          -0.102108
        9.060000           0.001569          -0.101793           0.001569          -0.101793
        9.080000           0.001559          -0.101480           0.001559          -0.101481
        9.100000           0.001548          -0.101170           0.001548          -0.101170
        9.120000           0.001538          -0.100862           0.001538          -0.100862
        9.140000           0.001528          -0.100555           0.001528          -0.100555
        9.160000           0.001519          -0.100251           0.001519          -0.100251
        9.179999           0.001509          -0.099948           0.001509          -0.099948
        9.200000           0.001499          -0.099648           0.001499          -0.099648
        9.219999           0.001490          -0.099349           0.001490          -0.099349
        9.240000           0.001481          -0.099052           0.001481          -0.099052
        9.259999           0.001472          -0.098757           0.001472          -0.098757
        9.280000           0.001463          -0.098464           0.001463          -0.098464
        9.299999           0.001454          -0.098172           0.001454          -0.098172
        9.320000           0.001445          -0.097882           0.001445          -0.097882
        9.339999           0.001436          -0.097595           0.001436          -0.097595
        9.360000           0.001428          -0.097308           0.001428          -0.097308
        9.379999           0.001419          -0.097024           0.001419          -0.097024
        9.400001           0.001411          -0.096741           0.001411          -0.096741
        9.420001           0.001402          -0.096460           0.001402          -0.096460
        9.440001           0.001394          -0.096181           0.001394          -0.096181
        9.460001           0.001386          -0.095902           0.001386          -0.095903
        9.480000           0.001378          -0.095626           0.001378          -0.095626
        9.500001           0.001370          -0.095352           0.001370          -0.095352
        9.520000           0.001362          -0.095079           0.001362          -0.095079
        9.540001           0.001354          -0.094807           0.001354          -0.094807
        9.560000           0.001347          -0.094537           0.001347          -0.094537
        9.580001           0.001339          -0.094269           0.001339          -0.094269
        9.600000           0.001332          -0.094002           0.001332          -0.094002
        9.620001           0.001324          -0.093736           0.001324          -0.093736
        9.640000           0.001317          -0.093472           0.001317          -0.093472
        9.660001           0.001310          -0.093210           0.001310          -0.093210
        9.680000           0.001303          -0.092949           0.001303          -0.092949
        9.700000           0.001296          -0.092689           0.001296          -0.092689
        9.720000           0.001289          -0.092431           0.001289          -0.092431
        9.740000           0.001282          -0.092174           0.001282          -0.092174
        9.760000           0.001275          -0.091919           0.001275          -0.091919
        9.780000           0.001268          -0.091664           0.001268          -0.091664
        9.800000           0.001261          -0.091411           0.001261          -0.091412
        9.820000           0.001255          -0.091160           0.001255          -0.091160
        9.840000           0.001248          -0.090910           0.001248          -0.090910
        9.860000           0.001242          -0.090661           0.001242          -0.090661
        9.880000           0.001236          -0.090413           0.001236          -0.090413
        9.900000           0.001229          -0.090167           0.001229          -0.090167
        9.920000           0.001223          -0.089922           0.001223          -0.089922
        9.940000           0.001217          -0.089678           0.001217          -0.089678
        9.960000           0.001211          -0.089435           0.001211          -0.089435
        9.980000           0.001205          -0.089194           0.001205          -0.089194
        10.00000           0.001199          -0.088953           0.001199          -0.088953
# 
# 02/16/2024 at 23:57 yambo @ unimi-XPS-8930 [start]
# 02/16/2024 at 23:57                        [end]
#
# .-Input file  yambo.in
# | optics                           # [R] Linear Response optical properties
# | bss                              # [R] BSE solver
# | bse                              # [R][BSE] Bethe Salpeter Equation.
# | BoseTemp= 0.000000         eV    # Bosonic Temperature
# | FFTGvecs= 1721             RL    # [FFT] Plane-waves
# | BS_nCPU_LinAlg_INV= 1            # [PARALLEL] CPUs for Linear Algebra (if -1 it is automatically set)
# | BS_nCPU_LinAlg_DIAGO= 1          # [PARALLEL] CPUs for Linear Algebra (if -1 it is automatically set)
# | X_Threads= 1                     # [OPENMP/X] Number of threads for response functions
# | DIP_Threads= 1                   # [OPENMP/X] Number of threads for dipoles
# | K_Threads= 1                     # [OPENMP/BSK] Number of threads for response functions
# | BSKmod= "HARTREE"                # [BSE] IP/Hartree/HF/ALDA/SEX/BSfxc
# | BSEmod= "retarded"               # [BSE] resonant/retarded/coupling
# | BSSmod= "d"                      # [BSS] (h)aydock/(d)iagonalization/(s)lepc/(i)nversion/(t)ddft`
# | DipComputed= "R V P Spin"        # [DIP] [default R P V; extra P2 Spin Orb]
# | BSENGexx= 1                RL    # [BSK] Exchange components
# | % BSEQptR
# |  1 | 1 |                             # [BSK] Transferred momenta range
# | %
# | % BSEBands
# |   6 | 10 |                           # [BSK] Bands range
# | %
# | % BEnRange
# | -10.00000 | 10.00000 |         eV    # [BSS] Energy range
# | %
# | % BDmRange
# |  0.100000 | 0.100000 |         eV    # [BSS] Damping range
# | %
# | BEnSteps= 1001                   # [BSS] Energy steps
# | % BLongDir
# |  0.000000 | 1.000000 | 0.000000 |        # [BSS] [cc] Electric Field versor
# | %
# | BSEprop= " jdos magn"            # [BSS] Can be any among abs/jdos/kerr/asymm/anHAll/magn/dich/photolum/esrt
# | BSEdips= "none"                  # [BSS] Can be "trace/none" or "xy/xz/yz" to define off-diagonal rotation plane
# | #WRbsWF                        # [BSS] Write to disk excitonic the WFs
