#                                                           
# :::   :::   :::     ::::    ::::  :::::::::   ::::::::    
# :+:   :+: :+: :+:   +:+:+: :+:+:+ :+:    :+: :+:    :+:   
#  +:+ +:+ +:+   +:+  +:+ +:+:+ +:+ +:+    +:+ +:+    +:+   
#   +#++: +#++:++#++: +#+  +:+  +#+ +#++:++#+  +#+    +:+   
#    +#+  +#+     +#+ +#+       +#+ +#+    +#+ +#+    +#+   
#    #+#  #+#     #+# #+#       #+# #+#    #+# #+#    #+#   
#    ###  ###     ### ###       ### #########   ########    
#                                                           
#                                                           
#        Version 4.3.0 Revision 15642 Hash 4a43e30          
#                      MPI+SLK Build                        
#                http://www.yambo-code.org                  
#
# Absorption @ Q(1) [q->0 direction] : 1.000000  0.000000  0.000000
#
#
#
# - The Green`s function is Retarded -
# - Using the Velocity Gauge -
# - [r,Vnl] *is* included -
#
#
#    Diamagnetic term
#    A [nel]
#    -8.683380
#
#    E/ev[1]      EPS-Im[2]    EPS-Re[3]
#
   0.2000        2816.        480.5   
   0.2195        2453.        229.8   
   0.2391        2145.        58.88   
   0.2586        1887.       -58.78   
   0.2782        1668.       -140.3   
   0.2977        1483.       -196.7   
   0.3173        1325.       -235.4   
   0.3368        1189.       -261.3   
   0.3564        1072.       -278.0   
   0.3759        969.6       -287.9   
   0.3955        880.6       -292.7   
   0.4150        802.5       -293.7   
   0.4346        733.8       -292.0   
   0.4541        673.0       -288.2   
   0.4737        619.3       -282.9   
   0.4932        571.5       -276.6   
   0.5128        528.9       -269.6   
      0.5323     490.9896    -262.1594
      0.5519     457.0447    -254.5451
      0.5714     426.6305    -246.9262
      0.5910     399.2940    -239.4283
      0.6105     374.6616    -232.1733
      0.6301     352.3791    -225.2378
      0.6496     332.1354    -218.6806
      0.6692     313.6471    -212.5310
      0.6887     296.6461    -206.7813
      0.7083     280.9203    -201.4247
      0.7278     266.2724    -196.4193
      0.7474     252.5432    -191.7123
      0.7669     239.6009    -187.2369
      0.7865     227.3495    -182.9282
      0.8060     215.7286    -178.7339
      0.8256     204.6846    -174.5914
      0.8451     194.1991    -170.4724
      0.8647     184.2471    -166.3396
      0.8842     174.8277    -162.1908
      0.9038     165.9262    -158.0147
      0.9233     157.5443    -153.8312
      0.9429     149.6628    -149.6416
      0.9624     142.2712    -145.4658
      0.9820     135.3503    -141.3186
      1.0015     128.8802    -137.2165
      1.0211     122.8425    -133.1814
      1.0406     117.2118    -129.2243
      1.0602     111.9612    -125.3542
      1.0797     107.0702    -121.5879
      1.0992     102.5149    -117.9361
      1.1188      98.2655    -114.3970
      1.1383      94.3038    -110.9857
      1.1579      90.6028    -107.6999
      1.1774      87.1396    -104.5412
      1.1970      83.8936    -101.5118
     1.21654     80.84290    -98.60749
     1.23609     77.96761    -95.82298
     1.25564     75.25193    -93.15561
     1.27519     72.68147    -90.60001
     1.29474     70.24156    -88.14611
     1.31429     67.92181    -85.78786
     1.33383     65.71330    -83.51814
     1.35338     63.60963    -81.33350
     1.37293     61.60371    -79.22836
     1.39248     59.68965    -77.19939
     1.41203     57.86132    -75.24316
     1.43158     56.11221    -73.35687
     1.45113     54.43633    -71.53920
     1.47068     52.82559    -69.78361
     1.49023     51.27589    -68.09160
     1.50977     49.77863    -66.45303
     1.52932     48.32977    -64.86488
     1.54887     46.92522    -63.32050
     1.56842     45.56213    -61.81294
     1.58797     44.24026    -60.33821
     1.60752     42.95909    -58.88858
     1.62707     41.72063    -57.46122
     1.64662     40.52626    -56.05133
     1.66617     39.37888    -54.65742
     1.68571     38.28138    -53.27961
     1.70526     37.23596    -51.91755
     1.72481     36.24420    -50.57186
     1.74436     35.30792    -49.24464
     1.76391     34.42813    -47.93915
     1.78346     33.60453    -46.65679
     1.80301     32.83734    -45.40200
     1.82256     32.12547    -44.17749
     1.84211     31.46675    -42.98460
     1.86165     30.85938    -41.82775
     1.88120     30.30135    -40.71196
     1.90075     29.78843    -39.63776
     1.92030     29.31748    -38.61015
     1.93985     28.88271    -37.62842
     1.95940     28.48028    -36.69825
     1.97895     28.10311    -35.81778
     1.99850     27.74572    -34.98985
     2.01805     27.40050    -34.21106
     2.03759     27.06155    -33.48237
     2.05714     26.72178    -32.79874
     2.07669     26.37543    -32.15643
     2.09624     26.01732    -31.54915
     2.11579     25.64334    -30.96963
     2.13534     25.25171    -30.41204
     2.15489     24.84155    -29.86828
     2.17444     24.41364    -29.33113
     2.19398     23.97065    -28.79423
     2.21353     23.51581    -28.25251
     2.23308     23.05324    -27.70052
     2.25263     22.58794    -27.13657
     2.27218     22.12443    -26.55746
     2.29173     21.66739    -25.96272
     2.31128     21.22110    -25.35291
     2.33083     20.78960    -24.72915
     2.35038     20.37584    -24.09259
     2.36992     19.98220    -23.44383
     2.38947     19.61127    -22.78627
     2.40902     19.26448    -22.12093
     2.42857     18.94282    -21.44957
     2.44812     18.64753    -20.77429
     2.46767     18.37921    -20.09630
     2.48722     18.13830    -19.41772
     2.50677     17.92524    -18.73975
     2.52632     17.74040    -18.06450
     2.54586     17.58380    -17.39236
     2.56541     17.45563    -16.72469
     2.58496     17.35650    -16.06444
     2.60451     17.28587    -15.41052
     2.62406     17.24463    -14.76632
     2.64361     17.23215    -14.13090
     2.66316     17.24921    -13.50726
     2.68271     17.29585    -12.89716
     2.70226     17.37219    -12.30176
     2.72180     17.47794    -11.72244
     2.74135     17.61342    -11.16206
     2.76090     17.77786    -10.62091
     2.78045     17.97156    -10.10431
     2.80000     18.19327     -9.61268
     2.81955     18.44191     -9.14915
     2.83910     18.71620     -8.71610
     2.85865     19.01390     -8.31611
     2.87820     19.33300     -7.95217
     2.89774     19.67045     -7.62683
     2.91729     20.02256     -7.34179
     2.93684     20.38571     -7.09831
     2.95639     20.75541     -6.89757
     2.97594     21.12725     -6.73955
     2.99549     21.49708     -6.62418
     3.01504     21.86013     -6.54918
     3.03459     22.21281     -6.51262
     3.05414     22.55185     -6.51235
     3.07368     22.87443     -6.54395
     3.09323     23.17915     -6.60523
     3.11278     23.46467     -6.69210
     3.13233     23.73095     -6.80124
     3.15188     23.97823     -6.93071
     3.17143     24.20726     -7.07847
     3.19098     24.41882     -7.24230
     3.21053     24.61340     -7.42148
     3.23008     24.79170     -7.61508
     3.24962     24.95395     -7.82310
     3.26917     25.10003     -8.04537
     3.28872     25.22953     -8.28140
     3.30827     25.34174     -8.53096
     3.32782     25.43554     -8.79405
     3.34737     25.50999     -9.06888
     3.36692     25.56403     -9.35515
     3.38647     25.59663     -9.65096
     3.40602     25.60685     -9.95491
     3.42556     25.59445    -10.26470
     3.44511     25.55901    -10.57859
     3.46466     25.50080    -10.89441
     3.48421     25.42050    -11.21015
     3.50376     25.31894    -11.52466
     3.52331     25.19709    -11.83603
     3.54286     25.05621    -12.14395
     3.56241     24.89711    -12.44785
     3.58196     24.72017    -12.74682
     3.60150     24.52627    -13.04137
     3.62105     24.31496    -13.33111
     3.64060     24.08605    -13.61528
     3.66015     23.83885    -13.89355
     3.67970     23.57292    -14.16463
     3.69925     23.28773    -14.42655
     3.71880     22.98297    -14.67747
     3.73835     22.65894    -14.91494
     3.75789     22.31646    -15.13620
     3.77744     21.95681    -15.33864
     3.79699     21.58211    -15.52031
     3.81654     21.19482    -15.67877
     3.83609     20.79797    -15.81205
     3.85564     20.39504    -15.91965
     3.87519     19.98945    -16.00111
     3.89474     19.58477    -16.05652
     3.91429     19.18445    -16.08694
     3.93383     18.79159    -16.09364
     3.95338     18.40889    -16.07909
     3.97293     18.03872    -16.04564
     3.99248     17.68263    -15.99576
     4.01203     17.34185    -15.93259
     4.03158     17.01691    -15.85887
     4.05113     16.70783    -15.77769
     4.07068     16.41411    -15.69157
     4.09023     16.13494    -15.60273
     4.10977     15.86903    -15.51334
     4.12932     15.61485    -15.42476
     4.14887     15.37091    -15.33870
     4.16842     15.13539    -15.25591
     4.18797     14.90670    -15.17694
     4.20752     14.68309    -15.10165
     4.22707     14.46315    -15.03040
     4.24662     14.24542    -14.96263
     4.26617     14.02867    -14.89790
     4.28571     13.81197    -14.83558
     4.30526     13.59438    -14.77496
     4.32481     13.37509    -14.71504
     4.34436     13.15359    -14.65492
     4.36391     12.92949    -14.59372
     4.38346     12.70249    -14.53023
     4.40301     12.47264    -14.46337
     4.42256     12.24008    -14.39217
     4.44210     12.00517    -14.31502
     4.46165     11.76853    -14.23137
     4.48120     11.53105    -14.14031
     4.50075     11.29367    -14.04084
     4.52030     11.05756    -13.93270
     4.53985     10.82393    -13.81546
     4.55940     10.59405    -13.68898
     4.57895     10.36917    -13.55367
     4.59850     10.15052    -13.40965
     4.61804      9.93906    -13.25771
     4.63759      9.73590    -13.09854
     4.65714      9.54174    -12.93301
     4.67669      9.35727    -12.76225
     4.69624      9.18289    -12.58686
     4.71579      9.01894    -12.40829
     4.73534      8.86561    -12.22737
     4.75489      8.72287    -12.04511
     4.77444      8.59063    -11.86251
     4.79398      8.46868    -11.68053
     4.81353      8.35676    -11.49987
     4.83308      8.25440    -11.32131
     4.85263      8.16126    -11.14556
     4.87218      8.07682    -10.97303
     4.89173      8.00067    -10.80466
     4.91128      7.93230    -10.64047
     4.93083      7.87126    -10.48130
     4.95038      7.81697    -10.32711
     4.96992      7.76906    -10.17830
     4.98947      7.72707    -10.03549
    5.009023     7.690529    -9.898709
    5.028572     7.658941    -9.768371
    5.048120     7.631807    -9.644896
    5.067669     7.608545    -9.528599
    5.087218     7.588508    -9.419729
    5.106767     7.571026    -9.318845
    5.126316     7.555141    -9.225784
    5.145864     7.540087    -9.141248
    5.165413     7.524729    -9.064939
    5.184962     7.507998    -8.996835
    5.204512     7.488811    -8.936594
    5.224060     7.465983    -8.883978
    5.243609     7.438397    -8.838013
    5.263157     7.405159    -8.797916
    5.282707     7.365359    -8.762510
    5.302256     7.318390    -8.730593
    5.321805     7.263872    -8.700673
    5.341353     7.201688    -8.671375
    5.360902     7.131940    -8.641205
    5.380451     7.055099    -8.608894
    5.400000     6.971806    -8.573050
    5.419549     6.882907    -8.532631
    5.439097     6.789421    -8.486734
    5.458646     6.692491    -8.434807
    5.478195     6.593247    -8.376281
    5.497744     6.492831    -8.310848
    5.517293     6.392520    -8.238693
    5.536842     6.293250    -8.159870
    5.556391     6.196055    -8.074605
    5.575940     6.101798    -7.983407
    5.595489     6.011244    -7.886694
    5.615037     5.924977    -7.785268
    5.634586     5.843585    -7.679538
    5.654135     5.767469    -7.570131
    5.673684     5.696955    -7.457824
    5.693233     5.632281    -7.343376
    5.712781     5.573543    -7.226996
    5.732330     5.520798    -7.109653
    5.751880     5.474115    -6.991787
    5.771429     5.433409    -6.874089
    5.790977     5.398555    -6.756966
    5.810526     5.369429    -6.640943
    5.830075     5.345840    -6.526522
    5.849624     5.327497    -6.413988
    5.869173     5.314205    -6.303846
    5.888722     5.305673    -6.196323
    5.908270     5.301587    -6.091754
    5.927819     5.301708    -5.990416
    5.947368     5.305604    -5.892557
    5.966917     5.313018    -5.798166
    5.986466     5.323697    -5.707621
    6.006015     5.337305    -5.620721
    6.025564     5.353580    -5.537758
    6.045113     5.372256    -5.458630
    6.064662     5.393158    -5.383472
    6.084210     5.416038    -5.312281
    6.103759     5.440760    -5.245132
    6.123308     5.467158    -5.181956
    6.142857     5.495082    -5.122970
    6.162406     5.524384    -5.068129
    6.181955     5.554917    -5.017556
    6.201504     5.586500    -4.971475
    6.221053     5.618941    -4.930017
    6.240601     5.652006    -4.893214
    6.260151     5.685377    -4.861385
    6.279698     5.718771    -4.834659
    6.299248     5.751778    -4.813096
    6.318798     5.783976    -4.796937
    6.338346     5.814862    -4.786108
    6.357895     5.843961    -4.780708
    6.377443     5.870668    -4.780560
    6.396993     5.894469    -4.785550
    6.416541     5.914753    -4.795323
    6.436090     5.931077    -4.809865
    6.455639     5.942838    -4.828524
    6.475188     5.949579    -4.850862
    6.494736     5.950956    -4.876339
    6.514286     5.946589    -4.904291
    6.533835     5.936291    -4.934006
    6.553384     5.919934    -4.964903
    6.572932     5.897461    -4.996171
    6.592481     5.868992    -5.027187
    6.612031     5.834672    -5.057295
    6.631579     5.794777    -5.085875
    6.651128     5.749639    -5.112393
    6.670677     5.699609    -5.136371
    6.690226     5.645141    -5.157377
    6.709774     5.586616    -5.175126
    6.729323     5.524481    -5.189311
    6.748872     5.459168    -5.199799
    6.768421     5.391075    -5.206373
    6.787970     5.320600    -5.209035
    6.807519     5.248115    -5.207451
    6.827069     5.174003    -5.201828
    6.846617     5.098594    -5.191963
    6.866165     5.022247    -5.177821
    6.885715     4.945296    -5.159488
    6.905263     4.868085    -5.136912
    6.924813     4.790940    -5.110088
    6.944361     4.714200    -5.079142
    6.963909     4.638231    -5.044142
    6.983459     4.563306    -5.005143
    7.003008     4.489736    -4.962326
    7.022557     4.417812    -4.915824
    7.042105     4.347837    -4.865910
    7.061653     4.280021    -4.812643
    7.081204     4.214582    -4.756369
    7.100753     4.151758    -4.697274
    7.120301     4.091693    -4.635621
    7.139850     4.034550    -4.571685
    7.159399     3.980405    -4.505612
    7.178947     3.929398    -4.437837
    7.198497     3.881558    -4.368604
    7.218046     3.836922    -4.298072
    7.237594     3.795501    -4.226561
    7.257143     3.757255    -4.154286
    7.276692     3.722179    -4.081498
    7.296240     3.690195    -4.008469
    7.315789     3.661214    -3.935276
    7.335339     3.635170    -3.862221
    7.354887     3.611934    -3.789464
    7.374436     3.591416    -3.717184
    7.393984     3.573450    -3.645300
    7.413534     3.557948    -3.574086
    7.433082     3.544763    -3.503474
    7.452631     3.533809    -3.433743
    7.472180     3.524974    -3.364777
    7.491729     3.518167    -3.296614
    7.511279     3.513283    -3.229220
    7.530827     3.510303    -3.162714
    7.550376     3.509153    -3.096972
    7.569926     3.509845    -3.032143
    7.589474     3.512330    -2.968062
    7.609024     3.516658    -2.904840
    7.628572     3.522805    -2.842561
    7.648120     3.530826    -2.781241
    7.667669     3.540724    -2.720885
    7.687218     3.552536    -2.661696
    7.706768     3.566258    -2.603730
    7.726316     3.581882    -2.547163
    7.745865     3.599374    -2.492019
    7.765414     3.618706    -2.438558
    7.784962     3.639795    -2.386865
    7.804512     3.662537    -2.337219
    7.824061     3.686779    -2.289728
    7.843610     3.712374    -2.244456
    7.863158     3.739121    -2.201558
    7.882708     3.766825    -2.161136
    7.902255     3.795247    -2.123194
    7.921805     3.824148    -2.087822
    7.941354     3.853278    -2.054874
    7.960904     3.882418    -2.024542
    7.980452     3.911292    -1.996550
    8.000000     3.939734    -1.970815
# 
# 07/31/2018 at 12:10 YAMBO_RT @ narro [start]
# 07/31/2018 at 12:10                  [end]
#
# .-Input file : yambo.in
# | optics                         # [R OPT] Optics
# | bse                            # [R BSE] Bethe Salpeter Equation.
# | BoseTemp= 0.000000     eV      # Bosonic Temperature
# | FFTGvecs= 1721         RL      # [FFT] Plane-waves
# | BSEmod= "retarded"             # [BSE] resonant/retarded/coupling
# | BSKmod= "IP"                   # [BSE] IP/Hartree/HF/ALDA/SEX/BSfxc
# | Gauge= "velocity"              # [BSE] Gauge (length|velocity)
# | MetDamp                        # [BSE] Define \w+=sqrt(\w*(\w+i\eta))
# | EvalKerr                       # [BSE] Compute the Kerr effect
# | #AnHall                        # [BSE] Add the anomalous Hall effect to eps if using length gauge
# | % BEnRange
# |  0.200000 | 8.000000 | eV      # [BSS] Energy range
# | %
# | % BDmRange
# |  0.300000 | 0.500000 | eV      # [BSS] Damping range
# | %
# | BEnSteps=  400                 # [BSS] Energy steps
# | % BLongDir
# |  1.000000 | 0.000000 | 0.000000 |        # [BSS] [cc] Electric Field
# | %
# | % BSEBands
# |   1 | 13 |                     # [BSK] Bands range
# | %
