#                                                           
#   __   __     _        __  __       ____      U  ___  u   
#   \ \ / / U  /"\  U u |" \/ "| u U | __") u    \/"_ \/    
#    \ V /   \/ _ \/   \| |\/| |/   \|  _ \/     | | | |    
#   U_|"|_u  / ___ \    | |  | |     | |_) | .-,_| |_| |    
#     |_|   /_/   \_\   |_|  |_|     |____/   \_)-\___/     
# .-,//|(_   \\    >>  <<,-,,-.     _|| \\_        \\       
#  \_) (__) (__)  (__)  (./  \.)   (__) (__)      (__)      
#                                                           
#                                                           
#        Version 4.3.0 Revision 15624 Hash 7ed12fb          
#                      MPI+SLK Build                        
#                http://www.yambo-code.org                  
#
# Absorption @ Q(1) [q->0 direction] : 1.000000  0.000000  0.000000
#
#
#
# - The Green`s function is Retarded -
# - Using the Velocity Gauge -
# - [r,Vnl] *is* included -
#
#
#    Diamagnetic term
#    A [nel]
#    -8.683607
#
#    E/ev[1]      EPS-Im[2]    EPS-Re[3]
#
   0.2000        2816.        480.7   
   0.2195        2452.        230.0   
   0.2391        2145.        59.03   
   0.2586        1886.       -58.66   
   0.2782        1668.       -140.2   
   0.2977        1483.       -196.6   
   0.3173        1325.       -235.3   
   0.3368        1189.       -261.3   
   0.3564        1071.       -278.0   
   0.3759        969.5       -287.8   
   0.3955        880.5       -292.6   
   0.4150        802.4       -293.7   
   0.4346        733.7       -291.9   
   0.4541        673.0       -288.1   
   0.4737        619.2       -282.8   
   0.4932        571.4       -276.5   
   0.5128        528.9       -269.5   
      0.5323     490.9394    -262.1157
      0.5519     456.9970    -254.5028
      0.5714     426.5854    -246.8849
      0.5910     399.2518    -239.3884
      0.6105     374.6252    -232.1375
      0.6301     352.3423    -225.2011
      0.6496     332.1045    -218.6485
      0.6692     313.6142    -212.4966
      0.6887     296.6150    -206.7479
      0.7083     280.8943    -201.3960
      0.7278     266.2473    -196.3909
      0.7474     252.5177    -191.6831
      0.7669     239.5749    -187.2065
      0.7865     227.3269    -182.9014
      0.8060     215.7073    -178.7079
      0.8256     204.6652    -174.5673
      0.8451     194.1797    -170.4479
      0.8647     184.2292    -166.3163
      0.8842     174.8099    -162.1672
      0.9038     165.9111    -157.9943
      0.9233     157.5295    -153.8108
      0.9429     149.6481    -149.6209
      0.9624     142.2573    -145.4459
      0.9820     135.3378    -141.3004
      1.0015     128.8681    -137.1986
      1.0211     122.8291    -133.1610
      1.0406     117.1994    -129.2051
      1.0602     111.9506    -125.3375
      1.0797     107.0607    -121.5726
      1.0992     102.5039    -117.9181
      1.1188      98.2559    -114.3811
      1.1383      94.2943    -110.9698
      1.1579      90.5939    -107.6847
      1.1774      87.1310    -104.5263
      1.1970      83.8850    -101.4966
     1.21654     80.83511    -98.59367
     1.23609     77.96024    -95.80971
     1.25564     75.24537    -93.14355
     1.27519     72.67471    -90.58741
     1.29474     70.23460    -88.13319
     1.31429     67.91474    -85.77444
     1.33383     65.70731    -83.50665
     1.35338     63.60359    -81.32176
     1.37293     61.59866    -79.21845
     1.39248     59.68399    -77.18810
     1.41203     57.85612    -75.23266
     1.43158     56.10706    -73.34628
     1.45113     54.43161    -71.52922
     1.47068     52.82069    -69.77315
     1.49023     51.27145    -68.08195
     1.50977     49.77394    -66.44276
     1.52932     48.32526    -64.85483
     1.54887     46.92148    -63.31197
     1.56842     45.55810    -61.80371
     1.58797     44.23613    -60.32848
     1.60752     42.95555    -58.88019
     1.62707     41.71723    -57.45294
     1.64662     40.52324    -56.04368
     1.66617     39.37565    -54.64938
     1.68571     38.27797    -53.27105
     1.70526     37.23275    -51.90939
     1.72481     36.24126    -50.56422
     1.74436     35.30517    -49.23739
     1.76391     34.42521    -47.93149
     1.78346     33.60219    -46.65051
     1.80301     32.83503    -45.39571
     1.82256     32.12296    -44.17065
     1.84211     31.46423    -42.97766
     1.86165     30.85687    -41.82086
     1.88120     30.29897    -40.70525
     1.90075     29.78619    -39.63139
     1.92030     29.31542    -38.60422
     1.93985     28.88055    -37.62216
     1.95940     28.47806    -36.69184
     1.97895     28.10100    -35.81164
     1.99850     27.74371    -34.98397
     2.01805     27.39874    -34.20591
     2.03759     27.05957    -33.47651
     2.05714     26.71988    -32.79311
     2.07669     26.37374    -32.15126
     2.09624     26.01550    -31.54361
     2.11579     25.64164    -30.96455
     2.13534     25.25006    -30.40693
     2.15489     24.83986    -29.86306
     2.17444     24.41213    -29.32637
     2.19398     23.96917    -28.78958
     2.21353     23.51433    -28.24786
     2.23308     23.05185    -27.69611
     2.25263     22.58640    -27.13157
     2.27218     22.12293    -26.55258
     2.29173     21.66595    -25.95809
     2.31128     21.21979    -25.34853
     2.33083     20.78834    -24.72496
     2.35038     20.37460    -24.08844
     2.36992     19.98096    -23.43970
     2.38947     19.61010    -22.78226
     2.40902     19.26320    -22.11668
     2.42857     18.94166    -21.44552
     2.44812     18.64639    -20.77040
     2.46767     18.37804    -20.09220
     2.48722     18.13717    -19.41365
     2.50677     17.92417    -18.73591
     2.52632     17.73938    -18.06078
     2.54586     17.58278    -17.38860
     2.56541     17.45465    -16.72106
     2.58496     17.35554    -16.06072
     2.60451     17.28504    -15.40728
     2.62406     17.24362    -14.76257
     2.64361     17.23131    -14.12755
     2.66316     17.24844    -13.50424
     2.68271     17.29507    -12.89393
     2.70226     17.37134    -12.29837
     2.72180     17.47718    -11.71938
     2.74135     17.61263    -11.15872
     2.76090     17.77722    -10.61818
     2.78045     17.97091    -10.10148
     2.80000     18.19254     -9.60954
     2.81955     18.44119     -9.14605
     2.83910     18.71546     -8.71286
     2.85865     19.01321     -8.31314
     2.87820     19.33241     -7.94946
     2.89774     19.66980     -7.62401
     2.91729     20.02185     -7.33872
     2.93684     20.38511     -7.09556
     2.95639     20.75484     -6.89499
     2.97594     21.12668     -6.73714
     2.99549     21.49655     -6.62182
     3.01504     21.85951     -6.54663
     3.03459     22.21222     -6.51017
     3.05414     22.55122     -6.50991
     3.07368     22.87385     -6.54170
     3.09323     23.17855     -6.60293
     3.11278     23.46401     -6.68964
     3.13233     23.73029     -6.79886
     3.15188     23.97768     -6.92870
     3.17143     24.20666     -7.07633
     3.19098     24.41818     -7.24013
     3.21053     24.61278     -7.41932
     3.23008     24.79106     -7.61302
     3.24962     24.95333     -7.82104
     3.26917     25.09942     -8.04332
     3.28872     25.22887     -8.27930
     3.30827     25.34111     -8.52897
     3.32782     25.43492     -8.79192
     3.34737     25.50944     -9.06701
     3.36692     25.56344     -9.35309
     3.38647     25.59601     -9.64882
     3.40602     25.60625     -9.95292
     3.42556     25.59387    -10.26280
     3.44511     25.55842    -10.57663
     3.46466     25.50026    -10.89243
     3.48421     25.41995    -11.20823
     3.50376     25.31839    -11.52272
     3.52331     25.19658    -11.83422
     3.54286     25.05565    -12.14206
     3.56241     24.89654    -12.44584
     3.58196     24.71966    -12.74508
     3.60150     24.52579    -13.03961
     3.62105     24.31448    -13.32938
     3.64060     24.08553    -13.61353
     3.66015     23.83838    -13.89174
     3.67970     23.57247    -14.16290
     3.69925     23.28726    -14.42488
     3.71880     22.98246    -14.67577
     3.73835     22.65845    -14.91321
     3.75789     22.31597    -15.13460
     3.77744     21.95631    -15.33698
     3.79699     21.58161    -15.51865
     3.81654     21.19434    -15.67706
     3.83609     20.79747    -15.81045
     3.85564     20.39454    -15.91797
     3.87519     19.98896    -15.99947
     3.89474     19.58430    -16.05493
     3.91429     19.18396    -16.08538
     3.93383     18.79111    -16.09209
     3.95338     18.40840    -16.07750
     3.97293     18.03823    -16.04407
     3.99248     17.68216    -15.99424
     4.01203     17.34135    -15.93099
     4.03158     17.01641    -15.85731
     4.05113     16.70733    -15.77618
     4.07068     16.41362    -15.68995
     4.09023     16.13446    -15.60115
     4.10977     15.86855    -15.51175
     4.12932     15.61436    -15.42322
     4.14887     15.37044    -15.33719
     4.16842     15.13492    -15.25436
     4.18797     14.90625    -15.17534
     4.20752     14.68263    -15.10009
     4.22707     14.46270    -15.02882
     4.24662     14.24498    -14.96107
     4.26617     14.02829    -14.89642
     4.28571     13.81161    -14.83413
     4.30526     13.59401    -14.77341
     4.32481     13.37477    -14.71356
     4.34436     13.15327    -14.65337
     4.36391     12.92916    -14.59212
     4.38346     12.70221    -14.52868
     4.40301     12.47240    -14.46183
     4.42256     12.23984    -14.39059
     4.44210     12.00498    -14.31354
     4.46165     11.76837    -14.22991
     4.48120     11.53090    -14.13881
     4.50075     11.29354    -14.03939
     4.52030     11.05746    -13.93131
     4.53985     10.82382    -13.81404
     4.55940     10.59399    -13.68766
     4.57895     10.36910    -13.55232
     4.59850     10.15047    -13.40833
     4.61804      9.93903    -13.25644
     4.63759      9.73588    -13.09729
     4.65714      9.54171    -12.93177
     4.67669      9.35724    -12.76102
     4.69624      9.18288    -12.58571
     4.71579      9.01892    -12.40712
     4.73534      8.86559    -12.22616
     4.75489      8.72285    -12.04400
     4.77444      8.59061    -11.86138
     4.79398      8.46867    -11.67939
     4.81353      8.35673    -11.49875
     4.83308      8.25438    -11.32026
     4.85263      8.16125    -11.14460
     4.87218      8.07681    -10.97203
     4.89173      8.00067    -10.80369
     4.91128      7.93229    -10.63953
     4.93083      7.87122    -10.48028
     4.95038      7.81695    -10.32612
     4.96992      7.76903    -10.17728
     4.98947      7.72704    -10.03449
    5.009023     7.690512    -9.897757
    5.028572     7.658918    -9.767449
    5.048120     7.631791    -9.644039
    5.067669     7.608531    -9.527686
    5.087218     7.588473    -9.418872
    5.106767     7.570994    -9.317945
    5.126316     7.555102    -9.224871
    5.145864     7.540059    -9.140455
    5.165413     7.524689    -9.064107
    5.184962     7.507972    -8.996082
    5.204512     7.488754    -8.935773
    5.224060     7.465931    -8.883243
    5.243609     7.438330    -8.837240
    5.263157     7.405083    -8.797200
    5.282707     7.365270    -8.761753
    5.302256     7.318293    -8.729870
    5.321805     7.263770    -8.699965
    5.341353     7.201557    -8.670659
    5.360902     7.131805    -8.640497
    5.380451     7.054964    -8.608179
    5.400000     6.971666    -8.572365
    5.419549     6.882753    -8.531965
    5.439097     6.789261    -8.486033
    5.458646     6.692323    -8.434132
    5.478195     6.593069    -8.375512
    5.497744     6.492657    -8.310134
    5.517293     6.392332    -8.238001
    5.536842     6.293064    -8.159110
    5.556391     6.195874    -8.073859
    5.575940     6.101633    -7.982729
    5.595489     6.011071    -7.886024
    5.615037     5.924803    -7.784511
    5.634586     5.843423    -7.678831
    5.654135     5.767312    -7.569412
    5.673684     5.696812    -7.457160
    5.693233     5.632121    -7.342619
    5.712781     5.573383    -7.226277
    5.732330     5.520657    -7.108970
    5.751880     5.473967    -6.991053
    5.771429     5.433278    -6.873397
    5.790977     5.398427    -6.756261
    5.810526     5.369301    -6.640267
    5.830075     5.345703    -6.525775
    5.849624     5.327371    -6.413294
    5.869173     5.314076    -6.303148
    5.888722     5.305547    -6.195591
    5.908270     5.301478    -6.091119
    5.927819     5.301591    -5.989765
    5.947368     5.305483    -5.891863
    5.966917     5.312898    -5.797489
    5.986466     5.323574    -5.706948
    6.006015     5.337197    -5.620114
    6.025564     5.353456    -5.537087
    6.045113     5.372147    -5.458063
    6.064662     5.393039    -5.382880
    6.084210     5.415911    -5.311692
    6.103759     5.440619    -5.244473
    6.123308     5.467013    -5.181323
    6.142857     5.494943    -5.122365
    6.162406     5.524243    -5.067521
    6.181955     5.554766    -5.016963
    6.201504     5.586350    -4.970868
    6.221053     5.618790    -4.929389
    6.240601     5.651843    -4.892589
    6.260151     5.685231    -4.860778
    6.279698     5.718616    -4.834082
    6.299248     5.751627    -4.812507
    6.318798     5.783822    -4.796363
    6.338346     5.814702    -4.785514
    6.357895     5.843803    -4.780126
    6.377443     5.870503    -4.779952
    6.396993     5.894319    -4.785003
    6.416541     5.914599    -4.794763
    6.436090     5.930918    -4.809295
    6.455639     5.942679    -4.827950
    6.475188     5.949426    -4.850290
    6.494736     5.950802    -4.875753
    6.514286     5.946435    -4.903692
    6.533835     5.936137    -4.933440
    6.553384     5.919774    -4.964313
    6.572932     5.897297    -4.995585
    6.592481     5.868835    -5.026622
    6.612031     5.834524    -5.056735
    6.631579     5.794632    -5.085281
    6.651128     5.749491    -5.111808
    6.670677     5.699462    -5.135791
    6.690226     5.645001    -5.156785
    6.709774     5.586480    -5.174559
    6.729323     5.524347    -5.188716
    6.748872     5.459042    -5.199191
    6.768421     5.390945    -5.205780
    6.787970     5.320477    -5.208435
    6.807519     5.248002    -5.206892
    6.827069     5.173895    -5.201229
    6.846617     5.098485    -5.191375
    6.866165     5.022158    -5.177245
    6.885715     4.945200    -5.158909
    6.905263     4.868007    -5.136395
    6.924813     4.790853    -5.109535
    6.944361     4.714131    -5.078603
    6.963909     4.638156    -5.043573
    6.983459     4.563242    -5.004632
    7.003008     4.489678    -4.961807
    7.022557     4.417748    -4.915280
    7.042105     4.347770    -4.865374
    7.061653     4.279959    -4.812146
    7.081204     4.214524    -4.755847
    7.100753     4.151703    -4.696761
    7.120301     4.091633    -4.635093
    7.139850     4.034492    -4.571170
    7.159399     3.980356    -4.505162
    7.178947     3.929350    -4.437372
    7.198497     3.881502    -4.368108
    7.218046     3.836864    -4.297585
    7.237594     3.795449    -4.226100
    7.257143     3.757207    -4.153825
    7.276692     3.722118    -4.081024
    7.296240     3.690135    -4.007995
    7.315789     3.661158    -3.934835
    7.335339     3.635111    -3.861758
    7.354887     3.611881    -3.789014
    7.374436     3.591357    -3.716747
    7.393984     3.573391    -3.644862
    7.413534     3.557888    -3.573666
    7.433082     3.544711    -3.503088
    7.452631     3.533749    -3.433303
    7.472180     3.524919    -3.364344
    7.491729     3.518099    -3.296174
    7.511279     3.513223    -3.228790
    7.530827     3.510240    -3.162293
    7.550376     3.509097    -3.096564
    7.569926     3.509784    -3.031741
    7.589474     3.512272    -2.967652
    7.609024     3.516598    -2.904460
    7.628572     3.522748    -2.842182
    7.648120     3.530762    -2.780835
    7.667669     3.540661    -2.720495
    7.687218     3.552475    -2.661311
    7.706768     3.566195    -2.603328
    7.726316     3.581813    -2.546753
    7.745865     3.599310    -2.491639
    7.765414     3.618637    -2.438158
    7.784962     3.639729    -2.386508
    7.804512     3.662471    -2.336854
    7.824061     3.686707    -2.289319
    7.843610     3.712310    -2.244090
    7.863158     3.739051    -2.201163
    7.882708     3.766757    -2.160753
    7.902255     3.795174    -2.122808
    7.921805     3.824074    -2.087425
    7.941354     3.853209    -2.054547
    7.960904     3.882342    -2.024161
    7.980452     3.911216    -1.996189
    8.000000     3.939660    -1.970459
# 
# 07/24/2018 at 15:52 YAMBO_RT @ NewLaptop [start]
# 07/24/2018 at 15:52                      [end]
#
# .-Input file : yambo.in
# | optics                         # [R OPT] Optics
# | bse                            # [R BSE] Bethe Salpeter Equation.
# | BoseTemp= 0.000000     eV      # Bosonic Temperature
# | FFTGvecs= 1721         RL      # [FFT] Plane-waves
# | BSEmod= "retarded"             # [BSE] resonant/retarded/coupling
# | BSKmod= "IP"                   # [BSE] IP/Hartree/HF/ALDA/SEX/BSfxc
# | Gauge= "velocity"              # [BSE] Gauge (length|velocity)
# | MetDamp                        # [BSE] Define \w+=sqrt(\w*(\w+i\eta))
# | EvalKerr                       # [BSE] Compute the Kerr effect
# | #AnHall                        # [BSE] Add the anomalous Hall effect to eps if using length gauge
# | % BEnRange
# |  0.200000 | 8.000000 | eV      # [BSS] Energy range
# | %
# | % BDmRange
# |  0.300000 | 0.500000 | eV      # [BSS] Damping range
# | %
# | BEnSteps=  400                 # [BSS] Energy steps
# | % BLongDir
# |  1.000000 | 0.000000 | 0.000000 |        # [BSS] [cc] Electric Field
# | %
# | % BSEBands
# |   1 | 13 |                     # [BSK] Bands range
# | %
