#                                                           
#  **    **    **     ****     ****  ******     *******     
# //**  **    ****   /**/**   **/** /*////**   **/////**    
#  //****    **//**  /**//** ** /** /*   /**  **     //**   
#   //**    **  //** /** //***  /** /******  /**      /**   
#    /**   **********/**  //*   /** /*//// **/**      /**   
#    /**  /**//////**/**   /    /** /*    /**//**     **    
#    /**  /**     /**/**        /** /*******  //*******     
#    //   //      // //         //  ///////    ///////      
#                                                           
#        Version 4.3.0 Revision 15642 Hash 4a43e30          
#                      MPI+SLK Build                        
#                http://www.yambo-code.org                  
#
# Absorption @ Q(1) [q->0 direction] :0.1000E-4  0.000     0.000   
#
#
#
# - The Green`s function is Retarded -
# - Using the Length Gauge -
# - [r,Vnl] *is* included -
#
#
#    Diamagnetic term
#    A [nel]
#    -8.683380
#
#    E/ev[1]      EPS-Im[2]    EPS-Re[3]
#
   0.2000        2816.        480.5   
   0.2195        2453.        229.8   
   0.2391        2145.        58.89   
   0.2586        1887.       -58.79   
   0.2782        1668.       -140.3   
   0.2977        1483.       -196.7   
   0.3173        1325.       -235.4   
   0.3368        1189.       -261.3   
   0.3564        1072.       -278.0   
   0.3759        969.6       -287.9   
   0.3955        880.6       -292.7   
   0.4150        802.5       -293.7   
   0.4346        733.8       -292.0   
   0.4541        673.0       -288.2   
   0.4737        619.3       -282.9   
   0.4932        571.5       -276.6   
   0.5128        528.9       -269.6   
      0.5323     490.9918    -262.1612
      0.5519     457.0514    -254.5516
      0.5714     426.6324    -246.9285
      0.5910     399.2981    -239.4338
      0.6105     374.6644    -232.1774
      0.6301     352.3821    -225.2422
      0.6496     332.1369    -218.6829
      0.6692     313.6436    -212.5290
      0.6887     296.6470    -206.7840
      0.7083     280.9221    -201.4280
      0.7278     266.2745    -196.4236
      0.7474     252.5438    -191.7153
      0.7669     239.6020    -187.2405
      0.7865     227.3530    -182.9347
      0.8060     215.7292    -178.7350
      0.8256     204.6866    -174.5940
      0.8451     194.1980    -170.4714
      0.8647     184.2480    -166.3411
      0.8842     174.8276    -162.1911
      0.9038     165.9292    -158.0188
      0.9233     157.5442    -153.8315
      0.9429     149.6626    -149.6416
      0.9624     142.2702    -145.4643
      0.9820     135.3495    -141.3175
      1.0015     128.8808    -137.2177
      1.0211     122.8425    -133.1815
      1.0406     117.2111    -129.2235
      1.0602     111.9626    -125.3562
      1.0797     107.0721    -121.5911
      1.0992     102.5152    -117.9365
      1.1188      98.2673    -114.4000
      1.1383      94.3044    -110.9869
      1.1579      90.6030    -107.6999
      1.1774      87.1400    -104.5417
      1.1970      83.8934    -101.5115
     1.21654     80.84248    -98.60665
     1.23609     77.96801    -95.82341
     1.25564     75.25262    -93.15687
     1.27519     72.68134    -90.59990
     1.29474     70.24126    -88.14575
     1.31429     67.92156    -85.78766
     1.33383     65.71358    -83.51913
     1.35338     63.60987    -81.33418
     1.37293     61.60402    -79.22923
     1.39248     59.68987    -77.19979
     1.41203     57.86129    -75.24326
     1.43158     56.11223    -73.35734
     1.45113     54.43612    -71.53876
     1.47068     52.82595    -69.78451
     1.49023     51.27557    -68.09083
     1.50977     49.77848    -66.45288
     1.52932     48.32960    -64.86450
     1.54887     46.92506    -63.32036
     1.56842     45.56228    -61.81359
     1.58797     44.24020    -60.33812
     1.60752     42.95913    -58.88864
     1.62707     41.72039    -57.46080
     1.64662     40.52619    -56.05122
     1.66617     39.37901    -54.65765
     1.68571     38.28146    -53.27996
     1.70526     37.23594    -51.91758
     1.72481     36.24434    -50.57203
     1.74436     35.30811    -49.24527
     1.76391     34.42821    -47.93947
     1.78346     33.60474    -46.65749
     1.80301     32.83739    -45.40206
     1.82256     32.12523    -44.17660
     1.84211     31.46662    -42.98436
     1.86165     30.85956    -41.82834
     1.88120     30.30124    -40.71193
     1.90075     29.78848    -39.63801
     1.92030     29.31726    -38.60953
     1.93985     28.88281    -37.62876
     1.95940     28.48009    -36.69782
     1.97895     28.10313    -35.81797
     1.99850     27.74557    -34.98944
     2.01805     27.40068    -34.21164
     2.03759     27.06161    -33.48261
     2.05714     26.72185    -32.79900
     2.07669     26.37540    -32.15633
     2.09624     26.01728    -31.54898
     2.11579     25.64345    -30.97005
     2.13534     25.25178    -30.41246
     2.15489     24.84163    -29.86861
     2.17444     24.41383    -29.33150
     2.19398     23.97066    -28.79457
     2.21353     23.51572    -28.25234
     2.23308     23.05314    -27.70049
     2.25263     22.58775    -27.13601
     2.27218     22.12423    -26.55693
     2.29173     21.66732    -25.96269
     2.31128     21.22120    -25.35324
     2.33083     20.78963    -24.72935
     2.35038     20.37581    -24.09255
     2.36992     19.98229    -23.44423
     2.38947     19.61124    -22.78621
     2.40902     19.26431    -22.12071
     2.42857     18.94274    -21.44928
     2.44812     18.64739    -20.77385
     2.46767     18.37911    -20.09600
     2.48722     18.13823    -19.41747
     2.50677     17.92521    -18.73975
     2.52632     17.74030    -18.06424
     2.54586     17.58375    -17.39228
     2.56541     17.45575    -16.72517
     2.58496     17.35640    -16.06413
     2.60451     17.28593    -15.41066
     2.62406     17.24446    -14.76585
     2.64361     17.23221    -14.13103
     2.66316     17.24931    -13.50772
     2.68271     17.29589    -12.89746
     2.70226     17.37215    -12.30182
     2.72180     17.47802    -11.72262
     2.74135     17.61337    -11.16186
     2.76090     17.77809    -10.62182
     2.78045     17.97165    -10.10467
     2.80000     18.19326     -9.61291
     2.81955     18.44196     -9.14918
     2.83910     18.71621     -8.71606
     2.85865     19.01406     -8.31633
     2.87820     19.33314     -7.95255
     2.89774     19.67055     -7.62709
     2.91729     20.02268     -7.34181
     2.93684     20.38569     -7.09839
     2.95639     20.75547     -6.89764
     2.97594     21.12740     -6.73976
     2.99549     21.49707     -6.62406
     3.01504     21.86016     -6.54909
     3.03459     22.21286     -6.51274
     3.05414     22.55176     -6.51212
     3.07368     22.87449     -6.54408
     3.09323     23.17910     -6.60512
     3.11278     23.46469     -6.69199
     3.13233     23.73103     -6.80147
     3.15188     23.97841     -6.93103
     3.17143     24.20740     -7.07842
     3.19098     24.41883     -7.24221
     3.21053     24.61336     -7.42126
     3.23008     24.79165     -7.61494
     3.24962     24.95390     -7.82303
     3.26917     25.10000     -8.04521
     3.28872     25.22942     -8.28137
     3.30827     25.34156     -8.53105
     3.32782     25.43542     -8.79385
     3.34737     25.50991     -9.06892
     3.36692     25.56400     -9.35518
     3.38647     25.59660     -9.65102
     3.40602     25.60686     -9.95483
     3.42556     25.59444    -10.26474
     3.44511     25.55896    -10.57856
     3.46466     25.50080    -10.89439
     3.48421     25.42051    -11.21024
     3.50376     25.31892    -11.52454
     3.52331     25.19712    -11.83605
     3.54286     25.05623    -12.14395
     3.56241     24.89703    -12.44754
     3.58196     24.72024    -12.74678
     3.60150     24.52625    -13.04132
     3.62105     24.31492    -13.33102
     3.64060     24.08596    -13.61535
     3.66015     23.83887    -13.89358
     3.67970     23.57291    -14.16457
     3.69925     23.28769    -14.42650
     3.71880     22.98293    -14.67734
     3.73835     22.65887    -14.91475
     3.75789     22.31641    -15.13608
     3.77744     21.95685    -15.33880
     3.79699     21.58213    -15.52036
     3.81654     21.19489    -15.67875
     3.83609     20.79810    -15.81224
     3.85564     20.39515    -15.91985
     3.87519     19.98953    -16.00122
     3.89474     19.58484    -16.05661
     3.91429     19.18449    -16.08691
     3.93383     18.79162    -16.09371
     3.95338     18.40896    -16.07909
     3.97293     18.03877    -16.04556
     3.99248     17.68266    -15.99580
     4.01203     17.34187    -15.93267
     4.03158     17.01699    -15.85905
     4.05113     16.70786    -15.77778
     4.07068     16.41415    -15.69160
     4.09023     16.13497    -15.60274
     4.10977     15.86901    -15.51330
     4.12932     15.61491    -15.42492
     4.14887     15.37093    -15.33882
     4.16842     15.13545    -15.25603
     4.18797     14.90673    -15.17687
     4.20752     14.68315    -15.10174
     4.22707     14.46312    -15.03046
     4.24662     14.24541    -14.96264
     4.26617     14.02870    -14.89796
     4.28571     13.81198    -14.83569
     4.30526     13.59437    -14.77499
     4.32481     13.37512    -14.71510
     4.34436     13.15362    -14.65502
     4.36391     12.92951    -14.59380
     4.38346     12.70253    -14.53023
     4.40301     12.47265    -14.46348
     4.42256     12.24008    -14.39204
     4.44210     12.00517    -14.31514
     4.46165     11.76856    -14.23149
     4.48120     11.53106    -14.14035
     4.50075     11.29368    -14.04095
     4.52030     11.05756    -13.93275
     4.53985     10.82391    -13.81551
     4.55940     10.59404    -13.68906
     4.57895     10.36915    -13.55369
     4.59850     10.15048    -13.40975
     4.61804      9.93908    -13.25784
     4.63759      9.73592    -13.09869
     4.65714      9.54175    -12.93318
     4.67669      9.35725    -12.76227
     4.69624      9.18286    -12.58701
     4.71579      9.01895    -12.40841
     4.73534      8.86559    -12.22747
     4.75489      8.72288    -12.04519
     4.77444      8.59065    -11.86262
     4.79398      8.46867    -11.68054
     4.81353      8.35673    -11.49988
     4.83308      8.25440    -11.32134
     4.85263      8.16126    -11.14555
     4.87218      8.07682    -10.97317
     4.89173      8.00068    -10.80471
     4.91128      7.93232    -10.64063
     4.93083      7.87122    -10.48123
     4.95038      7.81697    -10.32708
     4.96992      7.76906    -10.17835
     4.98947      7.72706    -10.03544
    5.009023     7.690529    -9.898657
    5.028572     7.658940    -9.768357
    5.048120     7.631772    -9.644891
    5.067669     7.608514    -9.528552
    5.087218     7.588511    -9.419743
    5.106767     7.570986    -9.318787
    5.126316     7.555149    -9.225859
    5.145864     7.540056    -9.141236
    5.165413     7.524711    -9.064929
    5.184962     7.508008    -8.996831
    5.204512     7.488812    -8.936678
    5.224060     7.465960    -8.883989
    5.243609     7.438429    -8.838051
    5.263157     7.405178    -8.797928
    5.282707     7.365362    -8.762516
    5.302256     7.318392    -8.730599
    5.321805     7.263874    -8.700703
    5.341353     7.201679    -8.671402
    5.360902     7.131949    -8.641278
    5.380451     7.055102    -8.608920
    5.400000     6.971809    -8.573091
    5.419549     6.882922    -8.532690
    5.439097     6.789422    -8.486825
    5.458646     6.692483    -8.434838
    5.478195     6.593225    -8.376270
    5.497744     6.492869    -8.310871
    5.517293     6.392525    -8.238698
    5.536842     6.293252    -8.159822
    5.556391     6.196061    -8.074590
    5.575940     6.101799    -7.983442
    5.595489     6.011209    -7.886792
    5.615037     5.924993    -7.785326
    5.634586     5.843616    -7.679598
    5.654135     5.767498    -7.570254
    5.673684     5.696983    -7.457925
    5.693233     5.632268    -7.343308
    5.712781     5.573514    -7.227055
    5.732330     5.520822    -7.109705
    5.751880     5.474121    -6.991886
    5.771429     5.433397    -6.874111
    5.790977     5.398562    -6.757000
    5.810526     5.369415    -6.640959
    5.830075     5.345796    -6.526502
    5.849624     5.327479    -6.413972
    5.869173     5.314192    -6.303803
    5.888722     5.305667    -6.196280
    5.908270     5.301585    -6.091792
    5.927819     5.301667    -5.990470
    5.947368     5.305583    -5.892555
    5.966917     5.313024    -5.798218
    5.986466     5.323689    -5.707568
    6.006015     5.337291    -5.620711
    6.025564     5.353539    -5.537718
    6.045113     5.372240    -5.458641
    6.064662     5.393121    -5.383469
    6.084210     5.416013    -5.312315
    6.103759     5.440757    -5.245115
    6.123308     5.467123    -5.181983
    6.142857     5.495062    -5.122932
    6.162406     5.524358    -5.068112
    6.181955     5.554885    -5.017575
    6.201504     5.586464    -4.971459
    6.221053     5.618912    -4.929954
    6.240601     5.651977    -4.893222
    6.260151     5.685366    -4.861386
    6.279698     5.718765    -4.834678
    6.299248     5.751780    -4.813148
    6.318798     5.783954    -4.796967
    6.338346     5.814864    -4.786141
    6.357895     5.843925    -4.780693
    6.377443     5.870665    -4.780563
    6.396993     5.894460    -4.785588
    6.416541     5.914778    -4.795487
    6.436090     5.931066    -4.809928
    6.455639     5.942829    -4.828619
    6.475188     5.949575    -4.850917
    6.494736     5.950928    -4.876350
    6.514286     5.946586    -4.904282
    6.533835     5.936278    -4.934048
    6.553384     5.919908    -4.964936
    6.572932     5.897445    -4.996204
    6.592481     5.868980    -5.027236
    6.612031     5.834669    -5.057378
    6.631579     5.794785    -5.085924
    6.651128     5.749630    -5.112436
    6.670677     5.699615    -5.136380
    6.690226     5.645135    -5.157378
    6.709774     5.586624    -5.175133
    6.729323     5.524483    -5.189396
    6.748872     5.459154    -5.199863
    6.768421     5.391079    -5.206456
    6.787970     5.320603    -5.209030
    6.807519     5.248129    -5.207544
    6.827069     5.173995    -5.201876
    6.846617     5.098579    -5.191990
    6.866165     5.022235    -5.177895
    6.885715     4.945283    -5.159503
    6.905263     4.868063    -5.136967
    6.924813     4.790921    -5.110136
    6.944361     4.714211    -5.079187
    6.963909     4.638217    -5.044172
    6.983459     4.563284    -5.005141
    7.003008     4.489727    -4.962336
    7.022557     4.417809    -4.915869
    7.042105     4.347818    -4.865912
    7.061653     4.279996    -4.812665
    7.081204     4.214572    -4.756392
    7.100753     4.151763    -4.697267
    7.120301     4.091686    -4.635627
    7.139850     4.034560    -4.571625
    7.159399     3.980427    -4.505623
    7.178947     3.929408    -4.437856
    7.198497     3.881546    -4.368567
    7.218046     3.836910    -4.298040
    7.237594     3.795493    -4.226526
    7.257143     3.757259    -4.154271
    7.276692     3.722187    -4.081525
    7.296240     3.690205    -4.008454
    7.315789     3.661230    -3.935327
    7.335339     3.635176    -3.862275
    7.354887     3.611953    -3.789513
    7.374436     3.591412    -3.717156
    7.393984     3.573447    -3.645307
    7.413534     3.557945    -3.574090
    7.433082     3.544772    -3.503572
    7.452631     3.533817    -3.433785
    7.472180     3.524978    -3.364795
    7.491729     3.518149    -3.296615
    7.511279     3.513277    -3.229242
    7.530827     3.510292    -3.162713
    7.550376     3.509152    -3.096975
    7.569926     3.509825    -3.032107
    7.589474     3.512332    -2.968073
    7.609024     3.516649    -2.904888
    7.628572     3.522814    -2.842599
    7.648120     3.530829    -2.781249
    7.667669     3.540729    -2.720923
    7.687218     3.552528    -2.661715
    7.706768     3.566267    -2.603772
    7.726316     3.581883    -2.547149
    7.745865     3.599392    -2.492044
    7.765414     3.618717    -2.438593
    7.784962     3.639800    -2.386960
    7.804512     3.662537    -2.337307
    7.824061     3.686771    -2.289754
    7.843610     3.712376    -2.244460
    7.863158     3.739125    -2.201545
    7.882708     3.766824    -2.161101
    7.902255     3.795255    -2.123173
    7.921805     3.824154    -2.087785
    7.941354     3.853289    -2.054904
    7.960904     3.882419    -2.024545
    7.980452     3.911302    -1.996554
    8.000000     3.939747    -1.970847
# 
# 07/31/2018 at 12:10 YAMBO_RT @ narro [start]
# 07/31/2018 at 12:10                  [end]
#
# .-Input file : yambo.in
# | optics                         # [R OPT] Optics
# | bse                            # [R BSE] Bethe Salpeter Equation.
# | BoseTemp= 0.000000     eV      # Bosonic Temperature
# | FFTGvecs= 1721         RL      # [FFT] Plane-waves
# | BSEmod= "retarded"             # [BSE] resonant/retarded/coupling
# | BSKmod= "IP"                   # [BSE] IP/Hartree/HF/ALDA/SEX/BSfxc
# | MetDamp                        # [BSE] Define \w+=sqrt(\w*(\w+i\eta))
# | EvalKerr                       # [BSE] Compute the Kerr effect
# | AnHall                         # [BSE] Add the anomalous Hall effect to eps if using length gauge
# | % BEnRange
# |  0.200000 | 8.000000 | eV      # [BSS] Energy range
# | %
# | % BDmRange
# |  0.300000 | 0.500000 | eV      # [BSS] Damping range
# | %
# | BEnSteps=  400                 # [BSS] Energy steps
# | % BLongDir
# | 0.1000E-4 | 0.000    | 0.000    |        # [BSS] [cc] Electric Field
# | %
# | % BSEBands
# |   1 | 13 |                     # [BSK] Bands range
# | %
