#                                                           
#  __  __   ________   ___ __ __    _______   ______        
# /_/\/_/\ /_______/\ /__//_//_/\ /_______/\ /_____/\       
# \ \ \ \ \\::: _  \ \\::\| \| \ \\::: _  \ \\:::_ \ \      
#  \:\_\ \ \\::(_)  \ \\:.      \ \\::(_)  \/_\:\ \ \ \     
#   \::::_\/ \:: __  \ \\:.\-/\  \ \\::  _  \ \\:\ \ \ \    
#     \::\ \  \:.\ \  \ \\. \  \  \ \\::(_)  \ \\:\_\ \ \   
#      \__\/   \__\/\__\/ \__\/ \__\/ \_______\/ \_____\/   
#                                                           
#                                                           
#        Version 4.1.2 Revision 14038 Hash bd0d05e          
#                    MPI+OpenMP Build                       
#                http://www.yambo-code.org                  
#
# EELS @ Q(1)  [q->0 direction]:0.1000E-4  0.000     0.000   
#
#
# - Energies      are GoWo Plasmon Pole appox.
# - Wavefunctions are Teter 93(XC)
#
# - The Green`s function is Retarded -
# - Using the Length Gauge -
# - [r,Vnl] *is* included -
#
#   BSK|Identifier              :917
#      |Dimension               :96
#      |Bands                   :1 - 7
#      |Exchange           [res]: yes
#      |Correlation        [res]: yes
#      |Kernel`s coupling       : no
#      |Exchange           [cpl]: no
#      |Correlation        [cpl]: no
#      |W interaction is bare   : no
#      |ALDA kernel in R-space  : no
#      |RL vectors    [exchange]:363
#      |RL vectors [correlation]:1
#      |E/h energy range    [ev]:-1.000000 - -1.000000
#      |Coupling range     [o/o]: 100.0000 -  100.0000
#    W |Interaction is diagonal : no
#      |Matrix size             :1
#      |Bands                   :1 - 7
#      |e/h energy range    [ev]:-1.000000 - -1.000000
#      |Poles              [o/o]: 100.0000
#      |RL vectors in the sum   :363
#      |[r,Vnl] included        : yes
#      |Field direction         :0.1000E-4  0.000000  0.000000
#      |Coulomb Cutoff          :none
#      |xc-Kernel               :none
#   RIM|RL components      [col]:0
#      |Random points      [col]:0
#
#  E/ev[1]    EEL-Im[2]  EEL-Re[3]  EELo-Im[4] EELo-Re[5]
#
   0.00000   -0.00000   -0.02762   -0.00000   -0.02814
 0.1001E-1  0.2829E-5  -.2762E-1  0.2727E-5  -.2814E-1
 0.2002E-1  0.5657E-5  -.2762E-1  0.5453E-5  -.2814E-1
 0.3003E-1  0.8486E-5  -.2762E-1  0.8180E-5  -.2814E-1
 0.4004E-1  0.1131E-4  -.2762E-1  0.1091E-4  -.2814E-1
 0.5005E-1  0.1414E-4  -.2762E-1  0.1363E-4  -.2814E-1
 0.6006E-1  0.1697E-4  -.2762E-1  0.1636E-4  -.2814E-1
 0.7007E-1  0.1980E-4  -.2761E-1  0.1909E-4  -.2814E-1
 0.8008E-1  0.2263E-4  -.2761E-1  0.2181E-4  -.2813E-1
 0.9009E-1  0.2546E-4  -.2761E-1  0.2454E-4  -.2813E-1
 0.1001     0.2829E-4  -.2761E-1  0.2727E-4  -.2813E-1
 0.1101     0.3112E-4  -.2760E-1  0.2999E-4  -.2813E-1
 0.1201     0.3395E-4  -.2760E-1  0.3272E-4  -.2812E-1
 0.1301     0.3678E-4  -.2760E-1  0.3545E-4  -.2812E-1
 0.1401     0.3961E-4  -.2759E-1  0.3818E-4  -.2812E-1
 0.1502     0.4244E-4  -.2759E-1  0.4091E-4  -.2811E-1
 0.1602     0.4527E-4  -.2758E-1  0.4363E-4  -.2811E-1
 0.1702     0.4810E-4  -.2758E-1  0.4636E-4  -.2810E-1
 0.1802     0.5093E-4  -.2757E-1  0.4909E-4  -.2810E-1
 0.1902     0.5376E-4  -.2757E-1  0.5182E-4  -.2809E-1
 0.2002     0.5659E-4  -.2756E-1  0.5455E-4  -.2809E-1
 0.2102     0.5943E-4  -.2756E-1  0.5728E-4  -.2808E-1
 0.2202     0.6226E-4  -.2755E-1  0.6001E-4  -.2808E-1
 0.2302     0.6509E-4  -.2755E-1  0.6274E-4  -.2807E-1
 0.2402     0.6792E-4  -.2754E-1  0.6547E-4  -.2806E-1
 0.2503     0.7076E-4  -.2753E-1  0.6820E-4  -.2806E-1
 0.2603     0.7359E-4  -.2752E-1  0.7093E-4  -.2805E-1
 0.2703     0.7642E-4  -.2752E-1  0.7366E-4  -.2804E-1
 0.2803     0.7926E-4  -.2751E-1  0.7639E-4  -.2804E-1
 0.2903     0.8209E-4  -.2750E-1  0.7912E-4  -.2803E-1
 0.3003     0.8493E-4  -.2749E-1  0.8186E-4  -.2802E-1
 0.3103     0.8776E-4  -.2748E-1  0.8459E-4  -.2801E-1
 0.3203     0.9060E-4  -.2748E-1  0.8732E-4  -.2800E-1
 0.3303     0.9344E-4  -.2747E-1  0.9006E-4  -.2799E-1
 0.3403     0.9627E-4  -.2746E-1  0.9279E-4  -.2799E-1
 0.3504     0.9911E-4  -.2745E-1  0.9553E-4  -.2798E-1
 0.3604     0.1020E-3  -.2744E-1  0.9826E-4  -.2797E-1
 0.3704     0.1048E-3  -.2743E-1  0.1010E-3  -.2796E-1
 0.3804     0.1076E-3  -.2742E-1  0.1037E-3  -.2795E-1
 0.3904     0.1105E-3  -.2740E-1  0.1065E-3  -.2794E-1
 0.4004     0.1133E-3  -.2739E-1  0.1092E-3  -.2793E-1
 0.4104     0.1162E-3  -.2738E-1  0.1119E-3  -.2791E-1
 0.4204     0.1190E-3  -.2737E-1  0.1147E-3  -.2790E-1
 0.4304     0.1218E-3  -.2736E-1  0.1174E-3  -.2789E-1
 0.4404     0.1247E-3  -.2735E-1  0.1202E-3  -.2788E-1
 0.4505     0.1275E-3  -.2733E-1  0.1229E-3  -.2787E-1
 0.4605     0.1304E-3  -.2732E-1  0.1256E-3  -.2785E-1
 0.4705     0.1332E-3  -.2731E-1  0.1284E-3  -.2784E-1
 0.4805     0.1361E-3  -.2729E-1  0.1311E-3  -.2783E-1
 0.4905     0.1389E-3  -.2728E-1  0.1339E-3  -.2782E-1
 0.5005     0.1418E-3  -.2727E-1  0.1366E-3  -.2780E-1
 0.5105     0.1446E-3  -.2725E-1  0.1394E-3  -.2779E-1
 0.5205     0.1474E-3  -.2724E-1  0.1421E-3  -.2777E-1
 0.5305     0.1503E-3  -.2722E-1  0.1448E-3  -.2776E-1
 0.5405     0.1531E-3  -.2721E-1  0.1476E-3  -.2775E-1
 0.5506     0.1560E-3  -.2719E-1  0.1503E-3  -.2773E-1
 0.5606     0.1589E-3  -.2718E-1  0.1531E-3  -.2772E-1
 0.5706     0.1617E-3  -.2716E-1  0.1558E-3  -.2770E-1
 0.5806     0.1646E-3  -.2714E-1  0.1586E-3  -.2768E-1
 0.5906     0.1674E-3  -.2713E-1  0.1613E-3  -.2767E-1
 0.6006     0.1703E-3  -.2711E-1  0.1641E-3  -.2765E-1
 0.6106     0.1731E-3  -.2709E-1  0.1668E-3  -.2764E-1
 0.6206     0.1760E-3  -.2708E-1  0.1696E-3  -.2762E-1
 0.6306     0.1788E-3  -.2706E-1  0.1723E-3  -.2760E-1
 0.6406     0.1817E-3  -.2704E-1  0.1751E-3  -.2758E-1
 0.6507     0.1846E-3  -.2702E-1  0.1779E-3  -.2757E-1
 0.6607     0.1874E-3  -.2700E-1  0.1806E-3  -.2755E-1
 0.6707     0.1903E-3  -.2698E-1  0.1834E-3  -.2753E-1
 0.6807     0.1932E-3  -.2696E-1  0.1861E-3  -.2751E-1
 0.6907     0.1960E-3  -.2694E-1  0.1889E-3  -.2749E-1
 0.7007     0.1989E-3  -.2693E-1  0.1917E-3  -.2747E-1
 0.7107     0.2018E-3  -.2691E-1  0.1944E-3  -.2745E-1
 0.7207     0.2046E-3  -.2688E-1  0.1972E-3  -.2743E-1
 0.7307     0.2075E-3  -.2686E-1  0.1999E-3  -.2741E-1
 0.7407     0.2104E-3  -.2684E-1  0.2027E-3  -.2739E-1
 0.7508     0.2132E-3  -.2682E-1  0.2055E-3  -.2737E-1
 0.7608     0.2161E-3  -.2680E-1  0.2082E-3  -.2735E-1
 0.7708     0.2190E-3  -.2678E-1  0.2110E-3  -.2733E-1
 0.7808     0.2219E-3  -.2676E-1  0.2138E-3  -.2731E-1
 0.7908     0.2247E-3  -.2673E-1  0.2165E-3  -.2729E-1
 0.8008     0.2276E-3  -.2671E-1  0.2193E-3  -.2727E-1
 0.8108     0.2305E-3  -.2669E-1  0.2221E-3  -.2725E-1
 0.8208     0.2334E-3  -.2667E-1  0.2249E-3  -.2722E-1
 0.8308     0.2363E-3  -.2664E-1  0.2276E-3  -.2720E-1
 0.8408     0.2391E-3  -.2662E-1  0.2304E-3  -.2718E-1
 0.8509     0.2420E-3  -.2659E-1  0.2332E-3  -.2715E-1
 0.8609     0.2449E-3  -.2657E-1  0.2360E-3  -.2713E-1
 0.8709     0.2478E-3  -.2655E-1  0.2388E-3  -.2711E-1
 0.8809     0.2507E-3  -.2652E-1  0.2415E-3  -.2708E-1
 0.8909     0.2536E-3  -.2649E-1  0.2443E-3  -.2706E-1
 0.9009     0.2565E-3  -.2647E-1  0.2471E-3  -.2703E-1
 0.9109     0.2594E-3  -.2644E-1  0.2499E-3  -.2701E-1
 0.9209     0.2623E-3  -.2642E-1  0.2527E-3  -.2698E-1
 0.9309     0.2652E-3  -.2639E-1  0.2555E-3  -.2696E-1
 0.9409     0.2681E-3  -.2636E-1  0.2583E-3  -.2693E-1
 0.9510     0.2710E-3  -.2634E-1  0.2610E-3  -.2691E-1
 0.9610     0.2739E-3  -.2631E-1  0.2638E-3  -.2688E-1
 0.9710     0.2768E-3  -.2628E-1  0.2666E-3  -.2685E-1
 0.9810     0.2797E-3  -.2625E-1  0.2694E-3  -.2683E-1
 0.9910     0.2826E-3  -.2623E-1  0.2722E-3  -.2680E-1
  1.001     0.2855E-3  -.2620E-1  0.2750E-3  -.2677E-1
  1.011     0.2884E-3  -.2617E-1  0.2778E-3  -.2675E-1
  1.021     0.2913E-3  -.2614E-1  0.2806E-3  -.2672E-1
  1.031     0.2942E-3  -.2611E-1  0.2834E-3  -.2669E-1
  1.041     0.2971E-3  -.2608E-1  0.2862E-3  -.2666E-1
  1.051     0.3000E-3  -.2605E-1  0.2890E-3  -.2663E-1
  1.061     0.3030E-3  -.2602E-1  0.2919E-3  -.2660E-1
  1.071     0.3059E-3  -.2599E-1  0.2947E-3  -.2657E-1
  1.081     0.3088E-3  -.2596E-1  0.2975E-3  -.2654E-1
  1.091     0.3117E-3  -.2593E-1  0.3003E-3  -.2651E-1
  1.101     0.3147E-3  -.2590E-1  0.3031E-3  -.2648E-1
  1.111     0.3176E-3  -.2587E-1  0.3059E-3  -.2645E-1
  1.121     0.3205E-3  -.2583E-1  0.3087E-3  -.2642E-1
  1.131     0.3235E-3  -.2580E-1  0.3116E-3  -.2639E-1
  1.141     0.3264E-3  -.2577E-1  0.3144E-3  -.2636E-1
  1.151     0.3293E-3  -.2574E-1  0.3172E-3  -.2633E-1
  1.161     0.3323E-3  -.2570E-1  0.3200E-3  -.2630E-1
  1.171     0.3352E-3  -.2567E-1  0.3229E-3  -.2626E-1
  1.181     0.3381E-3  -.2564E-1  0.3257E-3  -.2623E-1
  1.191     0.3411E-3  -.2560E-1  0.3285E-3  -.2620E-1
  1.201     0.3440E-3  -.2557E-1  0.3314E-3  -.2617E-1
  1.211     0.3470E-3  -.2553E-1  0.3342E-3  -.2613E-1
  1.221     0.3499E-3  -.2550E-1  0.3370E-3  -.2610E-1
  1.231     0.3529E-3  -.2546E-1  0.3399E-3  -.2607E-1
  1.241     0.3559E-3  -.2543E-1  0.3427E-3  -.2603E-1
  1.251     0.3588E-3  -.2539E-1  0.3456E-3  -.2600E-1
  1.261     0.3618E-3  -.2536E-1  0.3484E-3  -.2596E-1
  1.271     0.3647E-3  -.2532E-1  0.3513E-3  -.2593E-1
  1.281     0.3677E-3  -.2528E-1  0.3541E-3  -.2589E-1
  1.291     0.3707E-3  -.2525E-1  0.3570E-3  -.2586E-1
  1.301     0.3736E-3  -.2521E-1  0.3598E-3  -.2582E-1
  1.311     0.3766E-3  -.2517E-1  0.3627E-3  -.2578E-1
  1.321     0.3796E-3  -.2513E-1  0.3656E-3  -.2575E-1
  1.331     0.3826E-3  -.2510E-1  0.3684E-3  -.2571E-1
  1.341     0.3856E-3  -.2506E-1  0.3713E-3  -.2567E-1
  1.351     0.3885E-3  -.2502E-1  0.3742E-3  -.2564E-1
  1.361     0.3915E-3  -.2498E-1  0.3770E-3  -.2560E-1
  1.371     0.3945E-3  -.2494E-1  0.3799E-3  -.2556E-1
  1.381     0.3975E-3  -.2490E-1  0.3828E-3  -.2552E-1
  1.391     0.4005E-3  -.2486E-1  0.3857E-3  -.2548E-1
  1.401     0.4035E-3  -.2482E-1  0.3885E-3  -.2545E-1
  1.411     0.4065E-3  -.2478E-1  0.3914E-3  -.2541E-1
  1.421     0.4095E-3  -.2474E-1  0.3943E-3  -.2537E-1
  1.431     0.4125E-3  -.2470E-1  0.3972E-3  -.2533E-1
  1.441     0.4155E-3  -.2466E-1  0.4001E-3  -.2529E-1
  1.451     0.4185E-3  -.2461E-1  0.4030E-3  -.2525E-1
  1.461     0.4215E-3  -.2457E-1  0.4059E-3  -.2521E-1
  1.471     0.4246E-3  -.2453E-1  0.4088E-3  -.2517E-1
  1.481     0.4276E-3  -.2449E-1  0.4117E-3  -.2513E-1
  1.491     0.4306E-3  -.2444E-1  0.4146E-3  -.2508E-1
  1.502     0.4336E-3  -.2440E-1  0.4175E-3  -.2504E-1
  1.512     0.4367E-3  -.2436E-1  0.4204E-3  -.2500E-1
  1.522     0.4397E-3  -.2431E-1  0.4233E-3  -.2496E-1
  1.532     0.4427E-3  -.2427E-1  0.4262E-3  -.2492E-1
  1.542     0.4458E-3  -.2423E-1  0.4292E-3  -.2487E-1
  1.552     0.4488E-3  -.2418E-1  0.4321E-3  -.2483E-1
  1.562     0.4518E-3  -.2414E-1  0.4350E-3  -.2479E-1
  1.572     0.4549E-3  -.2409E-1  0.4379E-3  -.2474E-1
  1.582     0.4579E-3  -.2404E-1  0.4409E-3  -.2470E-1
  1.592     0.4610E-3  -.2400E-1  0.4438E-3  -.2466E-1
  1.602     0.4641E-3  -.2395E-1  0.4467E-3  -.2461E-1
  1.612     0.4671E-3  -.2391E-1  0.4497E-3  -.2457E-1
  1.622     0.4702E-3  -.2386E-1  0.4526E-3  -.2452E-1
  1.632     0.4733E-3  -.2381E-1  0.4556E-3  -.2448E-1
  1.642     0.4763E-3  -.2376E-1  0.4585E-3  -.2443E-1
  1.652     0.4794E-3  -.2372E-1  0.4615E-3  -.2438E-1
  1.662     0.4825E-3  -.2367E-1  0.4645E-3  -.2434E-1
  1.672     0.4856E-3  -.2362E-1  0.4674E-3  -.2429E-1
  1.682     0.4887E-3  -.2357E-1  0.4704E-3  -.2424E-1
  1.692     0.4918E-3  -.2352E-1  0.4734E-3  -.2420E-1
  1.702     0.4949E-3  -.2347E-1  0.4763E-3  -.2415E-1
  1.712     0.4980E-3  -.2342E-1  0.4793E-3  -.2410E-1
  1.722     0.5011E-3  -.2337E-1  0.4823E-3  -.2405E-1
  1.732     0.5042E-3  -.2332E-1  0.4853E-3  -.2400E-1
  1.742     0.5073E-3  -.2327E-1  0.4883E-3  -.2396E-1
  1.752     0.5104E-3  -.2322E-1  0.4913E-3  -.2391E-1
  1.762     0.5135E-3  -.2317E-1  0.4943E-3  -.2386E-1
  1.772     0.5167E-3  -.2312E-1  0.4973E-3  -.2381E-1
  1.782     0.5198E-3  -.2307E-1  0.5003E-3  -.2376E-1
  1.792     0.5229E-3  -.2301E-1  0.5033E-3  -.2371E-1
  1.802     0.5261E-3  -.2296E-1  0.5063E-3  -.2366E-1
  1.812     0.5292E-3  -.2291E-1  0.5093E-3  -.2361E-1
  1.822     0.5323E-3  -.2286E-1  0.5123E-3  -.2356E-1
  1.832     0.5355E-3  -.2280E-1  0.5154E-3  -.2350E-1
  1.842     0.5387E-3  -.2275E-1  0.5184E-3  -.2345E-1
  1.852     0.5418E-3  -.2269E-1  0.5214E-3  -.2340E-1
  1.862     0.5450E-3  -.2264E-1  0.5245E-3  -.2335E-1
  1.872     0.5481E-3  -.2259E-1  0.5275E-3  -.2329E-1
  1.882     0.5513E-3  -.2253E-1  0.5306E-3  -.2324E-1
  1.892     0.5545E-3  -.2248E-1  0.5336E-3  -.2319E-1
  1.902     0.5577E-3  -.2242E-1  0.5367E-3  -.2314E-1
  1.912     0.5609E-3  -.2236E-1  0.5397E-3  -.2308E-1
  1.922     0.5641E-3  -.2231E-1  0.5428E-3  -.2303E-1
  1.932     0.5673E-3  -.2225E-1  0.5459E-3  -.2297E-1
  1.942     0.5705E-3  -.2219E-1  0.5489E-3  -.2292E-1
  1.952     0.5737E-3  -.2214E-1  0.5520E-3  -.2286E-1
  1.962     0.5769E-3  -.2208E-1  0.5551E-3  -.2281E-1
  1.972     0.5801E-3  -.2202E-1  0.5582E-3  -.2275E-1
  1.982     0.5834E-3  -.2196E-1  0.5613E-3  -.2270E-1
  1.992     0.5866E-3  -.2190E-1  0.5644E-3  -.2264E-1
  2.002     0.5898E-3  -.2185E-1  0.5675E-3  -.2258E-1
  2.012     0.5931E-3  -.2179E-1  0.5706E-3  -.2253E-1
  2.022     0.5963E-3  -.2173E-1  0.5738E-3  -.2247E-1
  2.032     0.5996E-3  -.2167E-1  0.5769E-3  -.2241E-1
  2.042     0.6028E-3  -.2161E-1  0.5800E-3  -.2235E-1
  2.052     0.6061E-3  -.2155E-1  0.5832E-3  -.2229E-1
  2.062     0.6094E-3  -.2149E-1  0.5863E-3  -.2224E-1
  2.072     0.6127E-3  -.2142E-1  0.5894E-3  -.2218E-1
  2.082     0.6160E-3  -.2136E-1  0.5926E-3  -.2212E-1
  2.092     0.6192E-3  -.2130E-1  0.5958E-3  -.2206E-1
  2.102     0.6225E-3  -.2124E-1  0.5989E-3  -.2200E-1
  2.112     0.6259E-3  -.2118E-1  0.6021E-3  -.2194E-1
  2.122     0.6292E-3  -.2111E-1  0.6053E-3  -.2188E-1
  2.132     0.6325E-3  -.2105E-1  0.6085E-3  -.2182E-1
  2.142     0.6358E-3  -.2099E-1  0.6117E-3  -.2176E-1
  2.152     0.6391E-3  -.2092E-1  0.6149E-3  -.2170E-1
  2.162     0.6425E-3  -.2086E-1  0.6181E-3  -.2163E-1
  2.172     0.6458E-3  -.2079E-1  0.6213E-3  -.2157E-1
  2.182     0.6492E-3  -.2073E-1  0.6245E-3  -.2151E-1
  2.192     0.6525E-3  -.2066E-1  0.6277E-3  -.2145E-1
  2.202     0.6559E-3  -.2060E-1  0.6310E-3  -.2138E-1
  2.212     0.6593E-3  -.2053E-1  0.6342E-3  -.2132E-1
  2.222     0.6627E-3  -.2047E-1  0.6375E-3  -.2126E-1
  2.232     0.6661E-3  -.2040E-1  0.6407E-3  -.2119E-1
  2.242     0.6695E-3  -.2033E-1  0.6440E-3  -.2113E-1
  2.252     0.6729E-3  -.2027E-1  0.6472E-3  -.2106E-1
  2.262     0.6763E-3  -.2020E-1  0.6505E-3  -.2100E-1
  2.272     0.6797E-3  -.2013E-1  0.6538E-3  -.2093E-1
  2.282     0.6831E-3  -.2006E-1  0.6571E-3  -.2087E-1
  2.292     0.6866E-3  -.1999E-1  0.6604E-3  -.2080E-1
  2.302     0.6900E-3  -.1993E-1  0.6637E-3  -.2074E-1
  2.312     0.6935E-3  -.1986E-1  0.6670E-3  -.2067E-1
  2.322     0.6969E-3  -.1979E-1  0.6704E-3  -.2060E-1
  2.332     0.7004E-3  -.1972E-1  0.6737E-3  -.2054E-1
  2.342     0.7039E-3  -.1965E-1  0.6770E-3  -.2047E-1
  2.352     0.7074E-3  -.1958E-1  0.6804E-3  -.2040E-1
  2.362     0.7109E-3  -.1951E-1  0.6838E-3  -.2033E-1
  2.372     0.7144E-3  -.1943E-1  0.6871E-3  -.2026E-1
  2.382     0.7179E-3  -.1936E-1  0.6905E-3  -.2019E-1
  2.392     0.7214E-3  -.1929E-1  0.6939E-3  -.2013E-1
  2.402     0.7250E-3  -.1922E-1  0.6973E-3  -.2006E-1
  2.412     0.7285E-3  -.1915E-1  0.7007E-3  -.1999E-1
  2.422     0.7321E-3  -.1907E-1  0.7041E-3  -.1992E-1
  2.432     0.7357E-3  -.1900E-1  0.7076E-3  -.1984E-1
  2.442     0.7392E-3  -.1893E-1  0.7110E-3  -.1977E-1
  2.452     0.7428E-3  -.1885E-1  0.7145E-3  -.1970E-1
  2.462     0.7464E-3  -.1878E-1  0.7179E-3  -.1963E-1
  2.472     0.7500E-3  -.1870E-1  0.7214E-3  -.1956E-1
  2.482     0.7537E-3  -.1863E-1  0.7249E-3  -.1949E-1
  2.492     0.7573E-3  -.1855E-1  0.7284E-3  -.1941E-1
  2.503     0.7609E-3  -.1848E-1  0.7319E-3  -.1934E-1
  2.513     0.7646E-3  -.1840E-1  0.7354E-3  -.1927E-1
  2.523     0.7683E-3  -.1832E-1  0.7389E-3  -.1919E-1
  2.533     0.7719E-3  -.1824E-1  0.7425E-3  -.1912E-1
  2.543     0.7756E-3  -.1817E-1  0.7460E-3  -.1904E-1
  2.553     0.7793E-3  -.1809E-1  0.7496E-3  -.1897E-1
  2.563     0.7831E-3  -.1801E-1  0.7532E-3  -.1889E-1
  2.573     0.7868E-3  -.1793E-1  0.7567E-3  -.1882E-1
  2.583     0.7905E-3  -.1785E-1  0.7604E-3  -.1874E-1
  2.593     0.7943E-3  -.1777E-1  0.7640E-3  -.1867E-1
  2.603     0.7980E-3  -.1770E-1  0.7676E-3  -.1859E-1
  2.613     0.8018E-3  -.1762E-1  0.7712E-3  -.1851E-1
  2.623     0.8056E-3  -.1753E-1  0.7749E-3  -.1844E-1
  2.633     0.8094E-3  -.1745E-1  0.7786E-3  -.1836E-1
  2.643     0.8133E-3  -.1737E-1  0.7823E-3  -.1828E-1
  2.653     0.8171E-3  -.1729E-1  0.7860E-3  -.1820E-1
  2.663     0.8210E-3  -.1721E-1  0.7897E-3  -.1812E-1
  2.673     0.8248E-3  -.1713E-1  0.7934E-3  -.1804E-1
  2.683     0.8287E-3  -.1704E-1  0.7971E-3  -.1796E-1
  2.693     0.8326E-3  -.1696E-1  0.8009E-3  -.1788E-1
  2.703     0.8365E-3  -.1688E-1  0.8047E-3  -.1780E-1
  2.713     0.8405E-3  -.1679E-1  0.8085E-3  -.1772E-1
  2.723     0.8444E-3  -.1671E-1  0.8123E-3  -.1764E-1
  2.733     0.8484E-3  -.1662E-1  0.8161E-3  -.1756E-1
  2.743     0.8524E-3  -.1654E-1  0.8200E-3  -.1748E-1
  2.753     0.8564E-3  -.1645E-1  0.8238E-3  -.1740E-1
  2.763     0.8604E-3  -.1637E-1  0.8277E-3  -.1731E-1
  2.773     0.8644E-3  -.1628E-1  0.8316E-3  -.1723E-1
  2.783     0.8685E-3  -.1620E-1  0.8355E-3  -.1715E-1
  2.793     0.8726E-3  -.1611E-1  0.8395E-3  -.1706E-1
  2.803     0.8767E-3  -.1602E-1  0.8434E-3  -.1698E-1
  2.813     0.8808E-3  -.1593E-1  0.8474E-3  -.1690E-1
  2.823     0.8849E-3  -.1584E-1  0.8514E-3  -.1681E-1
  2.833     0.8891E-3  -.1576E-1  0.8554E-3  -.1673E-1
  2.843     0.8933E-3  -.1567E-1  0.8595E-3  -.1664E-1
  2.853     0.8975E-3  -.1558E-1  0.8635E-3  -.1655E-1
  2.863     0.9017E-3  -.1549E-1  0.8676E-3  -.1647E-1
  2.873     0.9059E-3  -.1540E-1  0.8717E-3  -.1638E-1
  2.883     0.9102E-3  -.1531E-1  0.8758E-3  -.1629E-1
  2.893     0.9145E-3  -.1522E-1  0.8800E-3  -.1620E-1
  2.903     0.9188E-3  -.1512E-1  0.8842E-3  -.1612E-1
  2.913     0.9231E-3  -.1503E-1  0.8884E-3  -.1603E-1
  2.923     0.9275E-3  -.1494E-1  0.8926E-3  -.1594E-1
  2.933     0.9319E-3  -.1485E-1  0.8969E-3  -.1585E-1
  2.943     0.9363E-3  -.1475E-1  0.9011E-3  -.1576E-1
  2.953     0.9408E-3  -.1466E-1  0.9054E-3  -.1567E-1
  2.963     0.9452E-3  -.1456E-1  0.9098E-3  -.1558E-1
  2.973     0.9497E-3  -.1447E-1  0.9141E-3  -.1549E-1
  2.983     0.9543E-3  -.1437E-1  0.9185E-3  -.1540E-1
  2.993     0.9588E-3  -.1428E-1  0.9230E-3  -.1530E-1
  3.003     0.9634E-3  -.1418E-1  0.9274E-3  -.1521E-1
  3.013     0.9680E-3  -.1409E-1  0.9319E-3  -.1512E-1
  3.023     0.9727E-3  -.1399E-1  0.9364E-3  -.1502E-1
  3.033     0.9774E-3  -.1389E-1  0.9410E-3  -.1493E-1
  3.043     0.9821E-3  -.1379E-1  0.9456E-3  -.1484E-1
  3.053     0.9868E-3  -.1369E-1  0.9502E-3  -.1474E-1
  3.063     0.9916E-3  -.1360E-1  0.9548E-3  -.1465E-1
  3.073     0.9964E-3  -.1350E-1  0.9595E-3  -.1455E-1
  3.083     0.1001E-2  -.1340E-1  0.9642E-3  -.1445E-1
  3.093     0.1006E-2  -.1330E-1  0.9690E-3  -.1436E-1
  3.103     0.1011E-2  -.1320E-1  0.9738E-3  -.1426E-1
  3.113     0.1016E-2  -.1309E-1  0.9787E-3  -.1416E-1
  3.123     0.1021E-2  -.1299E-1  0.9835E-3  -.1407E-1
  3.133     0.1026E-2  -.1289E-1  0.9885E-3  -.1397E-1
  3.143     0.1031E-2  -.1279E-1  0.9934E-3  -.1387E-1
  3.153     0.1036E-2  -.1268E-1  0.9985E-3  -.1377E-1
  3.163     0.1042E-2  -.1258E-1  0.1004E-2  -.1367E-1
  3.173     0.1047E-2  -.1248E-1  0.1009E-2  -.1357E-1
  3.183     0.1052E-2  -.1237E-1  0.1014E-2  -.1347E-1
  3.193     0.1057E-2  -.1227E-1  0.1019E-2  -.1336E-1
  3.203     0.1063E-2  -.1216E-1  0.1024E-2  -.1326E-1
  3.213     0.1068E-2  -.1205E-1  0.1030E-2  -.1316E-1
  3.223     0.1074E-2  -.1195E-1  0.1035E-2  -.1306E-1
  3.233     0.1079E-2  -.1184E-1  0.1040E-2  -.1295E-1
  3.243     0.1085E-2  -.1173E-1  0.1046E-2  -.1285E-1
  3.253     0.1091E-2  -.1162E-1  0.1051E-2  -.1274E-1
  3.263     0.1096E-2  -.1151E-1  0.1057E-2  -.1264E-1
  3.273     0.1102E-2  -.1140E-1  0.1063E-2  -.1253E-1
  3.283     0.1108E-2  -.1129E-1  0.1068E-2  -.1243E-1
  3.293     0.1114E-2  -.1118E-1  0.1074E-2  -.1232E-1
  3.303     0.1120E-2  -.1107E-1  0.1080E-2  -.1221E-1
  3.313     0.1126E-2  -.1096E-1  0.1086E-2  -.1210E-1
  3.323     0.1132E-2  -.1084E-1  0.1092E-2  -.1200E-1
  3.333     0.1139E-2  -.1073E-1  0.1098E-2  -.1189E-1
  3.343     0.1145E-2  -.1062E-1  0.1104E-2  -.1178E-1
  3.353     0.1151E-2  -.1050E-1  0.1111E-2  -.1167E-1
  3.363     0.1158E-2  -.1039E-1  0.1117E-2  -.1155E-1
  3.373     0.1164E-2  -.1027E-1  0.1124E-2  -.1144E-1
  3.383     0.1171E-2  -.1015E-1  0.1130E-2  -.1133E-1
  3.393     0.1178E-2  -.1004E-1  0.1137E-2  -.1122E-1
  3.403     0.1185E-2  -.9920E-2  0.1144E-2  -.1110E-1
  3.413     0.1192E-2  -.9801E-2  0.1150E-2  -.1099E-1
  3.423     0.1199E-2  -.9682E-2  0.1157E-2  -.1087E-1
  3.433     0.1206E-2  -.9562E-2  0.1164E-2  -.1076E-1
  3.443     0.1214E-2  -.9441E-2  0.1172E-2  -.1064E-1
  3.453     0.1221E-2  -.9320E-2  0.1179E-2  -.1052E-1
  3.463     0.1229E-2  -.9198E-2  0.1186E-2  -.1041E-1
  3.473     0.1237E-2  -.9075E-2  0.1194E-2  -.1029E-1
  3.483     0.1244E-2  -.8951E-2  0.1202E-2  -.1017E-1
  3.493     0.1253E-2  -.8827E-2  0.1210E-2  -.1005E-1
  3.504     0.1261E-2  -.8702E-2  0.1218E-2  -.9927E-2
  3.514     0.1269E-2  -.8576E-2  0.1226E-2  -.9805E-2
  3.524     0.1278E-2  -.8449E-2  0.1234E-2  -.9682E-2
  3.534     0.1287E-2  -.8321E-2  0.1243E-2  -.9559E-2
  3.544     0.1296E-2  -.8193E-2  0.1252E-2  -.9435E-2
  3.554     0.1305E-2  -.8063E-2  0.1261E-2  -.9310E-2
  3.564     0.1314E-2  -.7933E-2  0.1270E-2  -.9184E-2
  3.574     0.1324E-2  -.7802E-2  0.1279E-2  -.9057E-2
  3.584     0.1334E-2  -.7670E-2  0.1289E-2  -.8929E-2
  3.594     0.1344E-2  -.7537E-2  0.1299E-2  -.8801E-2
  3.604     0.1355E-2  -.7403E-2  0.1309E-2  -.8671E-2
  3.614     0.1366E-2  -.7267E-2  0.1319E-2  -.8541E-2
  3.624     0.1377E-2  -.7131E-2  0.1330E-2  -.8409E-2
  3.634     0.1388E-2  -.6994E-2  0.1341E-2  -.8277E-2
  3.644     0.1400E-2  -.6856E-2  0.1352E-2  -.8143E-2
  3.654     0.1412E-2  -.6717E-2  0.1364E-2  -.8008E-2
  3.664     0.1425E-2  -.6576E-2  0.1376E-2  -.7872E-2
  3.674     0.1438E-2  -.6435E-2  0.1389E-2  -.7736E-2
  3.684     0.1452E-2  -.6292E-2  0.1402E-2  -.7598E-2
  3.694     0.1466E-2  -.6148E-2  0.1415E-2  -.7458E-2
  3.704     0.1480E-2  -.6002E-2  0.1429E-2  -.7318E-2
  3.714     0.1496E-2  -.5856E-2  0.1443E-2  -.7176E-2
  3.724     0.1512E-2  -.5708E-2  0.1458E-2  -.7033E-2
  3.734     0.1529E-2  -.5558E-2  0.1474E-2  -.6889E-2
  3.744     0.1546E-2  -.5407E-2  0.1490E-2  -.6743E-2
  3.754     0.1564E-2  -.5255E-2  0.1508E-2  -.6596E-2
  3.764     0.1584E-2  -.5101E-2  0.1525E-2  -.6447E-2
  3.774     0.1604E-2  -.4945E-2  0.1544E-2  -.6297E-2
  3.784     0.1625E-2  -.4788E-2  0.1564E-2  -.6145E-2
  3.794     0.1648E-2  -.4629E-2  0.1585E-2  -.5992E-2
  3.804     0.1672E-2  -.4468E-2  0.1607E-2  -.5836E-2
  3.814     0.1698E-2  -.4306E-2  0.1630E-2  -.5680E-2
  3.824     0.1725E-2  -.4141E-2  0.1655E-2  -.5521E-2
  3.834     0.1754E-2  -.3974E-2  0.1681E-2  -.5361E-2
  3.844     0.1785E-2  -.3806E-2  0.1709E-2  -.5199E-2
  3.854     0.1818E-2  -.3635E-2  0.1739E-2  -.5034E-2
  3.864     0.1854E-2  -.3462E-2  0.1772E-2  -.4868E-2
  3.874     0.1893E-2  -.3287E-2  0.1807E-2  -.4701E-2
  3.884     0.1935E-2  -.3110E-2  0.1844E-2  -.4531E-2
  3.894     0.1981E-2  -.2931E-2  0.1885E-2  -.4359E-2
  3.904     0.2031E-2  -.2749E-2  0.1929E-2  -.4185E-2
  3.914     0.2086E-2  -.2565E-2  0.1978E-2  -.4010E-2
  3.924     0.2146E-2  -.2380E-2  0.2031E-2  -.3834E-2
  3.934     0.2212E-2  -.2192E-2  0.2089E-2  -.3656E-2
  3.944     0.2284E-2  -.2003E-2  0.2152E-2  -.3478E-2
  3.954     0.2365E-2  -.1814E-2  0.2223E-2  -.3300E-2
  3.964     0.2454E-2  -.1624E-2  0.2300E-2  -.3123E-2
  3.974     0.2553E-2  -.1435E-2  0.2385E-2  -.2947E-2
  3.984     0.2663E-2  -.1248E-2  0.2478E-2  -.2776E-2
  3.994     0.2786E-2  -.1064E-2  0.2580E-2  -.2609E-2
  4.004     0.2921E-2  -.8866E-3  0.2691E-2  -.2451E-2
  4.014     0.3071E-2  -.7180E-3  0.2810E-2  -.2303E-2
  4.024     0.3236E-2  -.5619E-3  0.2935E-2  -.2168E-2
  4.034     0.3415E-2  -.4230E-3  0.3065E-2  -.2050E-2
  4.044     0.3607E-2  -.3067E-3  0.3194E-2  -.1952E-2
  4.054     0.3808E-2  -.2188E-3  0.3318E-2  -.1875E-2
  4.064     0.4013E-2  -.1652E-3  0.3430E-2  -.1820E-2
  4.074     0.4213E-2  -.1504E-3  0.3522E-2  -.1784E-2
  4.084     0.4396E-2  -.1764E-3  0.3587E-2  -.1761E-2
  4.094     0.4548E-2  -.2408E-3  0.3621E-2  -.1743E-2
  4.104     0.4658E-2  -.3361E-3  0.3623E-2  -.1720E-2
  4.114     0.4716E-2  -.4493E-3  0.3596E-2  -.1683E-2
  4.124     0.4716E-2  -.5640E-3  0.3546E-2  -.1624E-2
  4.134     0.4661E-2  -.6631E-3  0.3481E-2  -.1539E-2
  4.144     0.4559E-2  -.7324E-3  0.3407E-2  -.1427E-2
  4.154     0.4422E-2  -.7620E-3  0.3333E-2  -.1289E-2
  4.164     0.4265E-2  -.7479E-3  0.3262E-2  -.1128E-2
  4.174     0.4098E-2  -.6906E-3  0.3198E-2  -.9472E-3
  4.184     0.3933E-2  -.5939E-3  0.3143E-2  -.7495E-3
  4.194     0.3775E-2  -.4632E-3  0.3099E-2  -.5383E-3
  4.204     0.3630E-2  -.3046E-3  0.3065E-2  -.3160E-3
  4.214     0.3499E-2  -.1236E-3  0.3040E-2  -.8448E-4
  4.224     0.3384E-2  0.7482E-4  0.3026E-2  0.1547E-3
  4.234     0.3284E-2  0.2867E-3  0.3020E-2  0.4007E-3
  4.244     0.3197E-2  0.5089E-3  0.3023E-2  0.6528E-3
  4.254     0.3124E-2  0.7391E-3  0.3034E-2  0.9106E-3
  4.264     0.3063E-2  0.9756E-3  0.3053E-2  0.1174E-2
  4.274     0.3013E-2  0.1217E-2  0.3080E-2  0.1443E-2
  4.284     0.2973E-2  0.1463E-2  0.3114E-2  0.1717E-2
  4.294     0.2941E-2  0.1712E-2  0.3156E-2  0.1997E-2
  4.304     0.2918E-2  0.1965E-2  0.3206E-2  0.2283E-2
  4.314     0.2903E-2  0.2220E-2  0.3264E-2  0.2574E-2
  4.324     0.2894E-2  0.2479E-2  0.3329E-2  0.2871E-2
  4.334     0.2893E-2  0.2740E-2  0.3403E-2  0.3175E-2
  4.344     0.2897E-2  0.3003E-2  0.3486E-2  0.3485E-2
  4.354     0.2908E-2  0.3270E-2  0.3579E-2  0.3801E-2
  4.364     0.2924E-2  0.3539E-2  0.3681E-2  0.4125E-2
  4.374     0.2946E-2  0.3811E-2  0.3794E-2  0.4457E-2
  4.384     0.2974E-2  0.4087E-2  0.3919E-2  0.4797E-2
  4.394     0.3007E-2  0.4366E-2  0.4056E-2  0.5145E-2
  4.404     0.3045E-2  0.4648E-2  0.4207E-2  0.5503E-2
  4.414     0.3089E-2  0.4934E-2  0.4373E-2  0.5870E-2
  4.424     0.3138E-2  0.5225E-2  0.4556E-2  0.6246E-2
  4.434     0.3194E-2  0.5520E-2  0.4759E-2  0.6633E-2
  4.444     0.3255E-2  0.5820E-2  0.4982E-2  0.7030E-2
  4.454     0.3323E-2  0.6124E-2  0.5229E-2  0.7439E-2
  4.464     0.3398E-2  0.6435E-2  0.5502E-2  0.7858E-2
  4.474     0.3480E-2  0.6751E-2  0.5805E-2  0.8288E-2
  4.484     0.3570E-2  0.7074E-2  0.6143E-2  0.8728E-2
  4.494     0.3668E-2  0.7403E-2  0.6519E-2  0.9178E-2
  4.505     0.3776E-2  0.7739E-2  0.6939E-2  0.9637E-2
  4.515     0.3893E-2  0.8082E-2  0.7408E-2  0.1010E-1
  4.525     0.4022E-2  0.8434E-2  0.7935E-2  0.1057E-1
  4.535     0.4164E-2  0.8794E-2  0.8526E-2  0.1104E-1
  4.545     0.4319E-2  0.9162E-2  0.9191E-2  0.1150E-1
  4.555     0.4489E-2  0.9540E-2  0.9939E-2  0.1194E-1
    4.5646     0.0047     0.0099     0.0108     0.0124
    4.5746     0.0049     0.0103     0.0117     0.0127
    4.5846     0.0051     0.0107     0.0128     0.0131
    4.5946     0.0054     0.0111     0.0140     0.0133
    4.6046     0.0056     0.0116     0.0153     0.0134
    4.6146     0.0059     0.0120     0.0167     0.0133
    4.6246     0.0063     0.0125     0.0182     0.0131
    4.6346     0.0067     0.0129     0.0198     0.0125
    4.6446     0.0071     0.0134     0.0214     0.0117
    4.6547     0.0076     0.0138     0.0230     0.0105
    4.6647     0.0081     0.0143     0.0244     0.0090
    4.6747     0.0087     0.0147     0.0255     0.0071
    4.6847     0.0094     0.0152     0.0263     0.0050
  4.695     0.1018E-1  0.1560E-1  0.2654E-1  0.2667E-2
  4.705     0.1104E-1  0.1597E-1  0.2633E-1  0.3718E-3
  4.715     0.1200E-1  0.1629E-1  0.2566E-1  -.1788E-2
  4.725     0.1307E-1  0.1652E-1  0.2459E-1  -.3694E-2
    4.7347     0.0142     0.0166     0.0232    -0.0053
    4.7447     0.0155     0.0166     0.0217    -0.0065
    4.7548     0.0169     0.0164     0.0201    -0.0074
    4.7648     0.0183     0.0160     0.0185    -0.0079
    4.7748     0.0197     0.0152     0.0170    -0.0082
    4.7848     0.0211     0.0142     0.0156    -0.0083
    4.7948     0.0223     0.0129     0.0143    -0.0081
    4.8048     0.0232     0.0113     0.0131    -0.0079
    4.8148     0.0238     0.0095     0.0121    -0.0076
    4.8248     0.0241     0.0077     0.0111    -0.0072
    4.8348     0.0240     0.0058     0.0103    -0.0068
  4.845     0.2345E-1  0.4032E-2  0.9564E-2  -.6287E-2
  4.855     0.2264E-1  0.2470E-2  0.8910E-2  -.5799E-2
  4.865     0.2162E-1  0.1151E-2  0.8331E-2  -.5302E-2
  4.875     0.2046E-1  0.9004E-4  0.7818E-2  -.4801E-2
  4.885     0.1922E-1  -.7175E-3  0.7363E-2  -.4301E-2
  4.895     0.1795E-1  -.1291E-2  0.6959E-2  -.3806E-2
  4.905     0.1670E-1  -.1654E-2  0.6600E-2  -.3317E-2
  4.915     0.1548E-1  -.1833E-2  0.6281E-2  -.2836E-2
  4.925     0.1434E-1  -.1855E-2  0.5996E-2  -.2364E-2
  4.935     0.1326E-1  -.1746E-2  0.5742E-2  -.1901E-2
  4.945     0.1228E-1  -.1530E-2  0.5514E-2  -.1448E-2
  4.955     0.1137E-1  -.1230E-2  0.5311E-2  -.1004E-2
  4.965     0.1056E-1  -.8656E-3  0.5129E-2  -.5690E-3
  4.975     0.9830E-2  -.4542E-3  0.4965E-2  -.1430E-3
  4.985     0.9176E-2  -.9671E-5  0.4817E-2  0.2747E-3
  4.995     0.8594E-2  0.4571E-3  0.4684E-2  0.6848E-3
  5.005     0.8076E-2  0.9375E-3  0.4564E-2  0.1088E-2
  5.015     0.7615E-2  0.1425E-2  0.4455E-2  0.1485E-2
  5.025     0.7205E-2  0.1915E-2  0.4357E-2  0.1877E-2
  5.035     0.6841E-2  0.2404E-2  0.4269E-2  0.2264E-2
  5.045     0.6517E-2  0.2890E-2  0.4189E-2  0.2647E-2
  5.055     0.6228E-2  0.3371E-2  0.4119E-2  0.3027E-2
  5.065     0.5971E-2  0.3846E-2  0.4056E-2  0.3403E-2
  5.075     0.5741E-2  0.4315E-2  0.4001E-2  0.3776E-2
  5.085     0.5537E-2  0.4777E-2  0.3954E-2  0.4146E-2
  5.095     0.5354E-2  0.5232E-2  0.3912E-2  0.4515E-2
  5.105     0.5191E-2  0.5681E-2  0.3878E-2  0.4881E-2
  5.115     0.5045E-2  0.6123E-2  0.3849E-2  0.5246E-2
  5.125     0.4916E-2  0.6558E-2  0.3826E-2  0.5609E-2
  5.135     0.4800E-2  0.6988E-2  0.3809E-2  0.5971E-2
  5.145     0.4698E-2  0.7412E-2  0.3797E-2  0.6333E-2
  5.155     0.4607E-2  0.7830E-2  0.3790E-2  0.6695E-2
  5.165     0.4526E-2  0.8243E-2  0.3788E-2  0.7057E-2
  5.175     0.4455E-2  0.8651E-2  0.3791E-2  0.7419E-2
  5.185     0.4391E-2  0.9056E-2  0.3799E-2  0.7782E-2
  5.195     0.4335E-2  0.9457E-2  0.3812E-2  0.8146E-2
  5.205     0.4286E-2  0.9856E-2  0.3829E-2  0.8512E-2
  5.215     0.4243E-2  0.1025E-1  0.3851E-2  0.8879E-2
  5.225     0.4206E-2  0.1065E-1  0.3878E-2  0.9249E-2
  5.235     0.4175E-2  0.1104E-1  0.3910E-2  0.9621E-2
  5.245     0.4150E-2  0.1143E-1  0.3947E-2  0.9997E-2
  5.255     0.4130E-2  0.1182E-1  0.3989E-2  0.1038E-1
  5.265     0.4115E-2  0.1222E-1  0.4037E-2  0.1076E-1
  5.275     0.4105E-2  0.1261E-1  0.4090E-2  0.1114E-1
  5.285     0.4099E-2  0.1300E-1  0.4149E-2  0.1154E-1
  5.295     0.4099E-2  0.1339E-1  0.4214E-2  0.1193E-1
  5.305     0.4103E-2  0.1379E-1  0.4286E-2  0.1233E-1
  5.315     0.4112E-2  0.1418E-1  0.4364E-2  0.1274E-1
  5.325     0.4124E-2  0.1458E-1  0.4450E-2  0.1316E-1
  5.335     0.4142E-2  0.1498E-1  0.4544E-2  0.1358E-1
  5.345     0.4163E-2  0.1538E-1  0.4646E-2  0.1401E-1
  5.355     0.4189E-2  0.1578E-1  0.4757E-2  0.1444E-1
  5.365     0.4219E-2  0.1618E-1  0.4878E-2  0.1489E-1
  5.375     0.4254E-2  0.1659E-1  0.5010E-2  0.1534E-1
  5.385     0.4293E-2  0.1701E-1  0.5153E-2  0.1581E-1
  5.395     0.4336E-2  0.1742E-1  0.5309E-2  0.1628E-1
  5.405     0.4384E-2  0.1784E-1  0.5479E-2  0.1677E-1
  5.415     0.4436E-2  0.1827E-1  0.5663E-2  0.1727E-1
  5.425     0.4494E-2  0.1870E-1  0.5865E-2  0.1778E-1
  5.435     0.4556E-2  0.1913E-1  0.6085E-2  0.1830E-1
  5.445     0.4623E-2  0.1957E-1  0.6326E-2  0.1884E-1
  5.455     0.4696E-2  0.2002E-1  0.6589E-2  0.1939E-1
  5.465     0.4775E-2  0.2047E-1  0.6878E-2  0.1997E-1
  5.475     0.4860E-2  0.2094E-1  0.7195E-2  0.2055E-1
  5.485     0.4951E-2  0.2140E-1  0.7543E-2  0.2116E-1
  5.495     0.5048E-2  0.2188E-1  0.7927E-2  0.2178E-1
  5.506     0.5153E-2  0.2236E-1  0.8351E-2  0.2242E-1
  5.516     0.5266E-2  0.2286E-1  0.8821E-2  0.2308E-1
  5.526     0.5386E-2  0.2336E-1  0.9341E-2  0.2376E-1
  5.536     0.5516E-2  0.2387E-1  0.9920E-2  0.2446E-1
    5.5455     0.0057     0.0244     0.0106     0.0252
    5.5556     0.0058     0.0249     0.0113     0.0259
    5.5656     0.0060     0.0255     0.0121     0.0266
    5.5756     0.0061     0.0260     0.0130     0.0274
    5.5856     0.0063     0.0266     0.0140     0.0281
    5.5956     0.0065     0.0272     0.0151     0.0289
    5.6056     0.0067     0.0278     0.0164     0.0296
    5.6156     0.0070     0.0284     0.0179     0.0303
    5.6256     0.0072     0.0291     0.0195     0.0309
    5.6356     0.0075     0.0297     0.0213     0.0314
    5.6456     0.0078     0.0304     0.0234     0.0318
    5.6557     0.0081     0.0311     0.0256     0.0320
    5.6657     0.0084     0.0318     0.0281     0.0319
    5.6757     0.0088     0.0326     0.0308     0.0315
    5.6857     0.0092     0.0333     0.0336     0.0306
    5.6957     0.0096     0.0341     0.0366     0.0293
   5.70571    0.01011    0.03495    0.03947    0.02727
   5.71572    0.01064    0.03579    0.04217    0.02463
   5.72573    0.01122    0.03667    0.04445    0.02135
   5.73574    0.01185    0.03757    0.04613    0.01752
   5.74575    0.01255    0.03850    0.04702    0.01331
    5.7558     0.0133     0.0395     0.0470     0.0090
  5.766     0.1418E-1  0.4045E-1  0.4615E-1  0.4757E-2
  5.776     0.1513E-1  0.4147E-1  0.4448E-1  0.9186E-3
  5.786     0.1619E-1  0.4251E-1  0.4220E-1  -.2372E-2
  5.796     0.1737E-1  0.4357E-1  0.3951E-1  -.5023E-2
    5.8058     0.0187     0.0446     0.0366    -0.0070
    5.8158     0.0202     0.0457     0.0337    -0.0084
    5.8258     0.0218     0.0468     0.0308    -0.0093
    5.8358     0.0236     0.0478     0.0281    -0.0097
    5.8458     0.0257     0.0487     0.0256    -0.0098
    5.8559     0.0280     0.0496     0.0234    -0.0096
    5.8659     0.0305     0.0503     0.0213    -0.0092
    5.8759     0.0333     0.0509     0.0195    -0.0087
    5.8859     0.0363     0.0512     0.0179    -0.0081
    5.8959     0.0396     0.0512     0.0164    -0.0074
    5.9059     0.0430     0.0508     0.0152    -0.0067
    5.9159     0.0466     0.0499     0.0140    -0.0060
  5.926     0.5017E-1  0.4861E-1  0.1300E-1  -.5215E-2
  5.936     0.5377E-1  0.4682E-1  0.1210E-1  -.4469E-2
  5.946     0.5726E-1  0.4454E-1  0.1129E-1  -.3730E-2
  5.956     0.6061E-1  0.4179E-1  0.1057E-1  -.3005E-2
  5.966     0.6376E-1  0.3856E-1  0.9926E-2  -.2297E-2
  5.976     0.6665E-1  0.3483E-1  0.9347E-2  -.1606E-2
  5.986     0.6920E-1  0.3058E-1  0.8826E-2  -.9361E-3
  5.996     0.7129E-1  0.2578E-1  0.8356E-2  -.2860E-3
  6.006     0.7272E-1  0.2048E-1  0.7930E-2  0.3436E-3
  6.016     0.7332E-1  0.1478E-1  0.7543E-2  0.9533E-3
  6.026     0.7294E-1  0.8903E-2  0.7191E-2  0.1544E-2
  6.036     0.7150E-1  0.3120E-2  0.6868E-2  0.2116E-2
  6.046     0.6907E-1  -.2278E-2  0.6571E-2  0.2671E-2
  6.056     0.6579E-1  -.7042E-2  0.6298E-2  0.3210E-2
  6.066     0.6189E-1  -.1101E-1  0.6047E-2  0.3734E-2
  6.076     0.5763E-1  -.1411E-1  0.5814E-2  0.4244E-2
  6.086     0.5324E-1  -.1636E-1  0.5600E-2  0.4741E-2
  6.096     0.4889E-1  -.1785E-1  0.5401E-2  0.5225E-2
  6.106     0.4473E-1  -.1868E-1  0.5218E-2  0.5698E-2
  6.116     0.4083E-1  -.1897E-1  0.5048E-2  0.6159E-2
  6.126     0.3724E-1  -.1884E-1  0.4890E-2  0.6610E-2
  6.136     0.3398E-1  -.1838E-1  0.4743E-2  0.7050E-2
  6.146     0.3104E-1  -.1768E-1  0.4607E-2  0.7480E-2
  6.156     0.2840E-1  -.1682E-1  0.4481E-2  0.7900E-2
  6.166     0.2605E-1  -.1583E-1  0.4363E-2  0.8312E-2
  6.176     0.2394E-1  -.1477E-1  0.4253E-2  0.8715E-2
  6.186     0.2207E-1  -.1367E-1  0.4150E-2  0.9111E-2
  6.196     0.2040E-1  -.1255E-1  0.4054E-2  0.9498E-2
  6.206     0.1892E-1  -.1143E-1  0.3964E-2  0.9878E-2
  6.216     0.1759E-1  -.1031E-1  0.3880E-2  0.1025E-1
  6.226     0.1640E-1  -.9218E-2  0.3801E-2  0.1062E-1
  6.236     0.1533E-1  -.8147E-2  0.3727E-2  0.1098E-1
  6.246     0.1437E-1  -.7103E-2  0.3657E-2  0.1133E-1
  6.256     0.1350E-1  -.6089E-2  0.3591E-2  0.1168E-1
  6.266     0.1272E-1  -.5106E-2  0.3529E-2  0.1202E-1
  6.276     0.1201E-1  -.4155E-2  0.3471E-2  0.1236E-1
  6.286     0.1137E-1  -.3234E-2  0.3416E-2  0.1270E-1
  6.296     0.1078E-1  -.2344E-2  0.3364E-2  0.1303E-1
  6.306     0.1025E-1  -.1484E-2  0.3315E-2  0.1335E-1
  6.316     0.9763E-2  -.6515E-3  0.3268E-2  0.1367E-1
  6.326     0.9317E-2  0.1531E-3  0.3224E-2  0.1399E-1
  6.336     0.8908E-2  0.9317E-3  0.3182E-2  0.1430E-1
  6.346     0.8531E-2  0.1685E-2  0.3143E-2  0.1461E-1
  6.356     0.8185E-2  0.2415E-2  0.3105E-2  0.1492E-1
  6.366     0.7865E-2  0.3123E-2  0.3069E-2  0.1522E-1
  6.376     0.7569E-2  0.3810E-2  0.3035E-2  0.1552E-1
  6.386     0.7296E-2  0.4476E-2  0.3003E-2  0.1581E-1
  6.396     0.7042E-2  0.5123E-2  0.2973E-2  0.1611E-1
  6.406     0.6806E-2  0.5752E-2  0.2944E-2  0.1640E-1
  6.416     0.6587E-2  0.6364E-2  0.2916E-2  0.1669E-1
  6.426     0.6383E-2  0.6960E-2  0.2890E-2  0.1697E-1
  6.436     0.6193E-2  0.7541E-2  0.2864E-2  0.1726E-1
  6.446     0.6016E-2  0.8107E-2  0.2840E-2  0.1754E-1
  6.456     0.5850E-2  0.8658E-2  0.2818E-2  0.1782E-1
  6.466     0.5695E-2  0.9197E-2  0.2796E-2  0.1810E-1
  6.476     0.5550E-2  0.9723E-2  0.2775E-2  0.1837E-1
  6.486     0.5414E-2  0.1024E-1  0.2755E-2  0.1865E-1
  6.496     0.5285E-2  0.1074E-1  0.2737E-2  0.1892E-1
  6.507     0.5165E-2  0.1123E-1  0.2718E-2  0.1919E-1
  6.517     0.5050E-2  0.1171E-1  0.2701E-2  0.1946E-1
  6.527     0.4942E-2  0.1218E-1  0.2685E-2  0.1972E-1
  6.537     0.4840E-2  0.1265E-1  0.2669E-2  0.1999E-1
  6.547     0.4742E-2  0.1310E-1  0.2654E-2  0.2025E-1
  6.557     0.4649E-2  0.1355E-1  0.2640E-2  0.2052E-1
  6.567     0.4561E-2  0.1399E-1  0.2626E-2  0.2078E-1
  6.577     0.4477E-2  0.1442E-1  0.2613E-2  0.2104E-1
  6.587     0.4397E-2  0.1484E-1  0.2601E-2  0.2130E-1
  6.597     0.4321E-2  0.1526E-1  0.2589E-2  0.2155E-1
  6.607     0.4249E-2  0.1568E-1  0.2577E-2  0.2181E-1
  6.617     0.4181E-2  0.1609E-1  0.2566E-2  0.2207E-1
  6.627     0.4116E-2  0.1649E-1  0.2556E-2  0.2232E-1
  6.637     0.4054E-2  0.1689E-1  0.2546E-2  0.2257E-1
  6.647     0.3996E-2  0.1728E-1  0.2536E-2  0.2283E-1
  6.657     0.3940E-2  0.1766E-1  0.2527E-2  0.2308E-1
  6.667     0.3887E-2  0.1805E-1  0.2519E-2  0.2333E-1
  6.677     0.3836E-2  0.1842E-1  0.2510E-2  0.2358E-1
  6.687     0.3788E-2  0.1880E-1  0.2502E-2  0.2383E-1
  6.697     0.3743E-2  0.1917E-1  0.2495E-2  0.2408E-1
  6.707     0.3699E-2  0.1953E-1  0.2488E-2  0.2433E-1
  6.717     0.3657E-2  0.1989E-1  0.2481E-2  0.2458E-1
  6.727     0.3618E-2  0.2025E-1  0.2474E-2  0.2482E-1
  6.737     0.3580E-2  0.2061E-1  0.2468E-2  0.2507E-1
  6.747     0.3543E-2  0.2096E-1  0.2462E-2  0.2531E-1
  6.757     0.3509E-2  0.2130E-1  0.2456E-2  0.2556E-1
  6.767     0.3476E-2  0.2165E-1  0.2451E-2  0.2580E-1
  6.777     0.3444E-2  0.2199E-1  0.2446E-2  0.2605E-1
  6.787     0.3414E-2  0.2233E-1  0.2441E-2  0.2629E-1
  6.797     0.3385E-2  0.2266E-1  0.2436E-2  0.2654E-1
  6.807     0.3357E-2  0.2300E-1  0.2432E-2  0.2678E-1
  6.817     0.3330E-2  0.2333E-1  0.2427E-2  0.2702E-1
  6.827     0.3305E-2  0.2366E-1  0.2423E-2  0.2726E-1
  6.837     0.3280E-2  0.2398E-1  0.2420E-2  0.2750E-1
  6.847     0.3257E-2  0.2431E-1  0.2416E-2  0.2775E-1
  6.857     0.3235E-2  0.2463E-1  0.2413E-2  0.2799E-1
  6.867     0.3213E-2  0.2495E-1  0.2410E-2  0.2823E-1
  6.877     0.3192E-2  0.2527E-1  0.2407E-2  0.2847E-1
  6.887     0.3173E-2  0.2558E-1  0.2404E-2  0.2871E-1
  6.897     0.3154E-2  0.2590E-1  0.2401E-2  0.2895E-1
  6.907     0.3135E-2  0.2621E-1  0.2399E-2  0.2919E-1
  6.917     0.3118E-2  0.2652E-1  0.2396E-2  0.2943E-1
  6.927     0.3101E-2  0.2683E-1  0.2394E-2  0.2967E-1
  6.937     0.3085E-2  0.2713E-1  0.2392E-2  0.2991E-1
  6.947     0.3070E-2  0.2744E-1  0.2390E-2  0.3014E-1
  6.957     0.3055E-2  0.2774E-1  0.2389E-2  0.3038E-1
  6.967     0.3040E-2  0.2805E-1  0.2387E-2  0.3062E-1
  6.977     0.3027E-2  0.2835E-1  0.2386E-2  0.3086E-1
  6.987     0.3014E-2  0.2865E-1  0.2384E-2  0.3110E-1
  6.997     0.3001E-2  0.2895E-1  0.2383E-2  0.3134E-1
  7.007     0.2989E-2  0.2925E-1  0.2382E-2  0.3157E-1
  7.017     0.2977E-2  0.2954E-1  0.2381E-2  0.3181E-1
  7.027     0.2966E-2  0.2984E-1  0.2380E-2  0.3205E-1
  7.037     0.2956E-2  0.3014E-1  0.2380E-2  0.3229E-1
  7.047     0.2945E-2  0.3043E-1  0.2379E-2  0.3253E-1
  7.057     0.2936E-2  0.3072E-1  0.2379E-2  0.3276E-1
  7.067     0.2926E-2  0.3101E-1  0.2378E-2  0.3300E-1
  7.077     0.2917E-2  0.3131E-1  0.2378E-2  0.3324E-1
  7.087     0.2908E-2  0.3160E-1  0.2378E-2  0.3348E-1
  7.097     0.2900E-2  0.3189E-1  0.2378E-2  0.3372E-1
  7.107     0.2892E-2  0.3217E-1  0.2378E-2  0.3395E-1
  7.117     0.2885E-2  0.3246E-1  0.2378E-2  0.3419E-1
  7.127     0.2877E-2  0.3275E-1  0.2378E-2  0.3443E-1
  7.137     0.2870E-2  0.3304E-1  0.2378E-2  0.3467E-1
  7.147     0.2864E-2  0.3332E-1  0.2379E-2  0.3490E-1
  7.157     0.2857E-2  0.3361E-1  0.2379E-2  0.3514E-1
  7.167     0.2851E-2  0.3389E-1  0.2380E-2  0.3538E-1
  7.177     0.2845E-2  0.3418E-1  0.2380E-2  0.3562E-1
  7.187     0.2840E-2  0.3446E-1  0.2381E-2  0.3586E-1
  7.197     0.2835E-2  0.3474E-1  0.2382E-2  0.3609E-1
  7.207     0.2830E-2  0.3503E-1  0.2382E-2  0.3633E-1
  7.217     0.2825E-2  0.3531E-1  0.2383E-2  0.3657E-1
  7.227     0.2820E-2  0.3559E-1  0.2384E-2  0.3681E-1
  7.237     0.2816E-2  0.3587E-1  0.2385E-2  0.3705E-1
  7.247     0.2812E-2  0.3615E-1  0.2386E-2  0.3729E-1
  7.257     0.2808E-2  0.3643E-1  0.2388E-2  0.3752E-1
  7.267     0.2804E-2  0.3671E-1  0.2389E-2  0.3776E-1
  7.277     0.2801E-2  0.3699E-1  0.2390E-2  0.3800E-1
  7.287     0.2798E-2  0.3727E-1  0.2391E-2  0.3824E-1
  7.297     0.2795E-2  0.3755E-1  0.2393E-2  0.3848E-1
  7.307     0.2792E-2  0.3783E-1  0.2394E-2  0.3872E-1
  7.317     0.2789E-2  0.3811E-1  0.2396E-2  0.3896E-1
  7.327     0.2787E-2  0.3839E-1  0.2397E-2  0.3920E-1
  7.337     0.2784E-2  0.3867E-1  0.2399E-2  0.3944E-1
  7.347     0.2782E-2  0.3894E-1  0.2401E-2  0.3968E-1
  7.357     0.2780E-2  0.3922E-1  0.2402E-2  0.3992E-1
  7.367     0.2778E-2  0.3950E-1  0.2404E-2  0.4016E-1
  7.377     0.2777E-2  0.3978E-1  0.2406E-2  0.4040E-1
  7.387     0.2775E-2  0.4005E-1  0.2408E-2  0.4064E-1
  7.397     0.2774E-2  0.4033E-1  0.2410E-2  0.4088E-1
  7.407     0.2772E-2  0.4061E-1  0.2412E-2  0.4112E-1
  7.417     0.2771E-2  0.4089E-1  0.2414E-2  0.4136E-1
  7.427     0.2770E-2  0.4116E-1  0.2416E-2  0.4161E-1
  7.437     0.2769E-2  0.4144E-1  0.2418E-2  0.4185E-1
  7.447     0.2769E-2  0.4172E-1  0.2420E-2  0.4209E-1
  7.457     0.2768E-2  0.4199E-1  0.2422E-2  0.4233E-1
  7.467     0.2768E-2  0.4227E-1  0.2425E-2  0.4257E-1
  7.477     0.2767E-2  0.4255E-1  0.2427E-2  0.4282E-1
  7.487     0.2767E-2  0.4282E-1  0.2429E-2  0.4306E-1
  7.497     0.2767E-2  0.4310E-1  0.2432E-2  0.4330E-1
  7.508     0.2767E-2  0.4338E-1  0.2434E-2  0.4355E-1
  7.518     0.2767E-2  0.4365E-1  0.2437E-2  0.4379E-1
  7.528     0.2767E-2  0.4393E-1  0.2439E-2  0.4403E-1
  7.538     0.2768E-2  0.4421E-1  0.2442E-2  0.4428E-1
  7.548     0.2768E-2  0.4448E-1  0.2444E-2  0.4452E-1
  7.558     0.2769E-2  0.4476E-1  0.2447E-2  0.4477E-1
  7.568     0.2769E-2  0.4504E-1  0.2450E-2  0.4501E-1
  7.578     0.2770E-2  0.4531E-1  0.2452E-2  0.4526E-1
  7.588     0.2771E-2  0.4559E-1  0.2455E-2  0.4550E-1
  7.598     0.2772E-2  0.4587E-1  0.2458E-2  0.4575E-1
  7.608     0.2773E-2  0.4614E-1  0.2461E-2  0.4600E-1
  7.618     0.2774E-2  0.4642E-1  0.2463E-2  0.4624E-1
  7.628     0.2775E-2  0.4670E-1  0.2466E-2  0.4649E-1
  7.638     0.2776E-2  0.4698E-1  0.2469E-2  0.4673E-1
  7.648     0.2778E-2  0.4725E-1  0.2472E-2  0.4698E-1
  7.658     0.2779E-2  0.4753E-1  0.2475E-2  0.4723E-1
  7.668     0.2781E-2  0.4781E-1  0.2478E-2  0.4748E-1
  7.678     0.2782E-2  0.4809E-1  0.2481E-2  0.4773E-1
  7.688     0.2784E-2  0.4837E-1  0.2484E-2  0.4797E-1
  7.698     0.2786E-2  0.4865E-1  0.2487E-2  0.4822E-1
  7.708     0.2788E-2  0.4892E-1  0.2490E-2  0.4847E-1
  7.718     0.2790E-2  0.4920E-1  0.2494E-2  0.4872E-1
  7.728     0.2792E-2  0.4948E-1  0.2497E-2  0.4897E-1
  7.738     0.2794E-2  0.4976E-1  0.2500E-2  0.4922E-1
  7.748     0.2796E-2  0.5004E-1  0.2503E-2  0.4947E-1
  7.758     0.2798E-2  0.5032E-1  0.2507E-2  0.4972E-1
  7.768     0.2801E-2  0.5060E-1  0.2510E-2  0.4997E-1
  7.778     0.2803E-2  0.5088E-1  0.2513E-2  0.5022E-1
  7.788     0.2805E-2  0.5116E-1  0.2517E-2  0.5048E-1
  7.798     0.2808E-2  0.5144E-1  0.2520E-2  0.5073E-1
  7.808     0.2811E-2  0.5172E-1  0.2524E-2  0.5098E-1
  7.818     0.2813E-2  0.5200E-1  0.2527E-2  0.5123E-1
  7.828     0.2816E-2  0.5229E-1  0.2531E-2  0.5149E-1
  7.838     0.2819E-2  0.5257E-1  0.2534E-2  0.5174E-1
  7.848     0.2822E-2  0.5285E-1  0.2538E-2  0.5199E-1
  7.858     0.2824E-2  0.5313E-1  0.2541E-2  0.5225E-1
  7.868     0.2827E-2  0.5341E-1  0.2545E-2  0.5250E-1
  7.878     0.2831E-2  0.5370E-1  0.2549E-2  0.5276E-1
  7.888     0.2834E-2  0.5398E-1  0.2552E-2  0.5301E-1
  7.898     0.2837E-2  0.5426E-1  0.2556E-2  0.5327E-1
  7.908     0.2840E-2  0.5455E-1  0.2560E-2  0.5352E-1
  7.918     0.2843E-2  0.5483E-1  0.2563E-2  0.5378E-1
  7.928     0.2847E-2  0.5512E-1  0.2567E-2  0.5404E-1
  7.938     0.2850E-2  0.5540E-1  0.2571E-2  0.5429E-1
  7.948     0.2854E-2  0.5569E-1  0.2575E-2  0.5455E-1
  7.958     0.2857E-2  0.5597E-1  0.2579E-2  0.5481E-1
  7.968     0.2861E-2  0.5626E-1  0.2583E-2  0.5507E-1
  7.978     0.2865E-2  0.5655E-1  0.2587E-2  0.5533E-1
  7.988     0.2868E-2  0.5683E-1  0.2591E-2  0.5558E-1
  7.998     0.2872E-2  0.5712E-1  0.2595E-2  0.5584E-1
  8.008     0.2876E-2  0.5741E-1  0.2599E-2  0.5610E-1
  8.018     0.2880E-2  0.5769E-1  0.2603E-2  0.5636E-1
  8.028     0.2884E-2  0.5798E-1  0.2607E-2  0.5662E-1
  8.038     0.2888E-2  0.5827E-1  0.2611E-2  0.5689E-1
  8.048     0.2892E-2  0.5856E-1  0.2615E-2  0.5715E-1
  8.058     0.2896E-2  0.5885E-1  0.2619E-2  0.5741E-1
  8.068     0.2900E-2  0.5914E-1  0.2623E-2  0.5767E-1
  8.078     0.2904E-2  0.5943E-1  0.2627E-2  0.5793E-1
  8.088     0.2909E-2  0.5972E-1  0.2632E-2  0.5820E-1
  8.098     0.2913E-2  0.6001E-1  0.2636E-2  0.5846E-1
  8.108     0.2917E-2  0.6030E-1  0.2640E-2  0.5872E-1
  8.118     0.2922E-2  0.6060E-1  0.2645E-2  0.5899E-1
  8.128     0.2926E-2  0.6089E-1  0.2649E-2  0.5925E-1
  8.138     0.2931E-2  0.6118E-1  0.2653E-2  0.5952E-1
  8.148     0.2936E-2  0.6147E-1  0.2658E-2  0.5978E-1
  8.158     0.2940E-2  0.6177E-1  0.2662E-2  0.6005E-1
  8.168     0.2945E-2  0.6206E-1  0.2667E-2  0.6032E-1
  8.178     0.2950E-2  0.6236E-1  0.2671E-2  0.6058E-1
  8.188     0.2955E-2  0.6265E-1  0.2676E-2  0.6085E-1
  8.198     0.2960E-2  0.6295E-1  0.2680E-2  0.6112E-1
  8.208     0.2965E-2  0.6325E-1  0.2685E-2  0.6139E-1
  8.218     0.2970E-2  0.6354E-1  0.2690E-2  0.6166E-1
  8.228     0.2975E-2  0.6384E-1  0.2694E-2  0.6193E-1
  8.238     0.2980E-2  0.6414E-1  0.2699E-2  0.6220E-1
  8.248     0.2985E-2  0.6444E-1  0.2704E-2  0.6247E-1
  8.258     0.2991E-2  0.6473E-1  0.2708E-2  0.6274E-1
  8.268     0.2996E-2  0.6503E-1  0.2713E-2  0.6301E-1
  8.278     0.3002E-2  0.6533E-1  0.2718E-2  0.6328E-1
  8.288     0.3007E-2  0.6563E-1  0.2723E-2  0.6355E-1
  8.298     0.3013E-2  0.6594E-1  0.2728E-2  0.6383E-1
  8.308     0.3018E-2  0.6624E-1  0.2733E-2  0.6410E-1
  8.318     0.3024E-2  0.6654E-1  0.2738E-2  0.6437E-1
  8.328     0.3030E-2  0.6684E-1  0.2743E-2  0.6465E-1
  8.338     0.3035E-2  0.6715E-1  0.2748E-2  0.6492E-1
  8.348     0.3041E-2  0.6745E-1  0.2753E-2  0.6520E-1
  8.358     0.3047E-2  0.6775E-1  0.2758E-2  0.6547E-1
  8.368     0.3053E-2  0.6806E-1  0.2763E-2  0.6575E-1
  8.378     0.3059E-2  0.6836E-1  0.2768E-2  0.6602E-1
  8.388     0.3065E-2  0.6867E-1  0.2773E-2  0.6630E-1
  8.398     0.3071E-2  0.6898E-1  0.2778E-2  0.6658E-1
  8.408     0.3078E-2  0.6929E-1  0.2784E-2  0.6686E-1
  8.418     0.3084E-2  0.6959E-1  0.2789E-2  0.6714E-1
  8.428     0.3090E-2  0.6990E-1  0.2794E-2  0.6742E-1
  8.438     0.3097E-2  0.7021E-1  0.2800E-2  0.6770E-1
  8.448     0.3103E-2  0.7052E-1  0.2805E-2  0.6798E-1
  8.458     0.3110E-2  0.7083E-1  0.2811E-2  0.6826E-1
  8.468     0.3117E-2  0.7114E-1  0.2816E-2  0.6854E-1
  8.478     0.3123E-2  0.7146E-1  0.2822E-2  0.6882E-1
  8.488     0.3130E-2  0.7177E-1  0.2827E-2  0.6910E-1
  8.498     0.3137E-2  0.7208E-1  0.2833E-2  0.6939E-1
  8.509     0.3144E-2  0.7240E-1  0.2839E-2  0.6967E-1
  8.519     0.3151E-2  0.7271E-1  0.2844E-2  0.6995E-1
  8.529     0.3158E-2  0.7303E-1  0.2850E-2  0.7024E-1
  8.539     0.3166E-2  0.7334E-1  0.2856E-2  0.7052E-1
  8.549     0.3173E-2  0.7366E-1  0.2862E-2  0.7081E-1
  8.559     0.3180E-2  0.7398E-1  0.2868E-2  0.7110E-1
  8.569     0.3188E-2  0.7430E-1  0.2874E-2  0.7138E-1
  8.579     0.3196E-2  0.7462E-1  0.2880E-2  0.7167E-1
  8.589     0.3203E-2  0.7494E-1  0.2886E-2  0.7196E-1
  8.599     0.3211E-2  0.7526E-1  0.2892E-2  0.7225E-1
  8.609     0.3219E-2  0.7558E-1  0.2898E-2  0.7254E-1
  8.619     0.3227E-2  0.7590E-1  0.2905E-2  0.7283E-1
  8.629     0.3235E-2  0.7622E-1  0.2911E-2  0.7312E-1
  8.639     0.3243E-2  0.7655E-1  0.2917E-2  0.7341E-1
  8.649     0.3251E-2  0.7687E-1  0.2924E-2  0.7370E-1
  8.659     0.3260E-2  0.7720E-1  0.2930E-2  0.7400E-1
  8.669     0.3268E-2  0.7752E-1  0.2937E-2  0.7429E-1
  8.679     0.3277E-2  0.7785E-1  0.2943E-2  0.7458E-1
  8.689     0.3285E-2  0.7818E-1  0.2950E-2  0.7488E-1
  8.699     0.3294E-2  0.7851E-1  0.2957E-2  0.7517E-1
  8.709     0.3303E-2  0.7884E-1  0.2964E-2  0.7547E-1
  8.719     0.3312E-2  0.7917E-1  0.2970E-2  0.7577E-1
  8.729     0.3321E-2  0.7950E-1  0.2977E-2  0.7606E-1
  8.739     0.3330E-2  0.7983E-1  0.2984E-2  0.7636E-1
  8.749     0.3340E-2  0.8017E-1  0.2992E-2  0.7666E-1
  8.759     0.3349E-2  0.8050E-1  0.2999E-2  0.7696E-1
  8.769     0.3359E-2  0.8084E-1  0.3006E-2  0.7726E-1
  8.779     0.3369E-2  0.8117E-1  0.3013E-2  0.7756E-1
  8.789     0.3379E-2  0.8151E-1  0.3021E-2  0.7786E-1
  8.799     0.3389E-2  0.8185E-1  0.3028E-2  0.7817E-1
  8.809     0.3399E-2  0.8219E-1  0.3036E-2  0.7847E-1
  8.819     0.3410E-2  0.8253E-1  0.3044E-2  0.7877E-1
  8.829     0.3420E-2  0.8287E-1  0.3052E-2  0.7908E-1
  8.839     0.3431E-2  0.8321E-1  0.3059E-2  0.7938E-1
  8.849     0.3442E-2  0.8355E-1  0.3067E-2  0.7969E-1
  8.859     0.3453E-2  0.8390E-1  0.3076E-2  0.8000E-1
  8.869     0.3464E-2  0.8424E-1  0.3084E-2  0.8031E-1
  8.879     0.3475E-2  0.8459E-1  0.3092E-2  0.8061E-1
  8.889     0.3487E-2  0.8494E-1  0.3101E-2  0.8092E-1
  8.899     0.3499E-2  0.8529E-1  0.3109E-2  0.8123E-1
  8.909     0.3511E-2  0.8564E-1  0.3118E-2  0.8155E-1
  8.919     0.3523E-2  0.8599E-1  0.3127E-2  0.8186E-1
  8.929     0.3535E-2  0.8634E-1  0.3136E-2  0.8217E-1
  8.939     0.3548E-2  0.8669E-1  0.3145E-2  0.8248E-1
  8.949     0.3561E-2  0.8705E-1  0.3154E-2  0.8280E-1
  8.959     0.3574E-2  0.8741E-1  0.3164E-2  0.8311E-1
  8.969     0.3587E-2  0.8776E-1  0.3173E-2  0.8343E-1
  8.979     0.3600E-2  0.8812E-1  0.3183E-2  0.8375E-1
  8.989     0.3614E-2  0.8848E-1  0.3193E-2  0.8407E-1
  8.999     0.3628E-2  0.8884E-1  0.3203E-2  0.8439E-1
  9.009     0.3643E-2  0.8921E-1  0.3213E-2  0.8471E-1
  9.019     0.3657E-2  0.8957E-1  0.3223E-2  0.8503E-1
  9.029     0.3672E-2  0.8994E-1  0.3234E-2  0.8535E-1
  9.039     0.3687E-2  0.9030E-1  0.3245E-2  0.8568E-1
  9.049     0.3703E-2  0.9067E-1  0.3256E-2  0.8600E-1
  9.059     0.3719E-2  0.9104E-1  0.3267E-2  0.8633E-1
  9.069     0.3735E-2  0.9142E-1  0.3279E-2  0.8665E-1
  9.079     0.3751E-2  0.9179E-1  0.3290E-2  0.8698E-1
  9.089     0.3768E-2  0.9216E-1  0.3302E-2  0.8731E-1
  9.099     0.3785E-2  0.9254E-1  0.3315E-2  0.8764E-1
  9.109     0.3803E-2  0.9292E-1  0.3327E-2  0.8797E-1
  9.119     0.3821E-2  0.9330E-1  0.3340E-2  0.8830E-1
  9.129     0.3839E-2  0.9368E-1  0.3353E-2  0.8864E-1
  9.139     0.3858E-2  0.9407E-1  0.3366E-2  0.8897E-1
  9.149     0.3878E-2  0.9445E-1  0.3380E-2  0.8931E-1
  9.159     0.3897E-2  0.9484E-1  0.3394E-2  0.8965E-1
  9.169     0.3918E-2  0.9523E-1  0.3409E-2  0.8999E-1
  9.179     0.3939E-2  0.9562E-1  0.3423E-2  0.9033E-1
  9.189     0.3960E-2  0.9601E-1  0.3438E-2  0.9067E-1
  9.199     0.3982E-2  0.9641E-1  0.3454E-2  0.9101E-1
  9.209     0.4004E-2  0.9681E-1  0.3470E-2  0.9136E-1
  9.219     0.4027E-2  0.9721E-1  0.3487E-2  0.9170E-1
  9.229     0.4051E-2  0.9761E-1  0.3503E-2  0.9205E-1
  9.239     0.4076E-2  0.9801E-1  0.3521E-2  0.9240E-1
  9.249     0.4101E-2  0.9842E-1  0.3539E-2  0.9275E-1
  9.259     0.4127E-2  0.9883E-1  0.3557E-2  0.9311E-1
  9.269     0.4153E-2  0.9924E-1  0.3577E-2  0.9346E-1
  9.279     0.4181E-2  0.9965E-1  0.3596E-2  0.9382E-1
  9.289     0.4209E-2  0.1001     0.3617E-2  0.9418E-1
  9.299     0.4238E-2  0.1005     0.3638E-2  0.9454E-1
  9.309     0.4269E-2  0.1009     0.3660E-2  0.9490E-1
  9.319     0.4300E-2  0.1013     0.3683E-2  0.9527E-1
  9.329     0.4332E-2  0.1018     0.3706E-2  0.9563E-1
  9.339     0.4365E-2  0.1022     0.3730E-2  0.9600E-1
  9.349     0.4400E-2  0.1026     0.3756E-2  0.9637E-1
  9.359     0.4435E-2  0.1031     0.3782E-2  0.9675E-1
  9.369     0.4472E-2  0.1035     0.3810E-2  0.9712E-1
  9.379     0.4511E-2  0.1040     0.3838E-2  0.9750E-1
  9.389     0.4550E-2  0.1044     0.3868E-2  0.9788E-1
  9.399     0.4592E-2  0.1049     0.3899E-2  0.9827E-1
  9.409     0.4635E-2  0.1053     0.3932E-2  0.9865E-1
  9.419     0.4679E-2  0.1058     0.3966E-2  0.9904E-1
  9.429     0.4726E-2  0.1062     0.4001E-2  0.9944E-1
  9.439     0.4774E-2  0.1067     0.4039E-2  0.9983E-1
  9.449     0.4824E-2  0.1072     0.4078E-2  0.1002   
  9.459     0.4877E-2  0.1077     0.4119E-2  0.1006   
  9.469     0.4932E-2  0.1081     0.4163E-2  0.1010   
  9.479     0.4989E-2  0.1086     0.4208E-2  0.1015   
  9.489     0.5049E-2  0.1091     0.4257E-2  0.1019   
  9.499     0.5112E-2  0.1096     0.4308E-2  0.1023   
  9.510     0.5178E-2  0.1101     0.4362E-2  0.1027   
  9.520     0.5248E-2  0.1106     0.4419E-2  0.1031   
  9.530     0.5320E-2  0.1111     0.4479E-2  0.1036   
  9.540     0.5397E-2  0.1117     0.4544E-2  0.1040   
  9.550     0.5477E-2  0.1122     0.4613E-2  0.1044   
  9.560     0.5562E-2  0.1127     0.4686E-2  0.1049   
  9.570     0.5651E-2  0.1133     0.4764E-2  0.1053   
  9.580     0.5746E-2  0.1138     0.4848E-2  0.1058   
  9.590     0.5846E-2  0.1144     0.4938E-2  0.1063   
  9.600     0.5952E-2  0.1150     0.5035E-2  0.1067   
  9.610     0.6064E-2  0.1155     0.5138E-2  0.1072   
  9.620     0.6184E-2  0.1161     0.5250E-2  0.1077   
  9.630     0.6311E-2  0.1167     0.5372E-2  0.1082   
  9.640     0.6446E-2  0.1173     0.5503E-2  0.1087   
  9.650     0.6591E-2  0.1179     0.5645E-2  0.1092   
  9.660     0.6745E-2  0.1186     0.5800E-2  0.1097   
  9.670     0.6910E-2  0.1192     0.5969E-2  0.1103   
  9.680     0.7087E-2  0.1199     0.6154E-2  0.1108   
  9.690     0.7277E-2  0.1205     0.6356E-2  0.1114   
  9.700     0.7482E-2  0.1212     0.6579E-2  0.1119   
  9.710     0.7703E-2  0.1219     0.6824E-2  0.1125   
  9.720     0.7942E-2  0.1226     0.7094E-2  0.1131   
  9.730     0.8200E-2  0.1234     0.7394E-2  0.1137   
  9.740     0.8481E-2  0.1241     0.7726E-2  0.1143   
  9.750     0.8786E-2  0.1249     0.8097E-2  0.1149   
  9.760     0.9118E-2  0.1257     0.8510E-2  0.1155   
  9.770     0.9481E-2  0.1265     0.8971E-2  0.1161   
  9.780     0.9879E-2  0.1273     0.9489E-2  0.1167   
   9.78979    0.01032    0.12811    0.01007    0.11736
   9.79980    0.01080    0.12897    0.01072    0.11797
   9.80981    0.01133    0.12985    0.01146    0.11856
   9.81982    0.01191    0.13075    0.01228    0.11912
   9.82983    0.01256    0.13167    0.01320    0.11963
   9.83984    0.01328    0.13260    0.01424    0.12007
   9.84985    0.01408    0.13354    0.01538    0.12041
   9.85986    0.01498    0.13450    0.01664    0.12062
   9.86987    0.01598    0.13545    0.01800    0.12066
   9.87988    0.01709    0.13639    0.01944    0.12048
   9.88989    0.01833    0.13731    0.02092    0.12004
   9.89990    0.01972    0.13819    0.02238    0.11929
   9.90991    0.02127    0.13901    0.02373    0.11822
   9.91992    0.02298    0.13974    0.02488    0.11682
   9.92993    0.02488    0.14035    0.02573    0.11515
   9.93994    0.02697    0.14078    0.02618    0.11330
   9.94995    0.02923    0.14099    0.02618    0.11138
   9.95996    0.03166    0.14092    0.02574    0.10952
   9.96997    0.03421    0.14048    0.02490    0.10786
   9.97998    0.03681    0.13963    0.02376    0.10647
   9.98999    0.03935    0.13830    0.02242    0.10541
  10.00000    0.04172    0.13650    0.02097    0.10467
# 
# 05/23/2017 at 21:58 YAMBO_MAGNETIC @ narro [start]
# 05/23/2017 at 21:58                        [end]
#  
# Timing   [Min/Max/Average]: 01s/01s/01s
#
# .-Input file : ../INPUTS/04_bse
# | optics                       # [R OPT] Optics
# | bse                          # [R BSE] Bethe Salpeter Equation.
# | bsk                          # [R BSK] Bethe Salpeter Equation kernel
# | bss                          # [R BSS] Bethe Salpeter Equation solver
# | em1s                         # [R Xs] Static Inverse Dielectric Matrix
# | BoseTemp= 0.000000     eV    # Bosonic Temperature
# | FFTGvecs=  363         RL    # [FFT] Plane-waves
# | X_Threads=  4                # [OPENMP/X] Number of threads for response functions
# | DIP_Threads=  4              # [OPENMP/X] Number of threads for dipoles
# | Chimod= "hartree"            # [X] IP/Hartree/ALDA/LRC/BSfxc
# | BSEmod= "retarded"           # [BSE] resonant/retarded/coupling
# | BSKmod= "SEX"                # [BSE] IP/Hartree/HF/ALDA/SEX/BSfxc
# | BSSmod= "d"                  # [BSS] (h)aydock/(d)iagonalization/(i)nversion/(t)ddft`
# | BSENGexx=  363         RL    # [BSK] Exchange components
# | BSENGBlk= 1            RL    # [BSK] Screened interaction block size
# | #WehCpl                      # [BSK] eh interaction included also in coupling
# | KfnQPdb= " E < 03_gw/ndb.QP" # [EXTQP BSK BSS] Database
# | % BEnRange
# |   0.00000 | 10.00000 | eV    # [BSS] Energy range
# | %
# | % BDmRange
# |   0.10000 |  0.10000 | eV    # [BSS] Damping range
# | %
# | BEnSteps= 1000               # [BSS] Energy steps
# | % BLongDir
# | 0.1000E-4 | 0.000    | 0.000    |        # [BSS] [cc] Electric Field
# | %
# | % BSEBands
# |   1 |  7 |                   # [BSK] Bands range
# | %
# | % BndsRnXs
# |   1 |  7 |                   # [Xs] Polarization function bands
# | %
# | NGsBlkXs= 1            RL    # [Xs] Response block size
# | % DmRngeXs
# |   0.10000 |  0.10000 | eV    # [Xs] Damping range
# | %
# | % LongDrXs
# | 0.1000E-4 | 0.000    | 0.000    |        # [Xs] [cc] Electric Field
# | %
