#                                                           
#  __  __   ________   ___ __ __    _______   ______        
# /_/\/_/\ /_______/\ /__//_//_/\ /_______/\ /_____/\       
# \ \ \ \ \\::: _  \ \\::\| \| \ \\::: _  \ \\:::_ \ \      
#  \:\_\ \ \\::(_)  \ \\:.      \ \\::(_)  \/_\:\ \ \ \     
#   \::::_\/ \:: __  \ \\:.\-/\  \ \\::  _  \ \\:\ \ \ \    
#     \::\ \  \:.\ \  \ \\. \  \  \ \\::(_)  \ \\:\_\ \ \   
#      \__\/   \__\/\__\/ \__\/ \__\/ \_______\/ \_____\/   
#                                                           
#                                                           
#        Version 4.2.0 Revision 14428 Hash 698a636          
#                  MPI+SLK+OpenMP Build                     
#                http://www.yambo-code.org                  
#
# Absorption @ Q(1) [q->0 direction] : 1.0000000  0.0000000  0.0000000
#
#
# - Energies      are Slater exchange(X)+Perdew & Wang(C)
# - Wavefunctions are Slater exchange(X)+Perdew & Wang(C)
#
# - The Green`s function is Resonant -
# - Using the Length Gauge -
# - [r,Vnl] *is* included -
#
#    E/ev[1]       EPS-Im[2]     EPS-Re[3]
#
     1.000000      5.209996     37.609455
     1.012024      5.313794     37.906319
     1.024048      5.420996     38.208599
     1.036072      5.531762     38.516453
     1.048096      5.646256     38.830055
     1.060120      5.764652     39.149555
     1.072144      5.887136     39.475143
     1.084168      6.013907     39.806980
     1.096192      6.145171     40.145248
     1.108216      6.281151     40.490143
     1.120240      6.422085     40.841869
     1.132264      6.568219     41.200623
     1.144289      6.719824     41.566601
     1.156313      6.877182     41.940048
     1.168337      7.040597     42.321186
     1.180361      7.210391     42.710243
     1.192385      7.386910     43.107464
     1.204409      7.570520     43.513096
     1.216433      7.761617     43.927429
     1.228457      7.960621     44.350685
     1.240481      8.167985     44.783180
     1.252505      8.384186     45.225170
     1.264529      8.609749     45.676964
     1.276553      8.845224     46.138870
     1.288577      9.091212     46.611179
     1.300601      9.348357     47.094223
     1.312625      9.617344     47.588326
     1.324649      9.898920     48.093815
     1.336673     10.193888     48.611031
     1.348697     10.503110     49.140316
     1.360721     10.827518     49.682003
     1.372746     11.168127     50.236462
     1.384770     11.526020     50.803993
     1.396794     11.902380     51.384979
     1.408818     12.298483     51.979717
     1.420842     12.715718     52.588535
     1.432866     13.155584     53.211731
     1.444890     13.619714     53.849571
     1.456914     14.109880     54.502316
     1.468938     14.627996     55.170147
     1.480962     15.176174     55.853226
     1.492986     15.756663     56.551620
     1.505010     16.371969     57.265327
     1.517034     17.024754     57.994247
     1.529058     17.717985     58.738163
     1.541082     18.454832     59.496670
     1.553106     19.238770     60.269207
     1.565130     20.073568     61.054970
     1.577154     20.963339     61.852882
     1.589178     21.912516     62.661564
     1.601202     22.925917     63.479191
     1.613227     24.008736     64.303513
     1.625250     25.166561     65.131660
     1.637275     26.405416     65.960144
     1.649299     27.731667     66.784607
     1.661323     29.152140     67.599785
     1.673347     30.673904     68.399254
     1.685371     32.304390     69.175323
     1.697395     34.051136     69.918686
     1.709419     35.921722     70.618286
     1.721443     37.923523     71.261032
     1.733467     40.063335     71.831451
     1.745491     42.347198     72.311501
     1.757515     44.779541     72.680260
     1.769539     47.362877     72.913734
     1.781563     50.096615     72.984703
     1.793587     52.976452     72.862846
     1.805611     55.992828     72.514977
     1.817635     59.129993     71.905525
     1.829659     62.364361     70.997780
     1.841683     65.663261     69.755234
     1.853707     68.984093     68.143822
     1.865731     72.273491     66.134575
     1.877756     75.467438     63.707020
     1.889779     78.492744     60.852798
     1.901803     81.269447     57.579102
     1.913828     83.714882     53.911671
     1.925852     85.748726     49.896797
     1.937876     87.299461     45.601063
     1.949900     88.310394     41.109314
     1.961924     88.745186     36.519886
     1.973948     88.591644     31.938496
     1.985972     87.862839     27.470926
     1.997996     86.596039     23.215525
     2.010020     84.848686     19.256746
     2.022044     82.692978     15.660861
     2.034068     80.209778     12.473908
     2.046092     77.482407      9.721512
     2.058116     74.591164      7.410617
     2.070140     71.609802      5.532786
     2.082164     68.602570      4.067450
     2.094188     65.623299      2.985765
     2.106212     62.715187      2.253757
     2.118236     59.911270      1.835081
     2.130260     57.235535      1.693183
     2.142285     54.704521      1.792818
     2.154309     52.328339      2.101034
     2.166332     50.112087      2.587805
     2.178357     48.056957      3.226253
     2.190381     46.161415      3.992697
     2.202405     44.421822      4.866554
     2.214429     42.833210      5.830114
     2.226453     41.389751      6.868287
     2.238477     40.085175      7.968356
     2.250501     38.913101      9.119605
     2.262525     37.867306     10.313123
     2.274549     36.941742     11.541570
     2.286573     36.130745     12.798919
     2.298597     35.429169     14.080252
     2.310621     34.832336     15.381577
     2.322645     34.336082     16.699730
     2.334669     33.936836     18.032230
     2.346693     33.631561     19.377056
     2.358717     33.417809     20.732672
     2.370741     33.293671     22.097872
     2.382765     33.257820     23.471733
     2.394789     33.309483     24.853567
     2.406814     33.448425     26.242729
     2.418838     33.675018     27.638662
     2.430861     33.990154     29.040833
     2.442886     34.395340     30.448687
     2.454910     34.892628     31.861431
     2.466934     35.484680     33.278160
     2.478958     36.174793     34.697708
     2.490982     36.966824     36.118473
     2.503006     37.865330     37.538536
     2.515030     38.875496     38.955296
     2.527054     40.003136     40.365501
     2.539078     41.254780     41.765144
     2.551102     42.637611     43.149200
     2.563126     44.159424     44.511433
     2.575150     45.828571     45.844215
     2.587174     47.653969     47.138294
     2.599198     49.644962     48.382519
     2.611223     51.810997     49.563396
     2.623246     54.161552     50.664871
     2.635270     56.705654     51.667896
     2.647295     59.451546     52.550102
     2.659318     62.405987     53.285374
     2.671343     65.573402     53.843498
     2.683367     68.954918     54.189968
     2.695390     72.547218     54.285908
     2.707415     76.341057     54.088257
     2.719439     80.319397     53.550282
     2.731463     84.455742     52.622669
     2.743487     88.712471     51.255127
     2.755511     93.038628     49.398964
     2.767535     97.369370     47.010216
      2.77956     101.62486      44.05396
      2.79158     105.71169      40.50874
      2.80361     109.52479      36.37198
      2.81563     112.95226      31.66410
      2.82766     115.88123      26.43249
      2.83968     118.20582      20.75274
      2.85170     119.83580      14.72708
      2.86373     120.70480       8.48063
      2.87575     120.77677       2.15331
      2.88778     120.04985      -4.10885
      2.89980     118.55659     -10.16478
      2.91182     116.36046     -15.88721
      2.92385     113.54962     -21.17104
      2.93587     110.22901     -25.93739
      2.94790     106.51126     -30.13593
      2.95992     102.50925     -33.74313
     2.971944     98.329414    -36.759216
     2.983968     94.066971    -39.203831
     2.995992     89.803886    -41.110615
     3.008016     85.607094    -42.522854
     3.020040     81.529579    -43.488949
     3.032064     77.610909    -44.059319
     3.044088     73.879395    -44.283611
     3.056112     70.353455    -44.209129
     3.068136     67.043945    -43.879620
     3.080160     63.955433    -43.334751
     3.092184     61.088039    -42.609852
     3.104208     58.438324    -41.736000
     3.116232     56.000771    -40.740261
     3.128256     53.768303    -39.646053
     3.140280     51.732887    -38.473423
     3.152304     49.886326    -37.239616
     3.164329     48.220272    -35.959305
     3.176353     46.726791    -34.645184
     3.188377     45.398342    -33.308071
     3.200401     44.228043    -31.957485
     3.212425     43.209602    -30.601751
     3.224449     42.337517    -29.248436
     3.236473     41.606930    -27.904486
     3.248497     41.013706    -26.576559
     3.260521     40.554340    -25.271250
     3.272545     40.225880    -23.995193
     3.284569     40.025818    -22.755486
     3.296593     39.951950    -21.559652
     3.308617     40.002216    -20.416048
     3.320641     40.174423    -19.333900
     3.332665     40.465981    -18.323553
     3.344689     40.873550    -17.396467
     3.356713     41.392612    -16.565426
     3.368737     42.016945    -15.844362
     3.380761     42.738083    -15.248264
     3.392785     43.544704    -14.792860
     3.404809     44.422028    -14.493968
     3.416834     45.351215    -14.366856
     3.428858     46.309048    -14.425036
     3.440881     47.267696    -14.679018
     3.452906     48.195221    -15.134766
     3.464929     49.056126    -15.792048
     3.476954     49.813046    -16.643099
     3.488978     50.428581    -17.671423
     3.501002     50.867981    -18.851496
     3.513026     51.101845    -20.149218
     3.525050     51.108734    -21.523441
     3.537074     50.877216    -22.928411
     3.549098     50.406960    -24.316769
     3.561122     49.708675    -25.643061
     3.573146     48.802990    -26.866486
     3.585170     47.718227    -27.953556
     3.597194     46.487911    -28.879322
     3.609218     45.147953    -29.627911
     3.621243     43.734093    -30.192074
     3.633267     42.279934    -30.572067
     3.645290     40.815510    -30.774174
     3.657315     39.366379    -30.809143
     3.669339     37.953583    -30.690582
     3.681362     36.593639    -30.433706
     3.693387     35.298824    -30.054260
     3.705411     34.077950    -29.567699
     3.717435     32.936787    -28.988703
     3.729459     31.878744    -28.330767
     3.741483     30.905342    -27.606081
     3.753507     30.016760    -26.825466
     3.765531     29.212112    -25.998335
     3.777555     28.489969    -25.132902
     3.789579     27.848427    -24.236118
     3.801603     27.285460    -23.313976
     3.813627     26.799002    -22.371536
     3.825651     26.387100    -21.413103
     3.837675     26.047972    -20.442291
     3.849699     25.780102    -19.462200
     3.861723     25.582283    -18.475540
     3.873747     25.453621    -17.484594
     3.885771     25.393629    -16.491552
     3.897795     25.402159    -15.498320
     3.909819     25.479486    -14.506867
     3.921844     25.626253    -13.519154
     3.933868     25.843510    -12.537282
     3.945892     26.132689    -11.563525
     3.957916     26.495586    -10.600516
     3.969940     26.934355     -9.651294
     3.981964     27.451485     -8.719315
     3.993988     28.049675     -7.808815
     4.006011     28.731901     -6.924660
     4.018036     29.501177     -6.072689
     4.030060     30.360485     -5.259728
     4.042084     31.312651     -4.493791
     4.054108     32.360031     -3.784161
     4.066132     33.504276     -3.141546
     4.078156     34.746109     -2.578039
     4.090180     36.084709     -2.107277
     4.102204     37.517330     -1.744249
     4.114228     39.038944     -1.505060
     4.126252     40.641483     -1.406657
     4.138277     42.313507     -1.466200
     4.150301     44.039761     -1.700316
     4.162325     45.801014     -2.124168
     4.174348     47.574081     -2.750341
     4.186373     49.332481     -3.587803
     4.198396     51.046871     -4.640747
     4.210421     52.686687     -5.908031
     4.222445     54.221195     -7.382657
     4.234469     55.621170     -9.052065
     4.246493     56.860161    -10.898849
     4.258517     57.915375    -12.901827
     4.270541     58.768005    -15.037237
     4.282565     59.403015    -17.279741
     4.294589     59.808716    -19.603373
     4.306613     59.976109    -21.981140
     4.318637     59.898689    -24.385399
     4.330661     59.572594    -26.786833
     4.342685     58.997299    -29.154533
     4.354709     58.176712    -31.456127
     4.366734     57.120258    -33.658619
     4.378757     55.843578    -35.729889
     4.390781     54.368698    -37.640427
     4.402805     52.723209    -39.365440
     4.414829     50.938969    -40.886223
     4.426853     49.050388    -42.190956
     4.438878     47.092304    -43.275192
     4.450902     45.098080    -44.141243
     4.462926     43.098190    -44.797260
     4.474950     41.119102    -45.255989
     4.486974     39.182846    -45.533325
     4.498998     37.306805    -45.647057
     4.511022     35.504112    -45.615746
     4.523046     33.783585    -45.457802
     4.535070     32.151020    -45.190849
     4.547094     30.609297    -44.831295
     4.559118     29.159058    -44.394066
     4.571142     27.799229    -43.892467
     4.583166     26.527489    -43.338245
     4.595191     25.340622    -42.741604
     4.607214     24.234909    -42.111340
     4.619238     23.206057    -41.454823
     4.631262     22.249859    -40.778423
     4.643286     21.361988    -40.087421
     4.655310     20.538219    -39.386196
     4.667335     19.774462    -38.678375
     4.679358     19.066803    -37.966938
     4.691383     18.411583    -37.254276
     4.703407     17.805357    -36.542332
     4.715430     17.244978    -35.832661
     4.727454     16.727421    -35.126381
     4.739479     16.250015    -34.424419
     4.751503     15.810289    -33.727467
     4.763527     15.405984    -33.035969
     4.775551     15.035058    -32.350250
     4.787575     14.695667    -31.670460
     4.799599     14.386154    -30.996662
     4.811624     14.105039    -30.328806
     4.823647     13.851022    -29.666840
     4.835671     13.622914    -29.010468
     4.847695     13.419728    -28.359510
     4.859719     13.240593    -27.713722
     4.871743     13.084783    -27.072773
     4.883768     12.951694    -26.436348
     4.895792     12.840850    -25.804111
     4.907816     12.751895    -25.175705
     4.919840     12.684594    -24.550779
     4.931863     12.638828    -23.929008
     4.943887     12.614592    -23.309959
     4.955912     12.611999    -22.693344
     4.967936     12.631287    -22.078814
     4.979960     12.672809    -21.466093
     4.991984     12.737039    -20.854885
     5.004008     12.824583    -20.244963
     5.016032     12.936181    -19.636139
     5.028056     13.072700    -19.028305
     5.040080     13.235178    -18.421314
     5.052104     13.424791    -17.815222
     5.064128     13.642873    -17.210131
     5.076152     13.890934    -16.606270
     5.088176     14.170667    -16.004000
     5.100200     14.483953    -15.403851
     5.112225     14.832867    -14.806556
     5.124249     15.219692    -14.213095
     5.136272     15.646902    -13.624755
     5.148296     16.117249    -13.043048
     5.160320     16.633638    -12.470004
     5.172344     17.199175    -11.908095
     5.184369     17.817173    -11.360335
     5.196393     18.491068    -10.830407
     5.208417     19.224405    -10.322731
     5.220441     20.020750     -9.842616
     5.232465     20.883583     -9.396404
     5.244488     21.816074     -8.991570
     5.256513     22.821180     -8.636836
     5.268537     23.900978     -8.342394
     5.280561     25.056614     -8.119941
     5.292585     26.287821     -7.982756
     5.304609     27.592455     -7.945679
     5.316633     28.965906     -8.025001
     5.328657     30.400482     -8.238175
     5.340682     31.884718     -8.603349
     5.352705     33.402630     -9.138552
     5.364729     34.933598     -9.860856
     5.376753     36.451382    -10.784794
     5.388777     37.924648    -11.920904
     5.400801     39.317348    -13.273912
     5.412826     40.589996    -14.840948
     5.424850     41.701546    -16.610052
     5.436874     42.611942    -18.559208
     5.448897     43.285114    -20.656160
     5.460921     43.692276    -22.859953
     5.472945     43.814323    -25.122248
     5.484970     43.644012    -27.390919
     5.496994     43.186676    -29.613575
     5.509018     42.459602    -31.741226
     5.521042     41.490330    -33.731468
     5.533066     40.313919    -35.550755
     5.545090     38.969948    -37.175579
     5.557114     37.499500    -38.592491
     5.569138     35.942139    -39.797577
     5.581162     34.334515    -40.794464
     5.593186     32.708591    -41.592991
     5.605210     31.091211    -42.207279
     5.617234     29.503855    -42.654083
     5.629259     27.963007    -42.951450
     5.641283     26.480629    -43.117599
     5.653306     25.064816    -43.170208
     5.665330     23.720562    -43.125786
     5.677354     22.450043    -42.999477
     5.689378     21.253735    -42.804855
     5.701403     20.130552    -42.553909
     5.713427     19.078339    -42.257114
     5.725451     18.094217    -41.923512
     5.737475     17.174839    -41.560829
     5.749499     16.316605    -41.175652
     5.761523     15.515792    -40.773525
     5.773547     14.768726    -40.359131
     5.785571     14.071662    -39.936298
     5.797595     13.421146    -39.508278
     5.809619     12.813828    -39.077721
     5.821643     12.246550    -38.646812
     5.833667     11.716343    -38.217342
     5.845691     11.220447    -37.790718
     5.857716     10.756294    -37.368111
     5.869739     10.321538    -36.950478
     5.881763      9.913924    -36.538429
     5.893787      9.531462    -36.132576
     5.905811      9.172284    -35.733322
     5.917835      8.834686    -35.340958
     5.929860      8.517095    -34.955685
     5.941884      8.218060    -34.577625
     5.953908      7.936265    -34.206841
     5.965932      7.670487    -33.843346
     5.977955      7.419628    -33.487110
     5.989979      7.182627    -33.138042
     6.002004      6.958559    -32.796055
     6.014028      6.746561    -32.461033
     6.026052      6.545834    -32.132851
     6.038076      6.355649    -31.811359
     6.050100      6.175335    -31.496399
     6.062124      6.004270    -31.187809
     6.074148      5.841886    -30.885410
     6.086172      5.687670    -30.589069
     6.098196      5.541117    -30.298573
     6.110220      5.401792    -30.013754
     6.122244      5.269287    -29.734459
     6.134268      5.143223    -29.460506
     6.146292      5.023255    -29.191730
     6.158317      4.909062    -28.927969
     6.170341      4.800349    -28.669058
     6.182365      4.696847    -28.414837
     6.194388      4.598312    -28.165176
     6.206412      4.504506    -27.919888
     6.218436      4.415226    -27.678835
     6.230461      4.330283    -27.441889
     6.242485      4.249503    -27.208899
     6.254509      4.172730    -26.979736
     6.266533      4.099824    -26.754272
     6.278557      4.030660    -26.532383
     6.290580      3.965129    -26.313961
     6.302605      3.903127    -26.098862
     6.314629      3.844573    -25.886988
     6.326653      3.789398    -25.678249
     6.338677      3.737544    -25.472528
     6.350701      3.688968    -25.269739
     6.362725      3.643638    -25.069801
     6.374750      3.601538    -24.872622
     6.386774      3.562664    -24.678143
     6.398797      3.527026    -24.486313
     6.410821      3.494644    -24.297041
     6.422845      3.465557    -24.110317
     6.434869      3.439817    -23.926092
     6.446894      3.417491    -23.744368
     6.458918      3.398660    -23.565138
     6.470942      3.383421    -23.388433
     6.482966      3.371882    -23.214291
     6.494990      3.364171    -23.042789
     6.507013      3.360424    -22.874037
     6.519038      3.360791    -22.708157
     6.531062      3.365431    -22.545336
     6.543086      3.374506    -22.385807
     6.555110      3.388181    -22.229858
     6.567134      3.406610    -22.077827
     6.579158      3.429934    -21.930145
     6.591182      3.458260    -21.787296
     6.603207      3.491651    -21.649866
     6.615230      3.530099    -21.518536
     6.627254      3.573512    -21.394045
     6.639278      3.621665    -21.277254
     6.651302      3.674183    -21.169083
     6.663326      3.730491    -21.070509
     6.675351      3.789786    -20.982521
     6.687375      3.850995    -20.906082
     6.699399      3.912758    -20.842060
     6.711422      3.973408    -20.791117
     6.723446      4.031012    -20.753647
     6.735470      4.083396    -20.729656
     6.747495      4.128253    -20.718670
     6.759519      4.163261    -20.719679
     6.771543      4.186255    -20.731081
     6.783567      4.195396    -20.750736
     6.795591      4.189339    -20.776060
     6.807615      4.167366    -20.804148
     6.819639      4.129459    -20.832003
     6.831663      4.076293    -20.856747
     6.843687      4.009179    -20.875765
     6.855711      3.929920    -20.886923
     6.867735      3.840650    -20.888618
     6.879759      3.743656    -20.879839
     6.891783      3.641222    -20.860111
     6.903808      3.535490    -20.829433
     6.915832      3.428375    -20.788212
     6.927855      3.321521    -20.737133
     6.939879      3.216248    -20.677063
     6.951903      3.113610    -20.608988
     6.963927      3.014381    -20.533901
     6.975952      2.919106    -20.452805
     6.987976      2.828132    -20.366652
     7.000000      2.741647    -20.276306
# 
# 04/10/2017 at 16:16 YAMBO_RT @ anomaly [start]
# 04/10/2017 at 16:16                    [end]
#
# .-Input file : yambo.in
# | optics                       # [R OPT] Optics
# | chi                          # [R CHI] Dyson equation for Chi.
# | BoseTemp= 0.000000     eV    # Bosonic Temperature
# | FFTGvecs= 1639         RL    # [FFT] Plane-waves
# | X_Threads= 1                 # [OPENMP/X] Number of threads for response functions
# | DIP_Threads= 1               # [OPENMP/X] Number of threads for dipoles
# | Chimod= "IP"                 # [X] IP/Hartree/ALDA/LRC/BSfxc
# | NGsBlkXd= 1            RL    # [Xd] Response block size
# | % QpntsRXd
# |  1 | 1 |                     # [Xd] Transferred momenta
# | %
# | % BndsRnXd
# |   2 |  8 |                   # [Xd] Polarization function bands
# | %
# | GrFnTpXd= "r"                # [Xd] Green`s function (T)ordered,(R)etarded,(r)senant,(a)ntiresonant [T, R, r, Ta, Ra]
# | % EnRngeXd
# |  1.000000 | 7.000000 | eV    # [Xd] Energy range
# | %
# | % DmRngeXd
# |  0.200000 | 0.200000 | eV    # [Xd] Damping range
# | %
# | ETStpsXd=  500               # [Xd] Total Energy steps
# | % LongDrXd
# | 0.1000E-4 | 0.000    | 0.000    |        # [Xd] [cc] Electric Field
# | %
