#                                                                     
#  ____  ____     _       ____    ____  ______      ___               
# |_  _||_  _|   / \     |_   \  /   _||_   _ \   ."   `.             
#   \ \  / /    / _ \      |   \/   |    | |_) | /  .-.  \            
#    \ \/ /    / ___ \     | |\  /| |    |  __". | |   | |            
#    _|  |_  _/ /   \ \_  _| |_\/_| |_  _| |__) |\  `-"  /            
#   |______||____| |____||_____||_____||_______/  `.___."             
#                                                                     
#                                                                     
#                                                                     
# Version 5.2.0 Revision 23129 Hash (prev commit) 3a51862bc           
#             Branch is phys-levels_degeneracy                        
#                    MPI+HDF5_IO Build                                
#                 http://www.yambo-code.eu                            
#
# Joint Density of states @ Q(1):   1.00000000      0.00000000      0.00000000    [q->0 direction]
#
# [GEN] GF Energies                               : Slater exchange(X)+Perdew & Zunger(C)
# [GEN] Green`s Function                          : Retarded
#
# [GEN] Gauge                                     : Length
# [GEN] [r,Vnl] included                          : yes
#
# DIP band range                                  :   1   8
# DIP band range limits                           :   8   1
# DIP e/h energy range                            :  -1.00000000     -1.00000000    [eV]
# RL vectors in the sum                           :   387
# [r,Vnl] included                                : yes
# Bands ordered                                   : yes
# Direct v evaluation                             : no
# Approach used                                   : G-space v
# Dipoles computed                                : R V P
# Wavefunctions                                   : Slater exchange(X)+Perdew & Zunger(C)
#
#
#    E[1] [eV]          Im(jdos)           Re(jdos)
#
        0.000000           0.000000           25.48971
        0.010010           0.008001           25.49016
        0.020020           0.016006           25.49139
        0.030030           0.024020           25.49331
        0.040040           0.032047           25.49608
        0.050050           0.040091           25.49958
        0.060060           0.048157           25.50393
        0.070070           0.056250           25.50907
        0.080080           0.064373           25.51494
        0.090090           0.072531           25.52174
        0.100100           0.080730           25.52924
        0.110110           0.088972           25.53760
        0.120120           0.097265           25.54672
        0.130130           0.105612           25.55673
        0.140140           0.114018           25.56748
        0.150150           0.122489           25.57908
        0.160160           0.131029           25.59151
        0.170170           0.139645           25.60478
        0.180180           0.148342           25.61897
        0.190190           0.157125           25.63387
        0.200200           0.166001           25.64980
        0.210210           0.174976           25.66646
        0.220220           0.184056           25.68410
        0.230230           0.193248           25.70259
        0.240240           0.202559           25.72203
        0.250250           0.211995           25.74226
        0.260260           0.221565           25.76349
        0.270270           0.231277           25.78569
        0.280280           0.241137           25.80881
        0.290290           0.251156           25.83294
        0.300300           0.261343           25.85801
        0.310310           0.271705           25.88404
        0.320320           0.282254           25.91110
        0.330330           0.292999           25.93918
        0.340340           0.303953           25.96834
        0.350350           0.315126           25.99857
        0.360360           0.326530           26.02981
        0.370370           0.338179           26.06225
        0.380380           0.350086           26.09584
        0.390390           0.362267           26.13053
        0.400400           0.374735           26.16644
        0.410410           0.387508           26.20350
        0.420420           0.400604           26.24177
        0.430430           0.414039           26.28134
        0.440440           0.427836           26.32224
        0.450450           0.442014           26.36439
        0.460460           0.456597           26.40796
        0.470470           0.471608           26.45287
        0.480480           0.487075           26.49923
        0.490490           0.503022           26.54713
        0.500500           0.519483           26.59646
        0.510511           0.536489           26.64736
        0.520521           0.554075           26.69987
        0.530531           0.572279           26.75411
        0.540541           0.591141           26.80989
        0.550551           0.610705           26.86759
        0.560561           0.631018           26.92703
        0.570571           0.652134           26.98834
        0.580581           0.674110           27.05159
        0.590591           0.697005           27.11689
        0.600601           0.720889           27.18426
        0.610611           0.745831           27.25378
        0.620621           0.771918           27.32560
        0.630631           0.799232           27.39973
        0.640641           0.827876           27.47629
        0.650651           0.857953           27.55528
        0.660661           0.889582           27.63706
        0.670671           0.922890           27.72146
        0.680681           0.958030           27.80882
        0.690691           0.995157           27.89913
        0.700701           1.034444           27.99253
        0.710711           1.076100           28.08917
        0.720721           1.120341           28.18922
        0.730731           1.167420           28.29283
        0.740741           1.217615           28.40015
        0.750751           1.271235           28.51133
        0.760761           1.328639           28.62657
        0.770771           1.390226           28.74604
        0.780781           1.456449           28.87006
        0.790791           1.527822           28.99859
        0.800801           1.604936           29.13195
        0.810811           1.688449           29.27033
        0.820821           1.779131           29.41382
        0.830831           1.877861           29.56260
        0.840841           1.985634           29.71691
        0.850851           2.103609           29.87675
        0.860861           2.233112           30.04207
        0.870871           2.375672           30.21275
        0.880881           2.533048           30.38874
        0.890891           2.707252           30.56952
        0.900901           2.900613           30.75447
        0.910911           3.115768           30.94237
        0.920921           3.355730           31.13204
        0.930931           3.623847           31.32110
        0.940941           3.923831           31.50677
        0.950951           4.259669           31.68476
        0.960961           4.635448           31.84971
        0.970971           5.055109           31.99409
        0.980981           5.521902           32.10872
        0.990991           6.037743           32.18100
        1.001001           6.601957           32.19622
        1.011011           7.209864           32.13649
        1.021021           7.850842           31.98227
        1.031031           8.506278           31.71410
        1.041041           9.148365           31.31580
        1.051051           9.740070           30.77963
        1.061061           10.23799           30.11077
        1.071071           10.59868           29.33207
        1.081081           10.78706           28.48398
        1.091091           10.78519           27.62007
        1.101101           10.59703           26.79726
        1.111111           10.24750           26.06533
        1.121121           9.775745           25.45905
        1.131131           9.226272           24.99483
        1.141141           8.641014           24.67299
        1.151151           8.054132           24.48220
        1.161161           7.490356           24.40476
        1.171171           6.965495           24.42097
        1.181181           6.488089           24.51185
        1.191191           6.061474           24.66069
        1.201201           5.685524           24.85357
        1.211211           5.358004           25.07940
        1.221221           5.075619           25.32958
        1.231231           4.834671           25.59774
        1.241241           4.631371           25.87894
        1.251251           4.462171           26.16993
        1.261261           4.323904           26.46809
        1.271271           4.213734           26.77189
        1.281281           4.129277           27.08019
        1.291291           4.068526           27.39258
        1.301301           4.029852           27.70867
        1.311311           4.011982           28.02846
        1.321321           4.013963           28.35207
        1.331331           4.035165           28.67997
        1.341341           4.075256           29.01257
        1.351351           4.134153           29.35025
        1.361361           4.212080           29.69366
        1.371371           4.309535           30.04331
        1.381381           4.427302           30.39992
        1.391391           4.566457           30.76395
        1.401401           4.728417           31.13611
        1.411411           4.914958           31.51692
        1.421421           5.128205           31.90681
        1.431431           5.370777           32.30604
        1.441441           5.645727           32.71479
        1.451451           5.956723           33.13301
        1.461461           6.308008           33.56017
        1.471471           6.704586           33.99548
        1.481481           7.152191           34.43715
        1.491491           7.657540           34.88279
        1.501501           8.228168           35.32877
        1.511511           8.872731           35.76978
        1.521521           9.600668           36.19825
        1.531531           10.42235           36.60394
        1.541541           11.34851           36.97293
        1.551551           12.38963           37.28666
        1.561561           13.55470           37.52075
        1.571571           14.84958           37.64426
        1.581581           16.27387           37.61814
        1.591591           17.81726           37.39680
        1.601601           19.45460           36.92822
        1.611611           21.14065           36.15994
        1.621622           22.80584           35.04630
        1.631632           24.35544           33.56068
        1.641642           25.67591           31.70979
        1.651652           26.64945           29.54490
        1.661662           27.17623           27.16558
        1.671672           27.19830           24.70935
        1.681682           26.71460           22.32822
        1.691692           25.78173           20.16052
        1.701702           24.49838           18.30723
        1.711712           22.98222           16.82123
        1.721722           21.34732           15.71029
        1.731732           19.68901           14.94870
        1.741742           18.07764           14.49127
        1.751752           16.55919           14.28551
        1.761762           15.15934           14.27951
        1.771772           13.88883           14.42710
        1.781782           12.74817           14.68935
        1.791792           11.73183           15.03499
        1.801802           10.83074           15.43941
        1.811812           10.03444           15.88401
        1.821822           9.332178           16.35466
        1.831832           8.713600           16.84101
        1.841842           8.169139           17.33565
        1.851852           7.690092           17.83309
        1.861862           7.268850           18.32978
        1.871872           6.898608           18.82308
        1.881882           6.573508           19.31152
        1.891892           6.288477           19.79417
        1.901902           6.039121           20.27058
        1.911912           5.821659           20.74061
        1.921922           5.632844           21.20465
        1.931932           5.469896           21.66280
        1.941942           5.330446           22.11588
        1.951952           5.212477           22.56427
        1.961962           5.114281           23.00872
        1.971972           5.034401           23.44997
        1.981982           4.971656           23.88873
        1.991992           4.925041           24.32585
        2.002002           4.893770           24.76201
        2.012012           4.877223           25.19811
        2.022022           4.874938           25.63490
        2.032032           4.886586           26.07320
        2.042042           4.912029           26.51380
        2.052052           4.951198           26.95756
        2.062062           5.004233           27.40540
        2.072072           5.071328           27.85803
        2.082082           5.152901           28.31631
        2.092092           5.249452           28.78123
        2.102102           5.361661           29.25366
        2.112112           5.490365           29.73438
        2.122122           5.636597           30.22430
        2.132132           5.801556           30.72451
        2.142142           5.986693           31.23581
        2.152152           6.193676           31.75912
        2.162162           6.424459           32.29541
        2.172172           6.681359           32.84557
        2.182182           6.966976           33.41047
        2.192192           7.284420           33.99089
        2.202202           7.637213           34.58743
        2.212212           8.029455           35.20065
        2.222222           8.465899           35.83084
        2.232232           8.951999           36.47771
        2.242242           9.494055           37.14092
        2.252252           10.09941           37.81916
        2.262262           10.77632           38.51035
        2.272272           11.53432           39.21082
        2.282282           12.38416           39.91582
        2.292292           13.33792           40.61793
        2.302302           14.40881           41.30671
        2.312312           15.61081           41.96825
        2.322322           16.95857           42.58307
        2.332332           18.46563           43.12602
        2.342342           20.14309           43.56393
        2.352352           21.99704           43.85528
        2.362362           24.02394           43.94920
        2.372372           26.20625           43.78709
        2.382382           28.50633           43.30594
        2.392392           30.86066           42.44614
        2.402402           33.17734           41.16292
        2.412412           35.34059           39.44139
        2.422422           37.22202           37.31083
        2.432432           38.70399           34.85168
        2.442442           39.70475           32.18874
        2.452452           40.19896           29.46967
        2.462462           40.22067           26.83366
        2.472472           39.84966           24.38383
        2.482482           39.18465           22.17382
        2.492492           38.31482           20.21156
        2.502502           37.30263           18.47690
        2.512512           36.17920           16.94370
        2.522522           34.95329           15.59774
        2.532532           33.62703           14.44417
        2.542542           32.21128           13.50404
        2.552552           30.73344           12.80325
        2.562562           29.23746           12.36009
        2.572572           27.77581           12.17729
        2.582582           26.40038           12.24058
        2.592592           25.15557           12.52205
        2.602602           24.07473           12.98586
        2.612612           23.18045           13.59321
        2.622622           22.48643           14.30611
        2.632632           22.00010           15.08867
        2.642642           21.72500           15.90765
        2.652653           21.66288           16.73119
        2.662663           21.81411           17.52761
        2.672673           22.17805           18.26340
        2.682683           22.75180           18.90153
        2.692693           23.52797           19.39985
        2.702703           24.49170           19.71051
        2.712713           25.61553           19.78052
        2.722723           26.85457           19.55496
        2.732733           28.14149           18.98383
        2.742743           29.38436           18.03253
        2.752753           30.46995           16.69544
        2.762763           31.27569           15.00901
        2.772773           31.69040           13.05817
        2.782783           31.63728           10.97064
        2.792793           31.09402           8.897666
        2.802803           30.09761           6.985387
        2.812813           28.73395           5.349186
        2.822823           27.11545           4.058023
        2.832833           25.35819           3.133712
        2.842843           23.56295           2.560328
        2.852853           21.80718           2.297996
        2.862863           20.14338           2.296012
        2.872873           18.60221           2.502282
        2.882883           17.19790           2.869027
        2.892893           15.93296           3.355519
        2.902903           14.80299           3.928582
        2.912913           13.79913           4.562203
        2.922923           12.91109           5.236367
        2.932933           12.12755           5.936186
        2.942943           11.43777           6.650706
        2.952953           10.83164           7.372058
        2.962963           10.30008           8.094740
        2.972973           9.834905           8.815006
        2.982983           9.429103           9.530442
        2.992993           9.076450           10.23969
        3.003003           8.771687           10.94203
        3.013013           8.510249           11.63734
        3.023023           8.288379           12.32589
        3.033033           8.102825           13.00822
        3.043043           7.950931           13.68510
        3.053053           7.830525           14.35747
        3.063063           7.739869           15.02634
        3.073073           7.677602           15.69285
        3.083083           7.642783           16.35813
        3.093093           7.634779           17.02346
        3.103103           7.653320           17.69006
        3.113113           7.698408           18.35920
        3.123123           7.770402           19.03218
        3.133133           7.869965           19.71029
        3.143143           7.998134           20.39486
        3.153153           8.156248           21.08713
        3.163163           8.346077           21.78840
        3.173173           8.569817           22.49989
        3.183183           8.830091           23.22281
        3.193193           9.130093           23.95824
        3.203203           9.473593           24.70707
        3.213213           9.865006           25.47007
        3.223223           10.30957           26.24776
        3.233233           10.81337           27.04017
        3.243243           11.38350           27.84686
        3.253253           12.02821           28.66662
        3.263263           12.75703           29.49725
        3.273273           13.58089           30.33508
        3.283283           14.51230           31.17471
        3.293293           15.56536           32.00806
        3.303303           16.75581           32.82398
        3.313313           18.10063           33.60661
        3.323323           19.61781           34.33471
        3.333333           21.32496           34.97963
        3.343343           23.23800           35.50379
        3.353353           25.36794           35.85897
        3.363363           27.71678           35.98515
        3.373373           30.27184           35.81061
        3.383383           32.99796           35.25453
        3.393393           35.83017           34.23373
        3.403403           38.66648           32.67472
        3.413413           41.36739           30.53158
        3.423423           43.76509           27.80638
        3.433433           45.68466           24.56631
        3.443443           46.97684           20.94777
        3.453453           47.55193           17.14046
        3.463463           47.40022           13.35261
        3.473473           46.58939           9.770930
        3.483483           45.23992           6.528949
        3.493493           43.49038           3.697136
        3.503503           41.46696           1.292580
        3.513513           39.26852          -0.699093
        3.523524           36.96625          -2.303480
        3.533533           34.61316          -3.544982
        3.543543           32.25399          -4.444635
        3.553553           29.93173          -5.023630
        3.563564           27.68726          -5.308086
        3.573573           25.55649          -5.331042
        3.583583           23.56645          -5.130914
        3.593593           21.73405          -4.748270
        3.603603           20.06632          -4.222380
        3.613613           18.56203          -3.588457
        3.623623           17.21434          -2.876498
        3.633634           16.01282          -2.110882
        3.643643           14.94529          -1.310762
        3.653653           13.99897          -0.490637
        3.663663           13.16150           0.338692
        3.673674           12.42126           1.169473
        3.683683           11.76771           1.996230
        3.693693           11.19134           2.815400
        3.703704           10.68390           3.624708
        3.713714           10.23809           4.422879
        3.723723           9.847638           5.209342
        3.733733           9.507136           5.984221
        3.743744           9.211904           6.747880
        3.753754           8.958047           7.501109
        3.763763           8.742264           8.244720
        3.773773           8.561728           8.979897
        3.783784           8.414215           9.707696
        3.793794           8.297838           10.42942
        3.803803           8.211198           11.14630
        3.813814           8.153279           11.85965
        3.823824           8.123316           12.57083
        3.833834           8.120990           13.28104
        3.843843           8.146297           13.99172
        3.853854           8.199488           14.70404
        3.863864           8.281263           15.41930
        3.873873           8.392675           16.13877
        3.883883           8.535046           16.86349
        3.893894           8.710248           17.59466
        3.903904           8.920532           18.33320
        3.913913           9.168672           19.07986
        3.923924           9.458027           19.83531
        3.933934           9.792559           20.59980
        3.943944           10.17694           21.37318
        3.953954           10.61665           22.15469
        3.963964           11.11814           22.94300
        3.973974           11.68868           23.73559
        3.983984           12.33662           24.52833
        3.993994           13.07138           25.31571
        4.004004           13.90329           26.08935
        4.014014           14.84333           26.83777
        4.024024           15.90269           27.54549
        4.034034           17.09178           28.19164
        4.044044           18.41900           28.74904
        4.054054           19.88793           29.18343
        4.064064           21.49438           29.45302
        4.074074           23.22174           29.50906
        4.084084           25.03631           29.29938
        4.094094           26.88130           28.77460
        4.104104           28.67519           27.89841
        4.114114           30.31370           26.66064
        4.124124           31.68044           25.09127
        4.134134           32.66593           23.26832
        4.144144           33.19191           21.31443
        4.154154           33.23202           19.37907
        4.164164           32.81934           17.61155
        4.174174           32.03878           16.13376
        4.184184           31.00614           15.02267
        4.194194           29.84388           14.30708
        4.204204           28.66298           13.97613
        4.214214           27.55182           13.99230
        4.224224           26.57467           14.30540
        4.234234           25.77407           14.86178
        4.244244           25.17657           15.61089
        4.254254           24.79748           16.50794
        4.264264           24.64608           17.51432
        4.274274           24.72850           18.59684
        4.284284           25.05068           19.72617
        4.294294           25.61962           20.87454
        4.304304           26.44422           22.01408
        4.314314           27.53562           23.11431
        4.324324           28.90648           24.13927
        4.334334           30.56940           25.04555
        4.344344           32.53457           25.77910
        4.354354           34.80595           26.27308
        4.364364           37.37479           26.44619
        4.374374           40.21156           26.20337
        4.384384           43.25610           25.43978
        4.394394           46.40702           24.05091
        4.404404           49.51340           21.95029
        4.414414           52.37606           19.09434
        4.424424           54.76171           15.51007
        4.434434           56.43566           11.31705
        4.444444           57.20790           6.729832
        4.454454           56.97850           2.032671
        4.464464           55.76485          -2.470428
        4.474474           53.69587          -6.511858
        4.484484           50.97859          -9.904452
        4.494494           47.84958          -12.55774
        4.504504           44.53173          -14.46867
        4.514514           41.20790          -15.69640
        4.524524           38.01072          -16.33444
        4.534534           35.02495          -16.48815
        4.544544           32.29660          -16.25881
        4.554554           29.84378          -15.73597
        4.564565           27.66595          -14.99408
        4.574574           25.75176          -14.09293
        4.584584           24.08362          -13.07863
        4.594594           22.64212          -11.98626
        4.604605           21.40769          -10.84197
        4.614614           20.36233          -9.664948
        4.624624           19.48966          -8.468737
        4.634634           18.77596          -7.263176
        4.644644           18.21001          -6.055042
        4.654655           17.78281          -4.848974
        4.664664           17.48806          -3.648314
        4.674675           17.32172          -2.455619
        4.684684           17.28205          -1.273104
        4.694695           17.36953          -0.103127
        4.704704           17.58702           1.051210
        4.714715           17.93944           2.185601
        4.724724           18.43406           3.293854
        4.734735           19.08019           4.367259
        4.744744           19.88904           5.393369
        4.754755           20.87312           6.355057
        4.764764           22.04562           7.228974
        4.774775           23.41906           7.984115
        4.784785           25.00283           8.579928
        4.794795           26.79966           8.965006
        4.804804           28.80080           9.076559
        4.814815           30.97960           8.841579
        4.824825           33.28287           8.181305
        4.834835           35.62429           7.020661
        4.844844           37.87954           5.303343
        4.854855           39.89007           3.011696
        4.864865           41.47774           0.187372
        4.874875           42.47362          -3.056087
        4.884884           42.75406          -6.538122
        4.894895           42.27150          -10.03603
        4.904905           41.06759          -13.32607
        4.914915           39.26172          -16.22440
        4.924924           37.01969          -18.61419
        4.934935           34.51860          -20.45034
        4.944945           31.91746          -21.74807
        4.954955           29.34089          -22.56249
        4.964964           26.87560          -22.96862
        4.974975           24.57436          -23.04572
        4.984985           22.46349          -22.86778
        4.994995           20.55043          -22.49880
        5.005005           18.83044          -21.99135
        5.015015           17.29201          -21.38709
        5.025025           15.91996          -20.71836
        5.035035           14.69798          -20.00950
        5.045045           13.60978          -19.27864
        5.055055           12.64013          -18.53902
        5.065065           11.77502          -17.80025
        5.075075           11.00199          -17.06904
        5.085085           10.30990          -16.34997
        5.095095           9.689034          -15.64620
        5.105105           9.130913          -14.95960
        5.115115           8.628159          -14.29125
        5.125125           8.174341          -13.64165
        5.135135           7.763885          -13.01077
        5.145144           7.392003          -12.39839
        5.155155           7.054461          -11.80397
        5.165165           6.747625          -11.22687
        5.175175           6.468342          -10.66637
        5.185184           6.213808          -10.12168
        5.195195           5.981654          -9.591917
        5.205205           5.769733          -9.076279
        5.215215           5.576218          -8.573943
        5.225225           5.399507          -8.084070
        5.235235           5.238171          -7.605821
        5.245245           5.090939          -7.138440
        5.255255           4.956767          -6.681164
        5.265265           4.834682          -6.233280
        5.275275           4.723834          -5.793993
        5.285285           4.623517          -5.362701
        5.295295           4.533072          -4.938682
        5.305305           4.451972          -4.521334
        5.315315           4.379718          -4.109985
        5.325325           4.315920          -3.704062
        5.335335           4.260239          -3.302979
        5.345345           4.212390          -2.906156
        5.355355           4.172161          -2.512999
        5.365365           4.139375          -2.122982
        5.375375           4.113929          -1.735555
        5.385385           4.095730          -1.350183
        5.395395           4.084782          -0.966308
        5.405405           4.081128          -0.583405
        5.415415           4.084827          -0.200958
        5.425425           4.096036           0.181608
        5.435435           4.114949           0.564813
        5.445445           4.141816           0.949210
        5.455455           4.176940           1.335331
        5.465465           4.220719           1.723780
        5.475475           4.273602           2.115097
        5.485485           4.336138           2.509879
        5.495495           4.408951           2.908707
        5.505505           4.492776           3.312195
        5.515515           4.588485           3.720969
        5.525526           4.697041           4.135625
        5.535535           4.819571           4.556767
        5.545545           4.957399           4.985082
        5.555555           5.112009           5.421095
        5.565566           5.285136           5.865420
        5.575575           5.478755           6.318556
        5.585585           5.695174           6.780978
        5.595595           5.937002           7.253073
        5.605606           6.207286           7.734948
        5.615615           6.509455           8.226561
        5.625625           6.847565           8.727626
        5.635635           7.226154           9.237281
        5.645645           7.650378           9.754143
        5.655655           8.126149           10.27601
        5.665665           8.660013           10.79956
        5.675675           9.259151           11.31996
        5.685685           9.931271           11.83066
        5.695695           10.68430           12.32259
        5.705705           11.52583           12.78357
        5.715715           12.46221           13.19800
        5.725725           13.49735           13.54611
        5.735735           14.63072           13.80411
        5.745746           15.85505           13.94492
        5.755755           17.15381           13.94029
        5.765765           18.49904           13.76446
        5.775775           19.85144           13.40013
        5.785786           21.16304           12.84480
        5.795795           22.38489           12.11610
        5.805805           23.47776           11.25271
        5.815815           24.42370           10.30819
        5.825826           25.23277           9.338549
        5.835835           25.94200           8.386535
        5.845845           26.60530           7.469228
        5.855855           27.27899           6.571776
        5.865866           28.00629           5.650115
        5.875876           28.80448           4.638511
        5.885885           29.65714           3.462570
        5.895895           30.51059           2.053936
        5.905906           31.27700           0.367796
        5.915915           31.84488          -1.601196
        5.925925           32.09926          -3.808080
        5.935935           31.94659          -6.157143
        5.945946           31.33883          -8.516637
        5.955956           30.28601          -10.74467
        5.965966           28.85261          -12.71863
        5.975976           27.13993          -14.35537
        5.985986           25.26167          -15.61891
        5.995996           23.32345          -16.51478
        6.006006           21.41019          -17.07739
        6.016016           19.58202          -17.35634
        6.026026           17.87583          -17.40569
        6.036036           16.31009          -17.27661
        6.046046           14.88988          -17.01389
        6.056056           13.61178          -16.65460
        6.066066           12.46728          -16.22824
        6.076076           11.44527          -15.75776
        6.086086           10.53374          -15.26037
        6.096096           9.720757          -14.74903
        6.106106           8.995146          -14.23318
        6.116116           8.346598          -13.71966
        6.126126           7.765821          -13.21312
        6.136136           7.244714          -12.71696
        6.146146           6.776037          -12.23324
        6.156156           6.353508          -11.76341
        6.166166           5.971628          -11.30818
        6.176176           5.625662          -10.86780
        6.186186           5.311472          -10.44237
        6.196196           5.025416          -10.03163
        6.206206           4.764389          -9.635207
        6.216216           4.525649          -9.252658
        6.226226           4.306791          -8.883485
        6.236236           4.105742          -8.527100
        6.246246           3.920652          -8.182940
        6.256256           3.749946          -7.850440
        6.266266           3.592172          -7.528994
        6.276276           3.446088          -7.218091
        6.286286           3.310590          -6.917183
        6.296296           3.184711          -6.625748
        6.306306           3.067561          -6.343307
        6.316316           2.958376          -6.069360
        6.326326           2.856449          -5.803500
        6.336336           2.761169          -5.545263
        6.346346           2.671993          -5.294328
        6.356356           2.588406          -5.050243
        6.366366           2.509968          -4.812696
        6.376376           2.436277          -4.581329
        6.386386           2.366956          -4.355866
        6.396396           2.301680          -4.135969
        6.406406           2.240157          -3.921383
        6.416416           2.182115          -3.711847
        6.426426           2.127287          -3.507091
        6.436436           2.075478          -3.306889
        6.446446           2.026461          -3.111042
        6.456456           1.980054          -2.919326
        6.466466           1.936075          -2.731543
        6.476476           1.894392          -2.547498
        6.486486           1.854837          -2.367034
        6.496496           1.817289          -2.189977
        6.506506           1.781616          -2.016172
        6.516516           1.747718          -1.845451
        6.526526           1.715481          -1.677691
        6.536536           1.684812          -1.512774
        6.546546           1.655625          -1.350537
        6.556556           1.627834          -1.190875
        6.566566           1.601363          -1.033671
        6.576576           1.576151          -0.878826
        6.586586           1.552115          -0.726220
        6.596596           1.529210          -0.575755
        6.606606           1.507372          -0.427342
        6.616616           1.486548          -0.280890
        6.626626           1.466693          -0.136306
        6.636636           1.447759           0.006491
        6.646646           1.429706           0.147582
        6.656656           1.412491           0.287030
        6.666666           1.396072           0.424927
        6.676676           1.380427           0.561334
        6.686686           1.365516           0.696315
        6.696696           1.351308           0.829945
        6.706707           1.337775           0.962283
        6.716716           1.324894           1.093389
        6.726726           1.312638           1.223311
        6.736736           1.300980           1.352121
        6.746747           1.289903           1.479865
        6.756756           1.279387           1.606595
        6.766766           1.269406           1.732361
        6.776776           1.259951           1.857219
        6.786787           1.250999           1.981212
        6.796796           1.242538           2.104381
        6.806807           1.234549           2.226779
        6.816816           1.227024           2.348440
        6.826826           1.219945           2.469416
        6.836837           1.213302           2.589752
        6.846846           1.207085           2.709472
        6.856857           1.201280           2.828636
        6.866867           1.195881           2.947263
        6.876876           1.190873           3.065397
        6.886887           1.186255           3.183090
        6.896896           1.182015           3.300350
        6.906906           1.178146           3.417234
        6.916917           1.174644           3.533775
        6.926927           1.171498           3.650000
        6.936936           1.168707           3.765944
        6.946947           1.166262           3.881650
        6.956956           1.164160           3.997135
        6.966967           1.162394           4.112453
        6.976976           1.160968           4.227603
        6.986986           1.159871           4.342648
        6.996997           1.159105           4.457622
        7.007007           1.158662           4.572526
        7.017016           1.158548           4.687414
        7.027027           1.158754           4.802316
        7.037036           1.159280           4.917251
        7.047047           1.160128           5.032263
        7.057057           1.161294           5.147376
        7.067066           1.162785           5.262614
        7.077077           1.164593           5.378025
        7.087087           1.166720           5.493627
        7.097096           1.169170           5.609450
        7.107107           1.171942           5.725540
        7.117116           1.175039           5.841908
        7.127127           1.178461           5.958602
        7.137137           1.182216           6.075644
        7.147147           1.186299           6.193066
        7.157157           1.190720           6.310899
        7.167167           1.195478           6.429185
        7.177176           1.200578           6.547937
        7.187187           1.206023           6.667223
        7.197196           1.211825           6.787042
        7.207206           1.217980           6.907444
        7.217217           1.224501           7.028460
        7.227227           1.231389           7.150117
        7.237237           1.238652           7.272479
        7.247247           1.246297           7.395544
        7.257257           1.254335           7.519378
        7.267267           1.262767           7.643994
        7.277277           1.271609           7.769464
        7.287286           1.280864           7.895791
        7.297297           1.290544           8.023046
        7.307307           1.300661           8.151249
        7.317317           1.311226           8.280429
        7.327327           1.322250           8.410693
        7.337337           1.333740           8.542015
        7.347347           1.345715           8.674457
        7.357357           1.358186           8.808095
        7.367367           1.371170           8.942954
        7.377377           1.384680           9.079086
        7.387387           1.398733           9.216523
        7.397398           1.413346           9.355357
        7.407407           1.428536           9.495612
        7.417417           1.444323           9.637331
        7.427427           1.460726           9.780603
        7.437437           1.477769           9.925475
        7.447447           1.495473           10.07201
        7.457457           1.513861           10.22027
        7.467467           1.532958           10.37033
        7.477477           1.552788           10.52222
        7.487487           1.573389           10.67606
        7.497497           1.594779           10.83189
        7.507507           1.616998           10.98977
        7.517517           1.640070           11.14982
        7.527527           1.664038           11.31209
        7.537537           1.688938           11.47670
        7.547547           1.714806           11.64368
        7.557557           1.741689           11.81315
        7.567567           1.769628           11.98526
        7.577577           1.798669           12.15999
        7.587587           1.828868           12.33753
        7.597597           1.860267           12.51797
        7.607607           1.892935           12.70140
        7.617618           1.926928           12.88799
        7.627627           1.962306           13.07778
        7.637637           1.999145           13.27093
        7.647647           2.037518           13.46761
        7.657657           2.077492           13.66794
        7.667667           2.119158           13.87206
        7.677677           2.162608           14.08009
        7.687687           2.207930           14.29224
        7.697698           2.255236           14.50865
        7.707707           2.304628           14.72950
        7.717717           2.356226           14.95500
        7.727727           2.410153           15.18527
        7.737737           2.466552           15.42066
        7.747747           2.525553           15.66120
        7.757757           2.587339           15.90728
        7.767767           2.652061           16.15903
        7.777778           2.719912           16.41678
        7.787787           2.791077           16.68073
        7.797797           2.865779           16.95119
        7.807807           2.944265           17.22849
        7.817817           3.026761           17.51284
        7.827827           3.113555           17.80468
        7.837838           3.204957           18.10432
        7.847847           3.301267           18.41210
        7.857858           3.402865           18.72852
        7.867867           3.510138           19.05388
        7.877877           3.623487           19.38864
        7.887887           3.743405           19.73341
        7.897897           3.870391           20.08847
        7.907907           4.005018           20.45445
        7.917918           4.147910           20.83198
        7.927927           4.299745           21.22153
        7.937938           4.461289           21.62378
        7.947948           4.633375           22.03942
        7.957957           4.816957           22.46914
        7.967968           5.013070           22.91371
        7.977977           5.222878           23.37386
        7.987987           5.447682           23.85045
        7.997998           5.688953           24.34442
        8.008007           5.948291           24.85657
        8.018017           6.227565           25.38796
        8.028028           6.528866           25.93960
        8.038037           6.854518           26.51237
        8.048048           7.207224           27.10751
        8.058058           7.589935           27.72591
        8.068068           8.006148           28.36865
        8.078078           8.459813           29.03669
        8.088087           8.955371           29.73095
        8.098097           9.497992           30.45216
        8.108108           10.09359           31.20077
        8.118117           10.74886           31.97711
        8.128128           11.47166           32.78062
        8.138138           12.27079           33.61042
        8.148148           13.15652           34.46461
        8.158158           14.14056           35.33979
        8.168168           15.23592           36.23099
        8.178178           16.45763           37.13083
        8.188188           17.82219           38.02864
        8.198197           19.34744           38.90934
        8.208207           21.05219           39.75270
        8.218218           22.95544           40.53132
        8.228228           25.07396           41.20889
        8.238238           27.42058           41.73910
        8.248248           29.99885           42.06385
        8.258258           32.79839           42.11384
        8.268268           35.78732           41.81117
        8.278277           38.90370           41.07588
        8.288287           42.05061           39.83796
        8.298298           45.09470           38.05526
        8.308308           47.87478           35.73448
        8.318318           50.22591           32.94714
        8.328328           52.01076           29.83545
        8.338338           53.15646           26.59395
        8.348348           53.67653           23.43494
        8.358357           53.66979           20.54471
        8.368367           53.29683           18.04593
        8.378378           52.74178           15.98195
        8.388388           52.17602           14.32101
        8.398398           51.73127           12.97353
        8.408408           51.48541           11.81695
        8.418418           51.45806           10.71857
        8.428429           51.61441           9.558594
        8.438437           51.87491           8.249312
        8.448447           52.13299           6.751013
        8.458458           52.27938           5.080242
        8.468468           52.22972           3.305161
        8.478477           51.94793           1.525744
        8.488488           51.45498          -0.155869
        8.498498           50.82154          -1.664976
        8.508509           50.14405          -2.975107
        8.518518           49.51761          -4.111540
        8.528527           49.01154          -5.143114
        8.538538           48.65332          -6.163941
        8.548548           48.42188          -7.271405
        8.558558           48.25068          -8.544418
        8.568568           48.03955          -10.02320
        8.578578           47.67669          -11.69530
        8.588589           47.06535          -13.49520
        8.598598           46.15027          -15.31652
        8.608608           44.93235          -17.03968
        8.618618           43.46684          -18.56143
        8.628628           41.84582          -19.81775
        8.638638           40.17302          -20.79402
        8.648648           38.54016          -21.51986
        8.658658           37.01188          -22.05586
        8.668669           35.61692          -22.47757
        8.678679           34.34918          -22.85913
        8.688688           33.17213          -23.25925
        8.698698           32.02913          -23.71103
        8.708708           30.85806          -24.21543
        8.718718           29.60536          -24.74341
        8.728728           28.24068          -25.24411
        8.738738           26.76249          -25.66020
        8.748748           25.19574          -25.94225
        8.758759           23.58232          -26.05946
        8.768768           21.96972          -26.00199
        8.778779           20.40071          -25.77876
        8.788788           18.90830          -25.41056
        8.798798           17.51378          -24.92385
        8.808808           16.22800          -24.34625
        8.818818           15.05399          -23.70284
        8.828828           13.98884          -23.01522
        8.838839           13.02640          -22.30066
        8.848848           12.15892          -21.57271
        8.858859           11.37752          -20.84157
        8.868869           10.67374          -20.11486
        8.878878           10.03937          -19.39771
        8.888888           9.466756          -18.69384
        8.898898           8.949157          -18.00573
        8.908908           8.480497          -17.33482
        8.918919           8.055292          -16.68171
        8.928928           7.668912          -16.04679
        8.938939           7.317139          -15.42999
        8.948949           6.996358          -14.83088
        8.958959           6.703413          -14.24898
        8.968968           6.435431          -13.68358
        8.978978           6.190064          -13.13398
        8.988988           5.965129          -12.59950
        8.998999           5.758749          -12.07918
        9.009008           5.569294          -11.57241
        9.019018           5.395283          -11.07833
        9.029029           5.235454          -10.59609
        9.039039           5.088700          -10.12510
        9.049048           4.953992          -9.664479
        9.059058           4.830457          -9.213632
        9.069068           4.717345          -8.771842
        9.079079           4.613955          -8.338408
        9.089088           4.519686          -7.912745
        9.099098           4.434015          -7.494228
        9.109109           4.356469          -7.082196
        9.119119           4.286647          -6.676220
        9.129129           4.224198          -6.275606
        9.139138           4.168835          -5.879874
        9.149148           4.120295          -5.488534
        9.159159           4.078354          -5.100920
        9.169168           4.042862          -4.716714
        9.179178           4.013673          -4.335317
        9.189189           3.990699          -3.956222
        9.199199           3.973884          -3.578979
        9.209209           3.963192          -3.203121
        9.219219           3.958651          -2.828119
        9.229228           3.960301          -2.453551
        9.239239           3.968228          -2.078872
        9.249249           3.982556          -1.703608
        9.259258           4.003451          -1.327338
        9.269269           4.031120          -0.949411
        9.279279           4.065809          -0.569448
        9.289289           4.107821          -0.186865
        9.299299           4.157525           0.198925
        9.309309           4.215293           0.588363
        9.319319           4.281632           0.982114
        9.329329           4.357076           1.380704
        9.339338           4.442245           1.784755
        9.349349           4.537869           2.194964
        9.359359           4.644740           2.611899
        9.369369           4.763796           3.036268
        9.379379           4.896104           3.468791
        9.389389           5.042840           3.910137
        9.399399           5.205399           4.361131
        9.409409           5.385317           4.822429
        9.419418           5.584396           5.294826
        9.429429           5.804692           5.779151
        9.439439           6.048501           6.276079
        9.449449           6.318520           6.786327
        9.459459           6.617856           7.310609
        9.469469           6.949986           7.849421
        9.479479           7.319038           8.403264
        9.489489           7.729658           8.972243
        9.499498           8.187267           9.556290
        9.509509           8.698161           10.15493
        9.519519           9.269452           10.76694
        9.529529           9.909454           11.39040
        9.539539           10.62773           12.02227
        9.549549           11.43498           12.65787
        9.559559           12.34354           13.29058
        9.569570           13.36719           13.91104
        9.579578           14.52078           14.50612
        9.589589           15.82048           15.05813
        9.599599           17.28234           15.54311
        9.609609           18.92158           15.92947
        9.619619           20.75027           16.17630
        9.629629           22.77339           16.23186
        9.639639           24.98483           16.03300
        9.649650           27.36052           15.50628
        9.659659           29.84996           14.57241
        9.669669           32.37010           13.15498
        9.679679           34.79914           11.19592
        9.689689           36.98093           8.674735
        9.699699           38.73893           5.629116
        9.709709           39.90363           2.169085
        9.719719           40.34937          -1.527991
        9.729730           40.02531          -5.241386
        9.739739           38.96986          -8.746329
        9.749749           37.29982          -11.85730
        9.759759           35.18031          -14.45446
        9.769769           32.78933          -16.48965
        9.779779           30.28711          -17.97642
        9.789789           27.80092          -18.96864
        9.799799           25.41939          -19.54114
        9.809810           23.19689          -19.77351
        9.819819           21.16133          -19.74028
        9.829829           19.32104          -19.50619
        9.839839           17.67200          -19.12449
        9.849849           16.20341          -18.63758
        9.859859           14.90029          -18.07817
        9.869869           13.74679          -17.47116
        9.879879           12.72684          -16.83499
        9.889890           11.82535          -16.18317
        9.899899           11.02868          -15.52559
        9.909909           10.32447          -14.86903
        9.919919           9.701822          -14.21824
        9.929929           9.151352          -13.57644
        9.939939           8.664739          -12.94549
        9.949949           8.234964          -12.32657
        9.959959           7.855882          -11.72009
        9.969970           7.522233          -11.12596
        9.979980           7.229616          -10.54393
        9.989989           6.974231          -9.973361
        10.00000           6.752850          -9.413431
# 
# 09/17/2024 at 14:07 yambo_rt @ baym [start]
# 09/17/2024 at 14:07                 [end]
#
# .-Input file  yambo.in
# | optics                           # [R] Linear Response optical properties
# | bse                              # [R][BSE] Bethe Salpeter Equation.
# | BoseTemp= 0.861734E-4      eV    # Bosonic Temperature
# | FFTGvecs=  387             RL    # [FFT] Plane-waves
# | BS_nCPU_LinAlg_INV= 1            # [PARALLEL] CPUs for Linear Algebra (if -1 it is automatically set)
# | BS_nCPU_LinAlg_DIAGO= 1          # [PARALLEL] CPUs for Linear Algebra (if -1 it is automatically set)
# | BSKmod= "IP"                     # [BSE] IP/Hartree/HF/ALDA/SEX/BSfxc
# | BSEmod= "retarded"               # [BSE] resonant/retarded/coupling
# | DipComputed= "R V P"             # [DIP] [default R P V; extra P2 Spin Orb]
# | BSENGexx= 2085             RL    # [BSK] Exchange components
# | KfnRTdb= "f @ 0. ps < 02_carriers_Fermi_DB/ndb.RT_carriers" # [EXTRT BSK BSS] Database
# | % BSEQptR
# |  1 | 1 |                             # [BSK] Transferred momenta range
# | %
# | % BSEBands
# |   1 |  8 |                           # [BSK] Bands range
# | %
# | RTOccMode= "R"                   # [RT-BSE] (K)ernel/(R)esiduals. BSE components to be corrected with the TD occupations
# | % BEnRange
# |   0.00000 | 10.00000 |         eV    # [BSS] Energy range
# | %
# | % BDmRange
# |  0.100000 | 0.100000 |         eV    # [BSS] Damping range
# | %
# | BEnSteps= 1000                   # [BSS] Energy steps
# | % BLongDir
# |  0.100000E-4 |  0.00000    |  0.00000    # [BSS] [cc] Electric Field
# | %
# | BSEprop= "abs jdos"              # [BSS] Can be any among abs/jdos/kerr/magn/dich/photolum/esrt
# | BSEdips= "none"                  # [BSS] Can be "trace/none" or "xy/xz/yz" to define off-diagonal rotation plane
