#                                                           
#  **    **    **     ****     ****  ******     *******     
# //**  **    ****   /**/**   **/** /*////**   **/////**    
#  //****    **//**  /**//** ** /** /*   /**  **     //**   
#   //**    **  //** /** //***  /** /******  /**      /**   
#    /**   **********/**  //*   /** /*//// **/**      /**   
#    /**  /**//////**/**   /    /** /*    /**//**     **    
#    /**  /**     /**/**        /** /*******  //*******     
#    //   //      // //         //  ///////    ///////      
#                                                           
#        Version 4.3.0 Revision 15733 Hash 75aedaa          
#                      MPI+SLK Build                        
#                http://www.yambo-code.org                  
#
# Absorption @ Q(1) [q->0 direction] : 1.0000000  0.0000000  0.0000000
#
#
# - Energies      are  Analyt. E
# - Wavefunctions are Slater exchange(X)+Perdew & Zunger(C)
#
# - The Green`s function is T-ordered -
# - Using the Length Gauge -
# - [r,Vnl] is *NOT* included -
#
#    E/ev[1]       EPS-Im[2]     EPS-Re[3]
#
     0.000000      0.260803     22.851074
   0.10010E-1    0.26081        22.851   
   0.20020E-1    0.26082        22.852   
     0.030030      0.260847     22.852232
     0.040040      0.260882     22.853130
     0.050050      0.260926     22.854290
     0.060060      0.260979     22.855707
     0.070070      0.261043     22.857386
     0.080080      0.261116     22.859325
     0.090090      0.261199     22.861507
     0.100100      0.261292     22.863960
     0.110110      0.261395     22.866667
     0.120120      0.261508     22.869637
     0.130130      0.261630     22.872860
     0.140140      0.261762     22.876345
     0.150150      0.261905     22.880091
     0.160160      0.262057     22.884098
     0.170170      0.262219     22.888363
     0.180180      0.262391     22.892889
     0.190190      0.262573     22.897678
     0.200200      0.262765     22.902723
     0.210210      0.262967     22.908039
     0.220220      0.263179     22.913599
     0.230230      0.263401     22.919436
     0.240240      0.263634     22.925531
     0.250250      0.263876     22.931898
     0.260260      0.264129     22.938519
     0.270270      0.264392     22.945404
     0.280280      0.264665     22.952557
     0.290290      0.264948     22.959984
     0.300300      0.265242     22.967665
     0.310310      0.265546     22.975618
     0.320320      0.265861     22.983839
     0.330330      0.266186     22.992317
     0.340340      0.266521     23.001081
     0.350350      0.266867     23.010105
     0.360360      0.267224     23.019407
     0.370370      0.267591     23.028969
     0.380380      0.267969     23.038811
     0.390390      0.268358     23.048931
     0.400400      0.268757     23.059307
     0.410410      0.269168     23.069967
     0.420420      0.269589     23.080902
     0.430430      0.270021     23.092112
     0.440440      0.270464     23.103600
     0.450450      0.270919     23.115360
     0.460460      0.271384     23.127403
     0.470470      0.271861     23.139721
     0.480480      0.272349     23.152334
     0.490490      0.272849     23.165215
     0.500500      0.273360     23.178379
     0.510511      0.273882     23.191830
     0.520521      0.274416     23.205564
     0.530531      0.274962     23.219589
     0.540541      0.275519     23.233898
     0.550551      0.276089     23.248503
     0.560561      0.276670     23.263382
     0.570571      0.277263     23.278559
     0.580581      0.277868     23.294035
     0.590591      0.278486     23.309801
     0.600601      0.279116     23.325851
     0.610611      0.279758     23.342215
     0.620621      0.280412     23.358858
     0.630631      0.281079     23.375809
     0.640641      0.281759     23.393066
     0.650651      0.282452     23.410616
     0.660661      0.283157     23.428478
     0.670671      0.283875     23.446644
     0.680681      0.284607     23.465111
     0.690691      0.285351     23.483896
     0.700701      0.286109     23.502985
     0.710711      0.286881     23.522379
     0.720721      0.287665     23.542091
     0.730731      0.288464     23.562109
     0.740741      0.289276     23.582455
     0.750751      0.290103     23.603109
     0.760761      0.290943     23.624092
     0.770771      0.291797     23.645393
     0.780781      0.292666     23.667027
     0.790791      0.293549     23.688978
     0.800801      0.294447     23.711254
     0.810811      0.295359     23.733856
     0.820821      0.296287     23.756802
     0.830831      0.297229     23.780077
     0.840841      0.298187     23.803686
     0.850851      0.299160     23.827637
     0.860861      0.300148     23.851923
     0.870871      0.301152     23.876558
     0.880881      0.302172     23.901535
     0.890891      0.303208     23.926847
     0.900901      0.304260     23.952534
     0.910911      0.305329     23.978552
     0.920921      0.306414     24.004930
     0.930931      0.307515     24.031670
     0.940941      0.308634     24.058767
     0.950951      0.309769     24.086226
     0.960961      0.310922     24.114042
     0.970971      0.312093     24.142235
     0.980981      0.313281     24.170792
     0.990991      0.314487     24.199711
     1.001001      0.315711     24.229023
     1.011011      0.316953     24.258715
     1.021021      0.318214     24.288774
     1.031031      0.319494     24.319229
     1.041041      0.320793     24.350063
     1.051051      0.322111     24.381289
     1.061061      0.323448     24.412918
     1.071071      0.324805     24.444929
     1.081081      0.326183     24.477348
     1.091091      0.327580     24.510168
     1.101101      0.328998     24.543386
     1.111111      0.330436     24.577026
     1.121121      0.331896     24.611067
     1.131131      0.333377     24.645538
     1.141141      0.334880     24.680424
     1.151151      0.336404     24.715727
     1.161161      0.337951     24.751457
     1.171171      0.339520     24.787628
     1.181181      0.341112     24.824228
     1.191191      0.342726     24.861263
     1.201201      0.344365     24.898758
     1.211211      0.346027     24.936691
     1.221221      0.347713     24.975065
     1.231231      0.349423     25.013910
     1.241241      0.351159     25.053207
     1.251251      0.352919     25.092966
     1.261261      0.354705     25.133202
     1.271271      0.356517     25.173901
     1.281281      0.358355     25.215073
     1.291291      0.360219     25.256735
     1.301301      0.362111     25.298878
     1.311311      0.364030     25.341515
     1.321321      0.365977     25.384653
     1.331331      0.367952     25.428289
     1.341341      0.369956     25.472439
     1.351351      0.371989     25.517082
     1.361361      0.374051     25.562260
     1.371371      0.376144     25.607952
     1.381381      0.378267     25.654169
     1.391391      0.380421     25.700920
     1.401401      0.382607     25.748220
     1.411411      0.384824     25.796051
     1.421421      0.387074     25.844448
     1.431431      0.389358     25.893394
     1.441441      0.391675     25.942902
     1.451451      0.394025     25.992973
     1.461461      0.396411     26.043625
     1.471471      0.398832     26.094854
     1.481481      0.401289     26.146666
     1.491491      0.403782     26.199091
     1.501501      0.406313     26.252100
     1.511511      0.408881     26.305731
     1.521521      0.411488     26.359968
     1.531531      0.414133     26.414825
     1.541541      0.416818     26.470316
     1.551551      0.419544     26.526461
     1.561561      0.422311     26.583233
     1.571571      0.425120     26.640654
     1.581581      0.427972     26.698748
     1.591591      0.430867     26.757502
     1.601601      0.433806     26.816946
     1.611612      0.436790     26.877050
     1.621622      0.439820     26.937868
     1.631632      0.442897     26.999392
     1.641642      0.446021     27.061617
     1.651652      0.449194     27.124569
     1.661662      0.452416     27.188255
     1.671672      0.455689     27.252672
     1.681682      0.459012     27.317841
     1.691692      0.462388     27.383768
     1.701702      0.465818     27.450466
     1.711712      0.469301     27.517941
     1.721722      0.472840     27.586206
     1.731732      0.476435     27.655272
     1.741742      0.480088     27.725151
     1.751752      0.483800     27.795849
     1.761762      0.487572     27.867386
     1.771772      0.491405     27.939770
     1.781782      0.495300     28.013008
     1.791792      0.499259     28.087114
     1.801802      0.503283     28.162096
     1.811812      0.507373     28.237980
     1.821822      0.511532     28.314775
     1.831832      0.515759     28.392490
     1.841842      0.520057     28.471136
     1.851852      0.524427     28.550734
     1.861862      0.528871     28.631290
     1.871872      0.533391     28.712818
     1.881882      0.537987     28.795336
     1.891892      0.542662     28.878878
     1.901902      0.547417     28.963427
     1.911912      0.552255     29.049019
     1.921922      0.557177     29.135664
     1.931932      0.562185     29.223377
     1.941942      0.567281     29.312176
     1.951952      0.572466     29.402096
     1.961962      0.577744     29.493116
     1.971972      0.583116     29.585285
     1.981982      0.588585     29.678612
     1.991992      0.594152     29.773119
     2.002002      0.599820     29.868820
     2.012012      0.605592     29.965742
     2.022022      0.611470     30.063908
     2.032032      0.617457     30.163334
     2.042042      0.623555     30.264029
     2.052052      0.629767     30.366024
     2.062062      0.636095     30.469345
     2.072072      0.642544     30.574022
     2.082082      0.649116     30.680082
     2.092092      0.655813     30.787537
     2.102102      0.662640     30.896389
     2.112112      0.669599     31.006701
     2.122122      0.676694     31.118483
     2.132132      0.683930     31.231791
     2.142142      0.691308     31.346590
     2.152152      0.698834     31.462957
     2.162162      0.706511     31.580910
     2.172172      0.714343     31.700491
     2.182182      0.722335     31.821724
     2.192192      0.730491     31.944626
     2.202202      0.738815     32.069229
     2.212212      0.747313     32.195591
     2.222222      0.755989     32.323738
     2.232232      0.764849     32.453674
     2.242242      0.773897     32.585480
     2.252252      0.783139     32.719181
     2.262262      0.792581     32.854790
     2.272272      0.802230     32.992386
     2.282282      0.812090     33.131973
     2.292292      0.822169     33.273647
     2.302302      0.832472     33.417393
     2.312312      0.843008     33.563274
     2.322322      0.853783     33.711327
     2.332332      0.864805     33.861656
     2.342342      0.876081     34.014248
     2.352352      0.887621     34.169170
     2.362362      0.899431     34.326469
     2.372372      0.911522     34.486252
     2.382382      0.923901     34.648502
     2.392392      0.936580     34.813297
     2.402402      0.949568     34.980721
     2.412412      0.962876     35.150841
     2.422422      0.976514     35.323666
     2.432432      0.990494     35.499310
     2.442442      1.004827     35.677872
     2.452452      1.019527     35.859344
     2.462462      1.034607     36.043846
     2.472472      1.050081     36.231426
     2.482482      1.065962     36.422203
     2.492492      1.082266     36.616219
     2.502502      1.099008     36.813576
     2.512512      1.116207     37.014362
     2.522522      1.133877     37.218685
     2.532532      1.152040     37.426624
     2.542542      1.170712     37.638248
     2.552552      1.189916     37.853722
     2.562562      1.209671     38.073086
     2.572572      1.230001     38.296501
     2.582582      1.250929     38.524052
     2.592592      1.272480     38.755886
     2.602602      1.294682     38.992092
     2.612612      1.317561     39.232834
     2.622622      1.341147     39.478237
     2.632632      1.365471     39.728413
     2.642642      1.390566     39.983551
     2.652653      1.416467     40.243793
     2.662663      1.443212     40.509304
     2.672673      1.470838     40.780231
     2.682683      1.499390     41.056786
     2.692693      1.528909     41.339123
     2.702703      1.559444     41.627438
     2.712713      1.591046     41.921925
     2.722723      1.623767     42.222839
     2.732733      1.657665     42.530357
     2.742743      1.692801     42.844749
     2.752753      1.729241     43.166229
     2.762763      1.767054     43.495056
     2.772773      1.806315     43.831558
     2.782783      1.847107     44.175972
     2.792793      1.889513     44.528614
     2.802803      1.933628     44.889805
     2.812813      1.979552     45.259872
     2.822823      2.027394     45.639202
     2.832833      2.077270     46.028160
     2.842843      2.129307     46.427139
     2.852853      2.183644     46.836578
     2.862863      2.240429     47.256924
     2.872873      2.299824     47.688660
     2.882883      2.362007     48.132305
     2.892893      2.427170     48.588421
     2.902903      2.495524     49.057533
     2.912913      2.567303     49.540348
     2.922923      2.642761     50.037445
     2.932933      2.722178     50.549625
     2.942943      2.805863     51.077633
     2.952953      2.894162     51.622250
     2.962963      2.987450     52.184425
     2.972973      3.086156     52.765095
     2.982983      3.190750     53.365288
     2.992993      3.301760     53.986149
     3.003003      3.419781     54.628883
     3.013013      3.545488     55.294830
     3.023023      3.679627     55.985435
     3.033033      3.823075     56.702267
     3.043043      3.976798     57.447052
     3.053053      4.141931     58.221699
     3.063063      4.319758     59.028252
     3.073073      4.511782     59.869038
     3.083083      4.719729     60.746571
     3.093093      4.945632     61.663639
     3.103103      5.191875     62.623417
     3.113113      5.461271     63.629295
     3.123123      5.757172     64.685181
     3.133133      6.083586     65.795303
     3.143143      6.445364     66.964523
     3.153153      6.848382     68.198120
     3.163163      7.299868     69.502220
     3.173173      7.808737     70.883415
     3.183183      8.386127     72.349098
     3.193193      9.046036     73.907356
     3.203203      9.806303     75.566879
     3.213213     10.689764     77.336632
     3.223223     11.726090     79.225403
     3.233233     12.953958     81.240440
     3.243243     14.424372     83.385605
     3.253253     16.204594     85.657005
     3.263263     18.383463     88.036064
     3.273273     21.076340     90.476135
     3.283283     24.428270     92.880341
     3.293293     28.606394     95.063446
     3.303303     33.765575     96.696777
     3.313313     39.950344     97.246483
     3.323323     46.892281     95.969986
     3.333333     53.723095     92.126701
     3.343343     58.881981     85.563309
     3.353353     60.727646     77.385284
     3.363363     58.748810     69.751114
     3.373373     54.032291     64.536636
     3.383383     48.337223     62.329567
     3.393393     43.006676     62.670849
     3.403403     38.673645     64.780792
     3.413413     35.483353     67.998505
     3.423423     33.362820     71.888199
     3.433433     32.182888     76.199760
     3.443443     31.828180     80.806839
     3.453453     32.221470     85.657021
     3.463463     33.329502     90.740654
     3.473473     35.163719     96.069496
      3.48348      37.78176     101.66382
      3.49349      41.29155     107.53948
      3.50350      45.85970     113.69425
      3.51351      51.72104     120.08324
      3.52352      59.18884     126.58141
      3.53353      68.65232     132.91940
      3.54354      80.53889     138.58742
      3.55355      95.18194     142.71480
      3.56356     112.52922     144.01447
      3.57357     131.69666     141.01590
      3.58358     150.74878     132.84918
      3.59359     167.47186     120.21281
      3.60360     181.07129     105.04716
      3.61361     192.61520      88.39835
      3.62362     202.87480      69.04675
      3.63363     209.93428      45.17959
      3.64364     209.75830      17.71855
      3.65365     199.94040      -8.57017
      3.66366     182.57005     -28.24393
      3.67367     162.65163     -39.02707
      3.68368     144.65622     -42.13226
      3.69369     131.00681     -40.29853
      3.70370     122.45483     -36.30603
      3.71371     118.76833     -32.58251
      3.72372     118.96950     -31.28487
      3.73373     121.12490     -34.17572
      3.74374     122.24413     -41.86105
      3.75375     119.22742     -52.77974
      3.76376     110.82196     -63.50911
     3.773773     98.470276    -70.937607
     3.783784     84.858452    -74.008682
     3.793794     72.084038    -73.417717
     3.803803     61.105026    -70.432396
     3.813814     52.074173    -66.147110
     3.823824     44.781158    -61.295528
     3.833834     38.915794    -56.307972
     3.843843     34.182983    -51.415203
     3.853854     30.337143    -46.728622
     3.863864     27.185919    -42.293835
     3.873873     24.581661    -38.120697
     3.883883     22.411606    -34.200344
     3.893894     20.590027    -30.515717
     3.903904     19.051126    -27.046167
     3.913913     17.744144    -23.770348
     3.923924     16.629461    -20.667215
     3.933934     15.676124    -17.717400
     3.943944     14.859666    -14.902843
     3.953954     14.160657    -12.207191
     3.963964     13.563516     -9.615149
     3.973974     13.055856     -7.113064
     3.983984     12.627748     -4.688316
     3.993994     12.271316     -2.329335
     4.004004     11.980318     -0.025108
     4.014014     11.749994      2.234448
     4.024024     11.576797      4.458964
     4.034034     11.458317      6.657598
     4.044044     11.393164      8.839483
     4.054054     11.380953     11.013334
     4.064064     11.422326     13.187922
     4.074074     11.518961     15.372005
     4.084084     11.673740     17.574793
     4.094094     11.890829     19.805536
     4.104104     12.175969     22.073883
     4.114114     12.536807     24.390314
     4.124124     12.983285     26.765614
     4.134134     13.528293     29.211342
     4.144144     14.188486     31.739649
     4.154154     14.985497     34.363487
     4.164164     15.947397     37.095718
     4.174174     17.110907     39.948704
     4.184184     18.524244     42.932495
     4.194194     20.251303     46.052444
     4.204204     22.376377     49.303108
     4.214214     25.010471     52.658859
     4.224224     28.296741     56.056145
     4.234234     32.412369     59.364105
     4.244244     37.553246     62.334919
     4.254254     43.879173     64.536118
     4.264264     51.371746     65.288651
     4.274274     59.566067     63.710766
     4.284284     67.237709     59.073261
     4.294294     72.476768     51.569839
     4.304304     73.669075     42.912495
     4.314314     70.813927     35.647926
     4.324324     65.555008     31.535723
     4.334334     59.884571     30.812937
     4.344344     55.136345     32.759724
     4.354354     51.891155     36.471863
     4.364364     50.287266     41.218197
     4.374374     50.286293     46.473022
     4.384384     51.794388     51.834545
     4.394394     54.662415     56.947113
     4.404404     58.613445     61.506351
     4.414414     63.201321     65.402359
     4.424424     67.984627     68.930084
     4.434434     72.936089     72.750351
     4.444444     78.679794     77.435555
     4.454454     86.245049     83.020576
     4.464464     96.682167     88.929916
      4.47447     110.87540      94.05323
      4.48448     129.42206      96.67818
      4.49449     152.25308      94.31662
      4.50450     177.78258      83.81431
      4.51451     201.83524      62.48941
      4.52452     217.79410      30.72881
      4.53453     219.84053      -5.83890
      4.54454     207.58577     -38.46219
      4.55455     186.47253     -60.86622
      4.56456     163.38986     -72.05430
      4.57457     143.03937     -74.49692
      4.58458     127.48334     -71.42467
      4.59459     117.19681     -65.52759
      4.60460     112.00979     -58.83014
      4.61461     111.54002     -53.01255
      4.62462     115.16700     -49.76370
      4.63463     121.62904     -50.90269
      4.64464     128.46100     -57.91014
      4.65465     132.02107     -70.67285
      4.66466     129.08334     -86.38106
      4.67467     119.19239    -100.56670
      4.68468     104.91367    -109.96107
      4.69469      89.60626    -113.97135
      4.70470      75.53387    -113.78236
      4.71471      63.59628    -110.95668
      4.72472      53.85392    -106.73185
      4.73473      46.02098    -101.90521
     4.744744     39.736492    -96.936623
     4.754755     34.670559    -92.070541
     4.764764     30.554359    -87.425583
     4.774775     27.178349    -83.049927
     4.784785     24.382977    -78.954948
     4.794795     22.046968    -75.132454
     4.804804     20.078077    -71.565437
     4.814815     18.405481    -68.232643
     4.824825     16.974733    -65.112625
     4.834835     15.743441    -62.184402
     4.844844     14.678335    -59.428455
     4.854855     13.753000    -56.826523
     4.864865     12.946512    -54.362411
     4.874875     12.242054    -52.021355
     4.884884     11.626020    -49.789772
     4.894895     11.087465    -47.655579
     4.904905     10.617503    -45.607746
     4.914915     10.208984    -43.636257
     4.924924      9.856122    -41.731628
     4.934935      9.554368    -39.885262
     4.944945      9.300211    -38.089111
     4.954955      9.091057    -36.335575
     4.964965      8.925152    -34.617146
     4.974975      8.801555    -32.926804
     4.984985      8.720120    -31.257545
     4.994995      8.681523    -29.602449
     5.005005      8.687316    -27.954422
     5.015015      8.740032    -26.306303
     5.025025      8.843344    -24.650667
     5.035035      9.002232    -22.979807
     5.045045      9.223351    -21.285305
     5.055055      9.515340    -19.558468
     5.065065      9.889429    -17.789864
     5.075075     10.360089    -15.969570
     5.085085     10.946162    -14.086788
     5.095095     11.672063    -12.130620
     5.105105     12.569751    -10.090214
     5.115115     13.681198     -7.956011
     5.125125     15.062086     -5.721371
     5.135135     16.786222     -3.386854
     5.145144     18.951603     -0.966782
     5.155155     21.687767      1.498682
     5.165165     25.161659      3.921129
     5.175175     29.577951      6.126791
     5.185185     35.158157      7.796471
     5.195195     42.068108      8.384031
     5.205205     50.235222      7.048731
     5.215215     59.016876      2.733499
     5.225225     66.850327     -5.362264
     5.235235     71.433876    -16.848566
     5.245245     70.987709    -29.551805
     5.255255     65.723656    -40.507244
     5.265265     57.654133    -47.852463
     5.275275     49.009380    -51.492256
     5.285285     41.172306    -52.334446
     5.295295     34.653545    -51.414448
     5.305305     29.465933    -49.515038
     5.315315     25.429680    -47.131187
     5.325325     22.330429    -44.546394
     5.335335     19.979067    -41.911266
     5.345345     18.227558    -39.299198
     5.355355     16.967606    -36.739983
     5.365365     16.125435    -34.240582
     5.375375     15.656148    -31.796429
     5.385385     15.540161    -29.398884
     5.395395     15.781472    -27.040489
     5.405405     16.408068    -24.721476
     5.415415     17.473625    -22.457788
     5.425425     19.059704    -20.294369
     5.435435     21.274225    -18.328379
     5.445445     24.238398    -16.744774
     5.455455     28.041710    -15.865480
     5.465465     32.633389    -16.189501
     5.475475     37.621819    -18.346407
     5.485486     42.065220    -22.813015
     5.495495     44.578922    -29.352339
     5.505505     44.092140    -36.660240
     5.515515     40.727554    -42.957645
     5.525526     35.687420    -47.126629
     5.535535     30.305838    -49.108604
     5.545545     25.407816    -49.447376
     5.555555     21.296206    -48.763432
     5.565566     17.974779    -47.526234
     5.575575     15.331714    -46.033401
     5.585585     13.233099    -44.455803
     5.595595     11.559583    -42.885365
     5.605606     10.214895    -41.367813
     5.615615      9.124845    -39.923317
     5.625625      8.233120    -38.558018
     5.635635      7.497396    -37.270924
     5.645645      6.885717    -36.057606
     5.655655      6.373778    -34.911835
     5.665665      5.943099    -33.827030
     5.675675      5.579471    -32.796616
     5.685685      5.271934    -31.814369
     5.695695      5.011973    -30.874350
     5.705706      4.793016    -29.971140
     5.715715      4.609993    -29.099773
     5.725725      4.459047    -28.255562
     5.735735      4.337299    -27.434071
     5.745746      4.242740    -26.631231
     5.755755      4.174106    -25.843046
     5.765765      4.130836    -25.065744
     5.775775      4.113045    -24.295443
     5.785786      4.121562    -23.528431
     5.795795      4.157984    -22.760864
     5.805805      4.224792    -21.988823
     5.815815      4.325530    -21.208187
     5.825826      4.465034    -20.414789
     5.835836      4.649797    -19.604259
     5.845845      4.888425    -18.772219
     5.855855      5.192367    -17.914349
     5.865866      5.576748    -17.027027
     5.875876      6.061633    -16.107954
     5.885885      6.673562    -15.157795
     5.895895      7.447515    -14.182765
     5.905906      8.428529    -13.199648
     5.915915      9.672149    -12.243784
     5.925926     11.240767    -11.381234
     5.935935     13.189435    -10.724077
     5.945946     15.535702    -10.439359
     5.955956     18.216763    -10.733034
     5.965966     21.066402    -11.799376
     5.975976     23.835850    -13.779468
     5.985986     26.189781    -16.766060
     5.995996     27.627998    -20.718164
     6.006006     27.586349    -25.205341
     6.016016     25.878506    -29.377136
     6.026026     22.962881    -32.452728
     6.036036     19.609694    -34.182247
     6.046046     16.421675    -34.784790
     6.056056     13.681522    -34.633602
     6.066066     11.442917    -34.050766
     6.076076      9.654137    -33.254017
     6.086086      8.233348    -32.373272
     6.096096      7.101942    -31.480423
     6.106106      6.194522    -30.612473
     6.116116      5.459984    -29.786818
     6.126126      4.859285    -29.010044
     6.136136      4.363005    -28.283146
     6.146146      3.948883    -27.604229
     6.156156      3.600032    -26.970108
     6.166166      3.303494    -26.377016
     6.176176      3.049315    -25.821293
     6.186186      2.829747    -25.299408
     6.196196      2.638680    -24.808077
     6.206206      2.471295    -24.344357
     6.216216      2.323736    -23.905626
     6.226226      2.192901    -23.489508
     6.236236      2.076255    -23.093910
     6.246246      1.971736    -22.717003
     6.256256      1.877643    -22.357136
     6.266266      1.792570    -22.012875
     6.276276      1.715329    -21.682878
     6.286286      1.644934    -21.366026
     6.296296      1.580548    -21.061258
     6.306306      1.521464    -20.767689
     6.316316      1.467071    -20.484453
     6.326326      1.416853    -20.210831
     6.336336      1.370360    -19.946138
     6.346346      1.327208    -19.689793
     6.356356      1.287056    -19.441206
     6.366366      1.249613    -19.199883
     6.376376      1.214623    -18.965385
     6.386386      1.181860    -18.737291
     6.396396      1.151125    -18.515202
     6.406406      1.122241    -18.298792
     6.416416      1.095057    -18.087719
     6.426426      1.069429    -17.881689
     6.436436      1.045237    -17.680433
     6.446446      1.022370    -17.483686
     6.456456      1.000731    -17.291241
     6.466466      0.980231    -17.102839
     6.476476      0.960789    -16.918285
     6.486486      0.942336    -16.737402
     6.496496      0.924808    -16.560003
     6.506506      0.908145    -16.385912
     6.516516      0.892297    -16.214979
     6.526526      0.877215    -16.047043
     6.536536      0.862858    -15.881989
     6.546546      0.849186    -15.719648
     6.556556      0.836166    -15.559917
     6.566566      0.823765    -15.402651
     6.576576      0.811958    -15.247776
     6.586586      0.800718    -15.095133
     6.596596      0.790023    -14.944636
     6.606606      0.779856    -14.796178
     6.616616      0.770198    -14.649674
     6.626626      0.761035    -14.505023
     6.636636      0.752355    -14.362128
     6.646646      0.744150    -14.220878
     6.656656      0.736413    -14.081212
     6.666667      0.729136    -13.943025
     6.676676      0.722321    -13.806235
     6.686686      0.715968    -13.670751
     6.696696      0.710080    -13.536506
     6.706707      0.704664    -13.403375
     6.716716      0.699731    -13.271292
     6.726726      0.695297    -13.140177
     6.736736      0.691380    -13.009911
     6.746747      0.688007    -12.880412
     6.756756      0.685208    -12.751580
     6.766766      0.683024    -12.623331
     6.776776      0.681504    -12.495531
     6.786787      0.680709    -12.368069
     6.796797      0.680715    -12.240836
     6.806807      0.681616    -12.113695
     6.816816      0.683529    -11.986517
     6.826826      0.686604    -11.859147
     6.836837      0.691026    -11.731425
     6.846847      0.697032    -11.603196
     6.856857      0.704930    -11.474284
     6.866867      0.715113    -11.344526
     6.876876      0.728100    -11.213766
     6.886887      0.744570    -11.081903
     6.896896      0.765418    -10.948949
     6.906906      0.791826    -10.815064
     6.916917      0.825330    -10.680806
     6.926927      0.867847    -10.547412
     6.936936      0.921600    -10.417235
     6.946947      0.988646    -10.294530
     6.956956      1.069578    -10.186268
     6.966967      1.160881    -10.102141
     6.976976      1.251126    -10.051780
     6.986986      1.319812    -10.037046
     6.996997      1.345439    -10.043243
     7.007007      1.321424    -10.041869
     7.017016      1.262185    -10.008206
    7.0270267     1.1908982    -9.9344730
    7.0370364     1.1252651    -9.8266077
    7.0470471     1.0736407    -9.6947002
    7.0570569     1.0380138    -9.5472555
    7.0670667     1.0175198    -9.3898020
    7.0770769     1.0105714    -9.2253733
    7.0870867     1.0157766    -9.0554056
    7.0970964     1.0322551    -8.8802481
    7.1071067     1.0597055    -8.6996641
    7.1171165     1.0984083    -8.5130672
    7.1271272     1.1492471    -8.3195658
    7.1371369     1.2137299    -8.1181660
    7.1471467     1.2941170    -7.9077463
    7.1571569     1.3935724    -7.6871462
    7.1671667     1.5163826    -7.4553823
    7.1771765     1.6683583    -7.2117023
    7.1871872     1.8573062    -6.9560699
    7.1971965     2.0935991    -6.6899242
    7.2072062     2.3910253    -6.4173241
    7.2172170     2.7674520    -6.1472826
    7.2272267     3.2447891    -5.8976979
    7.2372370     3.8472164    -5.7014003
    7.2472467     4.5935235    -5.6147747
    7.2572565     5.4792771    -5.7246804
    7.2672672     6.4436483    -6.1413431
    7.2772770     7.3345118    -6.9528770
    7.2872868     7.9241362    -8.1370335
    7.2972970     8.0213165    -9.5038805
     7.307307      7.603468    -10.772465
     7.317317      6.820588    -11.727638
     7.327327      5.885215    -12.298922
     7.337337      4.969365    -12.534176
     7.347347      4.166244    -12.530890
     7.357357      3.503684    -12.382482
     7.367367      2.973454    -12.156859
     7.377377      2.554344    -11.896511
     7.387387      2.223939    -11.625707
     7.397398      1.962798    -11.357201
     7.407407      1.755598    -11.097220
     7.417417      1.590597    -10.848234
     7.427427      1.459022    -10.610713
     7.437437      1.354411    -10.384160
     7.447447      1.272021    -10.167507
    7.4574571     1.2084659    -9.9594851
    7.4674668     1.1614497    -9.7587900
    7.4774766     1.1295593    -9.5641336
    7.4874873     1.1121883    -9.3742723
    7.4974971     1.1095133    -9.1882143
    7.5075073     1.1225294    -9.0051289
    7.5175171     1.1531640    -8.8247070
    7.5275269     1.2044448    -8.6473160
    7.5375376     1.2806847    -8.4746828
    7.5475469     1.3875293    -8.3108673
    7.5575566     1.5316012    -8.1638641
    7.5675673     1.7188491    -8.0480938
    7.5775771     1.9500337    -7.9868860
    7.5875874     2.2117894    -8.0122528
    7.5975971     2.4643350    -8.1547995
    7.6076069     2.6392326    -8.4176693
    7.6176176     2.6682549    -8.7493677
    7.6276274     2.5348108    -9.0568514
    7.6376367     2.2889018    -9.2641897
    7.6476474     2.0046606    -9.3512506
    7.6576571     1.7362258    -9.3400879
    7.6676679     1.5076627    -9.2643557
    7.6776772     1.3232901    -9.1519775
    7.6876869     1.1787059    -9.0214272
    7.6976976     1.0672871    -8.8835888
    7.7077074     0.9829282    -8.7445068
    7.7177172     0.9208476    -8.6073456
    7.7277274     0.8777279    -8.4738054
    7.7377372     0.8515845    -8.3450775
    7.7477469     0.8415297    -8.2224789
    7.7577577     0.8474666    -8.1081505
    7.7677670     0.8694274    -8.0058842
    7.7777777     0.9061796    -7.9216909
    7.7877874     0.9526442    -7.8635893
    7.7977972     0.9968846    -7.8384094
    7.8078074     1.0204420    -7.8447323
    7.8178172     1.0071083    -7.8669662
    7.8278270     0.9554524    -7.8811436
    7.8378377     0.8797869    -7.8701010
    7.8478475     0.7982526    -7.8309488
    7.8578577     0.7229099    -7.7700996
    7.8678675     0.6585751    -7.6958637
    7.8778772     0.6056079    -7.6147470
    7.8878880     0.5625531    -7.5309439
    7.8978972     0.5275592    -7.4468651
    7.9079070     0.4989227    -7.3637857
    7.9179177     0.4752553    -7.2822924
    7.9279275     0.4554814    -7.2026682
    7.9379377     0.4387746    -7.1249332
    7.9479475     0.4245109    -7.0490437
    7.9579573     0.4122121    -6.9748950
    7.9679680     0.4015121    -6.9023600
    7.9779778     0.3921296    -6.8313265
    7.9879870     0.3838431    -6.7616525
    7.9979978     0.3764779    -6.6932359
    8.0080070     0.3698966    -6.6259713
    8.0180168     0.3639874    -6.5597587
    8.0280275     0.3586599    -6.4945040
    8.0380373     0.3538409    -6.4301329
    8.0480480     0.3494689    -6.3665700
    8.0580578     0.3454944    -6.3037515
    8.0680676     0.3418748    -6.2416153
    8.0780783     0.3385746    -6.1800985
    8.0880880     0.3355640    -6.1191597
    8.0980968     0.3328178    -6.0587473
    8.1081076     0.3303140    -5.9988093
    8.1181173     0.3280344    -5.9393144
    8.1281281     0.3259628    -5.8802156
    8.1381378     0.3240860    -5.8214836
    8.1481476     0.3223920    -5.7630839
    8.1581583     0.3208704    -5.7049727
    8.1681681     0.3195129    -5.6471281
    8.1781778     0.3183120    -5.5895181
    8.1881876     0.3172609    -5.5321126
    8.1981974     0.3163547    -5.4748898
    8.2082071     0.3155887    -5.4178166
    8.2182178     0.3149591    -5.3608646
    8.2282276     0.3144629    -5.3040113
    8.2382383     0.3140977    -5.2472286
    8.2482481     0.3138616    -5.1905017
    8.2582579     0.3137537    -5.1337919
    8.2682676     0.3137731    -5.0770802
    8.2782774     0.3139194    -5.0203481
    8.2882872     0.3141931    -4.9635644
    8.2982979     0.3145952    -4.9067020
    8.3083076     0.3151267    -4.8497429
    8.3183184     0.3157898    -4.7926545
    8.3283281     0.3165861    -4.7354198
    8.3383379     0.3175189    -4.6780062
    8.3483486     0.3185914    -4.6203861
    8.3583574     0.3198074    -4.5625405
    8.3683672     0.3211715    -4.5044346
    8.3783779     0.3226885    -4.4460320
    8.3883877     0.3243643    -4.3873196
    8.3983984     0.3262054    -4.3282528
    8.4084082     0.3282188    -4.2688098
    8.4184179     0.3304126    -4.2089481
    8.4284286     0.3327963    -4.1486335
    8.4384384     0.3353794    -4.0878358
    8.4484472     0.3381737    -4.0265088
    8.4584579     0.3411919    -3.9646101
    8.4684677     0.3444477    -3.9021101
    8.4784775     0.3479574    -3.8389478
    8.4884882     0.3517395    -3.7750783
    8.4984980     0.3558133    -3.7104573
    8.5085087     0.3602032    -3.6450162
    8.5185184     0.3649345    -3.5787101
    8.5285282     0.3700377    -3.5114698
    8.5385380     0.3755479    -3.4432211
    8.5485477     0.3815037    -3.3739057
    8.5585575     0.3879506    -3.3034382
    8.5685682     0.3949403    -3.2317228
    8.5785780     0.4025300    -3.1586890
    8.5885887     0.4107895    -3.0842128
    8.5985985     0.4198032    -3.0081911
    8.6086082     0.4296826    -2.9304852
    8.6186180     0.4405667    -2.8509560
    8.6286278     0.4526227    -2.7694774
    8.6386375     0.4660586    -2.6858919
    8.6486483     0.4811350    -2.6000376
    8.6586580     0.4981775    -2.5117788
    8.6686687     0.5176124    -2.4209640
    8.6786785     0.5399839    -2.3275189
    8.6886883     0.5660017    -2.2314444
    8.6986990     0.5965743    -2.1329179
    8.7087078     0.6328134    -2.0325117
    8.7187176     0.6759845    -1.9313719
    8.7287283     0.7272195    -1.8316419
    8.7387381     0.7867623    -1.7368383
    8.7487478     0.8525458    -1.6516261
    8.7587585     0.9184278    -1.5800104
    8.7687683     0.9743614    -1.5211694
    8.7787790     1.0116163    -1.4658408
    8.7887888     1.0303174    -1.3996687
    8.7987976     1.0403333    -1.3122890
    8.8088083     1.0542961    -1.2021050
    8.8188181     1.0817016    -1.0736957
    8.8288279     1.1280626    -0.9337393
    8.8388386     1.1962709    -0.7894598
    8.8488483     1.2871517    -0.6490768
    8.8588591     1.3981515    -0.5223243
    8.8688688     1.5202202    -0.4189656
    8.8788786     1.6360583    -0.3426203
    8.8888884     1.7259165    -0.2822380
    8.8988981     1.7821927    -0.2121738
    8.9089079     1.8182058    -0.1072701
     8.918919      1.859289      0.042317
    8.9289284     1.9287146     0.2311959
    8.9389391     2.0426190     0.4467781
    8.9489489     2.2120976     0.6739022
    8.9589586     2.4458857     0.8943763
    8.9689684     2.7496190     1.0833819
    8.9789782     3.1195388     1.2060798
    8.9889879     3.5300426     1.2202971
    8.9989986     3.9204552     1.0943906
    9.0090084     4.2018080     0.8424420
    9.0190182     4.3035207     0.5468870
    9.0290289     4.2290640     0.3249218
    9.0390387     4.0556211     0.2583756
    9.0490484     3.8785732     0.3609958
    9.0590582     3.7663600     0.6011692
    9.0690680     3.7543528     0.9362857
    9.0790787     3.8587873     1.3297371
    9.0890884     4.0901999     1.7519054
    9.0990982     4.4605980     2.1741941
    9.1091089     4.9842615     2.5600476
    9.1191187     5.6709123     2.8551302
    9.1291294     6.5082908     2.9811895
    9.1391392     7.4311247     2.8461866
    9.1491480     8.2957182     2.3928809
    9.1591587     8.9122200     1.6807556
    9.1691685     9.1688814     0.9144861
    9.1791782     9.1411858     0.3267018
     9.189189      9.038531      0.017641
     9.199199      9.057276     -0.077468
    9.2092094     9.2939377    -0.1136744
    9.2192192     9.7369032    -0.2593743
     9.229229     10.284441     -0.650033
     9.239239     10.760815     -1.351686
     9.249249     10.950546     -2.305959
     9.259258     10.706323     -3.296467
     9.269269     10.074240     -4.045665
    9.2792788     9.2683773    -4.3914714
    9.2892885     8.5166225    -4.3456311
    9.2992992     7.9602723    -4.0162511
    9.3093090     7.6543660    -3.5228715
    9.3193188     7.6051655    -2.9591076
    9.3293285     7.8045249    -2.3888590
    9.3393383     8.2543535    -1.8599465
    9.3493490     8.9749613    -1.4336126
    9.3593588     9.9838419    -1.2167549
     9.369369     11.245062     -1.373174
     9.379379     12.600598     -2.087801
     9.389389     13.729855     -3.451474
     9.399399     14.244205     -5.300551
     9.409409     13.943664     -7.197967
     9.419418     12.990259     -8.689977
     9.429429     11.762885     -9.583442
     9.439439     10.588302     -9.954941
    9.4494486     9.6257687    -9.9851656
    9.4594593     8.9124107    -9.8291512
    9.4694691     8.4473028    -9.5907145
    9.4794798     8.2297316    -9.3602037
    9.4894886     8.2400656    -9.2479334
    9.4994984     8.3970604    -9.3751917
    9.5095091     8.5322084    -9.8175812
     9.519519      8.430577    -10.520716
     9.529529      7.959448    -11.279317
     9.539539      7.169734    -11.857690
     9.549549      6.237743    -12.139247
     9.559559      5.328515    -12.145842
     9.569570      4.530276    -11.961296
     9.579579      3.866620    -11.667698
     9.589589      3.327865    -11.323101
     9.599599      2.893609    -10.962780
     9.609609      2.542789    -10.606081
     9.619619      2.257440    -10.262697
    9.6296291     2.0233586    -9.9369431
    9.6396389     1.8295398    -9.6300573
    9.6496496     1.6676086    -9.3417416
    9.6596594     1.5312241    -9.0709982
    9.6696692     1.4155017    -8.8164148
    9.6796789     1.3167250    -8.5765648
    9.6896887     1.2319968    -8.3499756
    9.6996994     1.1590667    -8.1352501
    9.7097092     1.0961968    -7.9311457
    9.7197189     1.0420145    -7.7364655
    9.7297297     0.9954577    -7.5501080
    9.7397394     0.9557265    -7.3711100
    9.7497492     0.9222195    -7.1985359
    9.7597589     0.8945254    -7.0315123
    9.7697687     0.8724152    -6.8692656
    9.7797794     0.8558237    -6.7110143
    9.7897892     0.8448755    -6.5560775
    9.7997990     0.8399002    -6.4037638
    9.8098097     0.8414772    -6.2534590
    9.8198195     0.8504950    -6.1046557
    9.8298292     0.8682401    -5.9569650
    9.8398390     0.8965176    -5.8102612
    9.8498487     0.9377879    -5.6649194
    9.8598595     0.9953424    -5.5221486
    9.8698692     1.0733566    -5.3847313
    9.8798790     1.1767125    -5.2581000
    9.8898897     1.3099577    -5.1520076
    9.8998995     1.4743668    -5.0824490
    9.9099092     1.6619161    -5.0717788
    9.9199200     1.8466058    -5.1425986
    9.9299297     1.9812750    -5.3002095
    9.9399395     2.0156822    -5.5121355
    9.9499493     1.9330317    -5.7134295
    9.9599590     1.7650762    -5.8468304
    9.9699697     1.5646729    -5.8938694
    9.9799795     1.3725517    -5.8682370
    9.9899893     1.2077581    -5.7938132
    10.000000      1.074275     -5.691078
# 
# 08/09/2018 at 12:38 YAMBO_PH @ anomaly [start]
# 08/09/2018 at 12:38                    [end]
#
# .-Input file : yambo.in
# | optics                         # [R OPT] Optics
# | chi                            # [R CHI] Dyson equation for Chi.
# | BoseTemp= 0.000000     eV      # Bosonic Temperature
# | FFTGvecs=  411         RL      # [FFT] Plane-waves
# | Chimod= "IP"                   # [X] IP/Hartree/ALDA/LRC/PF/BSfxc
# | NGsBlkXd= 1            RL      # [Xd] Response block size
# | % QpntsRXd
# |  1 | 1 |                       # [Xd] Transferred momenta
# | %
# | % BndsRnXd
# |   1 | 10 |                     # [Xd] Polarization function bands
# | %
# | % EnRngeXd
# |   0.00000 | 10.00000 | eV      # [Xd] Energy range
# | %
# | % DmRngeXd
# |   0.05000 |  0.05000 | eV      # [Xd] Damping range
# | %
# | ETStpsXd= 1000                 # [Xd] Total Energy steps
# | % LongDrXd
# | 0.1000E-4 | 0.000    | 0.000    |        # [Xd] [cc] Electric Field
# | %
# | % XfnQP_E
# |  0.600000 | 1.100000 | 1.050000 |        # [EXTQP Xd] E parameters  (c/v) eV|adim|adim
# | %
