#                                                           
#  __  __   ________   ___ __ __    _______   ______        
# /_/\/_/\ /_______/\ /__//_//_/\ /_______/\ /_____/\       
# \ \ \ \ \\::: _  \ \\::\| \| \ \\::: _  \ \\:::_ \ \      
#  \:\_\ \ \\::(_)  \ \\:.      \ \\::(_)  \/_\:\ \ \ \     
#   \::::_\/ \:: __  \ \\:.\-/\  \ \\::  _  \ \\:\ \ \ \    
#     \::\ \  \:.\ \  \ \\. \  \  \ \\::(_)  \ \\:\_\ \ \   
#      \__\/   \__\/\__\/ \__\/ \__\/ \_______\/ \_____\/   
#                                                           
#                                                           
#        Version 4.1.0 Revision 13844 Hash ba998c6          
#                        MPI Build                          
#                http://www.yambo-code.org                  
#
# Absorption @ Q(1) [q->0 direction] :0.1000E-4  0.000     0.000   
#
#
# - Energies      are Slater exchange(X)+Perdew & Zunger(C)
# - Wavefunctions are Slater exchange(X)+Perdew & Zunger(C)
#
# - The Green`s function is Retarded -
# - Using the Length Gauge -
# - [r,Vnl] *is* included -
#
#   BSK|Identifier              :4626
#      |Dimension               :144
#      |Bands                   :1 - 40
#      |Exchange           [res]: yes
#      |Correlation        [res]: no
#      |Kernel`s coupling       : yes
#      |Exchange           [cpl]: yes
#      |Correlation        [cpl]: no
#      |W interaction is bare   : no
#      |ALDA kernel in R-space  : yes
#      |RL vectors    [exchange]:50301
#      |E/h energy range    [ev]:-1.000000 - -1.000000
#      |Coupling range     [o/o]: 100.0000 -  100.0000
#  
#   Haydock|Accuracy (requested) [o/o]:0.1000E-2
#          |Accuracy (reached)   [o/o]:0.6801E-3
#          |Iteration                 :62
#
#  E/ev[1]    EPS-Im[2]  EPS-Re[3]  EPSo-Im[4] EPSo-Re[5] EPS`-Im[6] EPS`-Re[7]
#
  6.000     0.2870E-3   1.014     0.8801E-3   1.026     0.2870E-3   1.014   
  6.015     0.2899E-3   1.014     0.8919E-3   1.026     0.2899E-3   1.014   
  6.030     0.2929E-3   1.014     0.9040E-3   1.026     0.2929E-3   1.014   
  6.045     0.2959E-3   1.014     0.9164E-3   1.026     0.2959E-3   1.014   
  6.060     0.2990E-3   1.014     0.9290E-3   1.026     0.2990E-3   1.014   
  6.075     0.3021E-3   1.014     0.9418E-3   1.026     0.3021E-3   1.014   
  6.090     0.3053E-3   1.014     0.9550E-3   1.027     0.3053E-3   1.014   
  6.105     0.3085E-3   1.014     0.9684E-3   1.027     0.3085E-3   1.014   
  6.120     0.3118E-3   1.014     0.9821E-3   1.027     0.3118E-3   1.014   
  6.135     0.3152E-3   1.014     0.9960E-3   1.027     0.3152E-3   1.014   
  6.150     0.3186E-3   1.014     0.1010E-2   1.027     0.3186E-3   1.014   
  6.165     0.3221E-3   1.015     0.1025E-2   1.027     0.3221E-3   1.015   
  6.180     0.3256E-3   1.015     0.1040E-2   1.027     0.3256E-3   1.015   
  6.195     0.3292E-3   1.015     0.1055E-2   1.028     0.3292E-3   1.015   
  6.211     0.3329E-3   1.015     0.1071E-2   1.028     0.3329E-3   1.015   
  6.226     0.3366E-3   1.015     0.1087E-2   1.028     0.3366E-3   1.015   
  6.241     0.3404E-3   1.015     0.1103E-2   1.028     0.3404E-3   1.015   
  6.256     0.3443E-3   1.015     0.1119E-2   1.028     0.3443E-3   1.015   
  6.271     0.3482E-3   1.015     0.1136E-2   1.028     0.3482E-3   1.015   
  6.286     0.3523E-3   1.015     0.1154E-2   1.029     0.3523E-3   1.015   
  6.301     0.3564E-3   1.015     0.1172E-2   1.029     0.3564E-3   1.015   
  6.316     0.3605E-3   1.015     0.1190E-2   1.029     0.3605E-3   1.015   
  6.331     0.3648E-3   1.015     0.1209E-2   1.029     0.3648E-3   1.015   
  6.346     0.3692E-3   1.015     0.1228E-2   1.029     0.3692E-3   1.015   
  6.361     0.3736E-3   1.015     0.1247E-2   1.029     0.3736E-3   1.015   
  6.376     0.3782E-3   1.015     0.1267E-2   1.030     0.3782E-3   1.015   
  6.391     0.3828E-3   1.015     0.1288E-2   1.030     0.3828E-3   1.015   
  6.406     0.3875E-3   1.015     0.1309E-2   1.030     0.3875E-3   1.015   
  6.421     0.3923E-3   1.015     0.1330E-2   1.030     0.3923E-3   1.015   
  6.436     0.3973E-3   1.015     0.1353E-2   1.030     0.3973E-3   1.015   
  6.451     0.4023E-3   1.016     0.1375E-2   1.031     0.4023E-3   1.016   
  6.466     0.4075E-3   1.016     0.1398E-2   1.031     0.4075E-3   1.016   
  6.481     0.4127E-3   1.016     0.1422E-2   1.031     0.4127E-3   1.016   
  6.496     0.4181E-3   1.016     0.1447E-2   1.031     0.4181E-3   1.016   
  6.511     0.4236E-3   1.016     0.1472E-2   1.031     0.4236E-3   1.016   
  6.526     0.4292E-3   1.016     0.1498E-2   1.032     0.4292E-3   1.016   
  6.541     0.4350E-3   1.016     0.1524E-2   1.032     0.4350E-3   1.016   
  6.556     0.4409E-3   1.016     0.1551E-2   1.032     0.4409E-3   1.016   
  6.571     0.4470E-3   1.016     0.1579E-2   1.032     0.4470E-3   1.016   
  6.586     0.4531E-3   1.016     0.1608E-2   1.033     0.4531E-3   1.016   
  6.602     0.4595E-3   1.016     0.1638E-2   1.033     0.4595E-3   1.016   
  6.617     0.4660E-3   1.016     0.1668E-2   1.033     0.4660E-3   1.016   
  6.632     0.4727E-3   1.016     0.1699E-2   1.033     0.4727E-3   1.016   
  6.647     0.4795E-3   1.016     0.1731E-2   1.034     0.4795E-3   1.016   
  6.662     0.4865E-3   1.016     0.1765E-2   1.034     0.4865E-3   1.016   
  6.677     0.4937E-3   1.017     0.1799E-2   1.034     0.4937E-3   1.017   
  6.692     0.5011E-3   1.017     0.1834E-2   1.034     0.5011E-3   1.017   
  6.707     0.5087E-3   1.017     0.1870E-2   1.035     0.5087E-3   1.017   
  6.722     0.5165E-3   1.017     0.1907E-2   1.035     0.5165E-3   1.017   
  6.737     0.5245E-3   1.017     0.1946E-2   1.035     0.5245E-3   1.017   
  6.752     0.5327E-3   1.017     0.1985E-2   1.036     0.5327E-3   1.017   
  6.767     0.5412E-3   1.017     0.2026E-2   1.036     0.5412E-3   1.017   
  6.782     0.5499E-3   1.017     0.2068E-2   1.036     0.5499E-3   1.017   
  6.797     0.5589E-3   1.017     0.2112E-2   1.036     0.5589E-3   1.017   
  6.812     0.5681E-3   1.017     0.2157E-2   1.037     0.5681E-3   1.017   
  6.827     0.5776E-3   1.017     0.2204E-2   1.037     0.5776E-3   1.017   
  6.842     0.5874E-3   1.017     0.2252E-2   1.037     0.5874E-3   1.017   
  6.857     0.5976E-3   1.018     0.2302E-2   1.038     0.5976E-3   1.018   
  6.872     0.6080E-3   1.018     0.2353E-2   1.038     0.6080E-3   1.018   
  6.887     0.6188E-3   1.018     0.2406E-2   1.038     0.6188E-3   1.018   
  6.902     0.6299E-3   1.018     0.2462E-2   1.039     0.6299E-3   1.018   
  6.917     0.6414E-3   1.018     0.2519E-2   1.039     0.6414E-3   1.018   
  6.932     0.6533E-3   1.018     0.2578E-2   1.040     0.6533E-3   1.018   
  6.947     0.6656E-3   1.018     0.2639E-2   1.040     0.6656E-3   1.018   
  6.962     0.6784E-3   1.018     0.2703E-2   1.040     0.6784E-3   1.018   
  6.977     0.6916E-3   1.018     0.2770E-2   1.041     0.6916E-3   1.018   
  6.992     0.7053E-3   1.018     0.2838E-2   1.041     0.7053E-3   1.018   
  7.008     0.7195E-3   1.019     0.2910E-2   1.042     0.7195E-3   1.019   
  7.023     0.7342E-3   1.019     0.2984E-2   1.042     0.7342E-3   1.019   
  7.038     0.7495E-3   1.019     0.3062E-2   1.043     0.7495E-3   1.019   
  7.053     0.7654E-3   1.019     0.3142E-2   1.043     0.7654E-3   1.019   
  7.068     0.7819E-3   1.019     0.3226E-2   1.043     0.7819E-3   1.019   
  7.083     0.7991E-3   1.019     0.3314E-2   1.044     0.7991E-3   1.019   
  7.098     0.8170E-3   1.019     0.3405E-2   1.044     0.8170E-3   1.019   
  7.113     0.8357E-3   1.019     0.3501E-2   1.045     0.8357E-3   1.019   
  7.128     0.8552E-3   1.019     0.3601E-2   1.045     0.8552E-3   1.019   
  7.143     0.8755E-3   1.020     0.3705E-2   1.046     0.8755E-3   1.020   
  7.158     0.8968E-3   1.020     0.3814E-2   1.047     0.8968E-3   1.020   
  7.173     0.9191E-3   1.020     0.3929E-2   1.047     0.9191E-3   1.020   
  7.188     0.9424E-3   1.020     0.4048E-2   1.048     0.9424E-3   1.020   
  7.203     0.9668E-3   1.020     0.4174E-2   1.048     0.9668E-3   1.020   
  7.218     0.9924E-3   1.020     0.4306E-2   1.049     0.9924E-3   1.020   
  7.233     0.1019E-2   1.020     0.4445E-2   1.050     0.1019E-2   1.020   
  7.248     0.1048E-2   1.021     0.4592E-2   1.050     0.1048E-2   1.021   
  7.263     0.1077E-2   1.021     0.4746E-2   1.051     0.1077E-2   1.021   
  7.278     0.1109E-2   1.021     0.4908E-2   1.052     0.1109E-2   1.021   
  7.293     0.1142E-2   1.021     0.5080E-2   1.052     0.1142E-2   1.021   
  7.308     0.1177E-2   1.021     0.5262E-2   1.053     0.1177E-2   1.021   
  7.323     0.1214E-2   1.021     0.5454E-2   1.054     0.1214E-2   1.021   
  7.338     0.1253E-2   1.022     0.5658E-2   1.055     0.1253E-2   1.022   
  7.353     0.1295E-2   1.022     0.5874E-2   1.056     0.1295E-2   1.022   
  7.368     0.1339E-2   1.022     0.6105E-2   1.056     0.1339E-2   1.022   
  7.383     0.1386E-2   1.022     0.6350E-2   1.057     0.1386E-2   1.022   
  7.398     0.1436E-2   1.022     0.6611E-2   1.058     0.1436E-2   1.022   
  7.414     0.1490E-2   1.023     0.6891E-2   1.059     0.1490E-2   1.023   
  7.429     0.1547E-2   1.023     0.7190E-2   1.060     0.1547E-2   1.023   
  7.444     0.1609E-2   1.023     0.7512E-2   1.061     0.1609E-2   1.023   
  7.459     0.1675E-2   1.023     0.7857E-2   1.062     0.1675E-2   1.023   
  7.474     0.1746E-2   1.023     0.8229E-2   1.064     0.1746E-2   1.023   
  7.489     0.1822E-2   1.024     0.8632E-2   1.065     0.1822E-2   1.024   
  7.504     0.1905E-2   1.024     0.9067E-2   1.066     0.1905E-2   1.024   
  7.519     0.1995E-2   1.024     0.9541E-2   1.067     0.1995E-2   1.024   
  7.534     0.2093E-2   1.025     0.1006E-1   1.069     0.2093E-2   1.025   
  7.549     0.2199E-2   1.025     0.1062E-1   1.070     0.2199E-2   1.025   
  7.564     0.2315E-2   1.025     0.1124E-1   1.072     0.2315E-2   1.025   
  7.579     0.2442E-2   1.026     0.1192E-1   1.073     0.2442E-2   1.026   
  7.594     0.2582E-2   1.026     0.1267E-1   1.075     0.2582E-2   1.026   
  7.609     0.2736E-2   1.026     0.1350E-1   1.077     0.2736E-2   1.026   
  7.624     0.2907E-2   1.027     0.1443E-1   1.078     0.2907E-2   1.027   
  7.639     0.3096E-2   1.027     0.1547E-1   1.080     0.3096E-2   1.027   
  7.654     0.3307E-2   1.027     0.1663E-1   1.082     0.3307E-2   1.027   
  7.669     0.3543E-2   1.028     0.1796E-1   1.085     0.3543E-2   1.028   
  7.684     0.3809E-2   1.028     0.1946E-1   1.087     0.3809E-2   1.028   
  7.699     0.4108E-2   1.029     0.2118E-1   1.089     0.4108E-2   1.029   
  7.714     0.4448E-2   1.029     0.2315E-1   1.092     0.4448E-2   1.029   
  7.729     0.4836E-2   1.030     0.2544E-1   1.094     0.4836E-2   1.030   
  7.744     0.5280E-2   1.031     0.2811E-1   1.097     0.5280E-2   1.031   
  7.759     0.5793E-2   1.031     0.3123E-1   1.100     0.5793E-2   1.031   
  7.774     0.6386E-2   1.032     0.3489E-1   1.103     0.6386E-2   1.032   
  7.789     0.7077E-2   1.033     0.3919E-1   1.105     0.7077E-2   1.033   
    7.8045     0.0079     1.0333     0.0442     1.1075     0.0079     1.0333
    7.8195     0.0088     1.0340     0.0501     1.1094     0.0088     1.0340
    7.8346     0.0100     1.0348     0.0568     1.1104     0.0100     1.0348
   7.84962    0.01132    1.03555    0.06421    1.11021    0.01132    1.03555
   7.86466    0.01292    1.03627    0.07191    1.10824    0.01292    1.03627
   7.87970    0.01483    1.03688    0.07923    1.10421    0.01483    1.03688
   7.89474    0.01710    1.03731    0.08517    1.09817    0.01710    1.03731
   7.90977    0.01975    1.03742    0.08877    1.09076    0.01975    1.03742
   7.92481    0.02278    1.03703    0.08949    1.08318    0.02278    1.03703
   7.93985    0.02611    1.03592    0.08755    1.07675    0.02611    1.03592
   7.95489    0.02951    1.03385    0.08382    1.07242    0.02951    1.03385
   7.96992    0.03260    1.03067    0.07935    1.07053    0.03260    1.03067
   7.98496    0.03488    1.02643    0.07508    1.07089    0.03488    1.02643
   8.00000    0.03585    1.02150    0.07158    1.07311    0.03585    1.02150
   8.01504    0.03528    1.01649    0.06919    1.07671    0.03528    1.01649
   8.03008    0.03333    1.01205    0.06802    1.08135    0.03333    1.01205
   8.04511    0.03043    1.00861    0.06812    1.08672    0.03043    1.00861
   8.06015    0.02711    1.00631    0.06953    1.09264    0.02711    1.00631
   8.07519    0.02379    1.00503    0.07226    1.09898    0.02379    1.00503
   8.09023    0.02073    1.00452    0.07641    1.10562    0.02073    1.00452
   8.10526    0.01803    1.00457    0.08210    1.11246    0.01803    1.00457
   8.12030    0.01573    1.00499    0.08951    1.11938    0.01573    1.00499
   8.13534    0.01380    1.00563    0.09890    1.12621    0.01380    1.00563
   8.15038    0.01218    1.00639    0.11058    1.13264    0.01218    1.00639
   8.16541    0.01084    1.00722    0.12492    1.13825    0.01084    1.00722
    8.1805     0.0097     1.0081     0.1423     1.1424     0.0097     1.0081
    8.1955     0.0088     1.0089     0.1629     1.1439     0.0088     1.0089
  8.211     0.8023E-2   1.010     0.1869      1.142     0.8023E-2   1.010   
  8.226     0.7381E-2   1.011     0.2135      1.133     0.7381E-2   1.011   
  8.241     0.6847E-2   1.011     0.2412      1.118     0.6847E-2   1.011   
  8.256     0.6405E-2   1.012     0.2671      1.093     0.6405E-2   1.012   
  8.271     0.6042E-2   1.013     0.2869      1.059     0.6042E-2   1.013   
  8.286     0.5747E-2   1.014     0.2965      1.018     0.5747E-2   1.014   
  8.301     0.5514E-2   1.014     0.2935     0.9763     0.5514E-2   1.014   
  8.316     0.5335E-2   1.015     0.2787     0.9382     0.5335E-2   1.015   
  8.331     0.5209E-2   1.016     0.2554     0.9081     0.5209E-2   1.016   
  8.346     0.5133E-2   1.016     0.2281     0.8872     0.5133E-2   1.016   
  8.361     0.5106E-2   1.017     0.2005     0.8750     0.5106E-2   1.017   
  8.376     0.5131E-2   1.017     0.1747     0.8694     0.5131E-2   1.017   
  8.391     0.5209E-2   1.018     0.1521     0.8687     0.5209E-2   1.018   
  8.406     0.5343E-2   1.019     0.1328     0.8712     0.5343E-2   1.019   
  8.421     0.5535E-2   1.019     0.1167     0.8754     0.5535E-2   1.019   
  8.436     0.5786E-2   1.020     0.1034     0.8807     0.5786E-2   1.020   
  8.451     0.6087E-2   1.020     0.9245E-1  0.8863     0.6087E-2   1.020   
  8.466     0.6421E-2   1.020     0.8346E-1  0.8919     0.6421E-2   1.020   
  8.481     0.6751E-2   1.020     0.7596E-1  0.8972     0.6751E-2   1.020   
  8.496     0.7028E-2   1.021     0.6955E-1  0.9021     0.7028E-2   1.021   
  8.511     0.7196E-2   1.021     0.6389E-1  0.9066     0.7196E-2   1.021   
  8.526     0.7224E-2   1.020     0.5878E-1  0.9109     0.7225E-2   1.020   
  8.541     0.7117E-2   1.020     0.5414E-1  0.9152     0.7118E-2   1.020   
  8.556     0.6917E-2   1.021     0.4997E-1  0.9194     0.6917E-2   1.021   
  8.571     0.6680E-2   1.021     0.4631E-1  0.9237     0.6680E-2   1.021   
  8.586     0.6457E-2   1.021     0.4320E-1  0.9280     0.6457E-2   1.021   
  8.602     0.6285E-2   1.022     0.4062E-1  0.9322     0.6284E-2   1.022   
  8.617     0.6181E-2   1.022     0.3857E-1  0.9363     0.6180E-2   1.022   
  8.632     0.6156E-2   1.023     0.3702E-1  0.9403     0.6154E-2   1.023   
  8.647     0.6213E-2   1.023     0.3596E-1  0.9440     0.6210E-2   1.023   
  8.662     0.6352E-2   1.024     0.3537E-1  0.9475     0.6350E-2   1.024   
  8.677     0.6570E-2   1.024     0.3523E-1  0.9507     0.6569E-2   1.024   
  8.692     0.6863E-2   1.025     0.3548E-1  0.9534     0.6864E-2   1.025   
  8.707     0.7215E-2   1.025     0.3603E-1  0.9557     0.7219E-2   1.025   
  8.722     0.7605E-2   1.026     0.3673E-1  0.9572     0.7615E-2   1.026   
  8.737     0.8008E-2   1.026     0.3735E-1  0.9582     0.8022E-2   1.026   
  8.752     0.8402E-2   1.026     0.3763E-1  0.9586     0.8416E-2   1.026   
    8.7669     0.0088     1.0266     0.0374     0.9586     0.0088     1.0266
    8.7820     0.0092     1.0268     0.0365     0.9587     0.0091     1.0268
    8.7970     0.0095     1.0271     0.0353     0.9589     0.0095     1.0271
    8.8120     0.0099     1.0273     0.0338     0.9596     0.0099     1.0273
   8.82707    0.01033    1.02744    0.03222    0.96059    0.01029    1.02748
   8.84210    0.01066    1.02755    0.03074    0.96189    0.01065    1.02761
   8.85714    0.01092    1.02766    0.02939    0.96342    0.01094    1.02773
   8.87218    0.01109    1.02783    0.02818    0.96516    0.01115    1.02788
   8.88722    0.01123    1.02812    0.02714    0.96709    0.01131    1.02813
   8.90226    0.01142    1.02854    0.02631    0.96920    0.01149    1.02851
   8.91729    0.01170    1.02909    0.02575    0.97145    0.01175    1.02901
   8.93233    0.01216    1.02970    0.02550    0.97381    0.01217    1.02961
   8.94737    0.01281    1.03033    0.02558    0.97622    0.01278    1.03024
   8.96241    0.01368    1.03089    0.02601    0.97863    0.01360    1.03082
   8.97744    0.01477    1.03131    0.02683    0.98099    0.01465    1.03128
   8.99248    0.01601    1.03149    0.02803    0.98322    0.01588    1.03153
   9.00752    0.01733    1.03136    0.02964    0.98524    0.01722    1.03146
   9.02256    0.01859    1.03087    0.03162    0.98697    0.01854    1.03104
   9.03759    0.01961    1.03010    0.03393    0.98830    0.01965    1.03028
   9.05263    0.02029    1.02918    0.03650    0.98916    0.02044    1.02933
   9.06767    0.02063    1.02832    0.03924    0.98949    0.02085    1.02837
   9.08271    0.02076    1.02767    0.04209    0.98925    0.02099    1.02759
   9.09774    0.02086    1.02727    0.04494    0.98834    0.02102    1.02708
   9.11278    0.02110    1.02705    0.04764    0.98668    0.02115    1.02679
   9.12782    0.02157    1.02685    0.04992    0.98422    0.02148    1.02659
   9.14286    0.02227    1.02648    0.05144    0.98105    0.02205    1.02630
   9.15790    0.02306    1.02579    0.05190    0.97749    0.02277    1.02575
   9.17293    0.02375    1.02470    0.05120    0.97401    0.02347    1.02481
   9.18797    0.02408    1.02326    0.04949    0.97106    0.02389    1.02350
   9.20301    0.02387    1.02167    0.04713    0.96895    0.02384    1.02198
   9.21805    0.02310    1.02024    0.04456    0.96775    0.02322    1.02051
   9.23308    0.02190    1.01920    0.04212    0.96733    0.02212    1.01938
   9.24812    0.02050    1.01868    0.04002    0.96743    0.02076    1.01872
   9.26316    0.01913    1.01865    0.03829    0.96779    0.01937    1.01858
   9.27820    0.01794    1.01901    0.03682    0.96823    0.01812    1.01885
   9.29323    0.01702    1.01966    0.03546    0.96869    0.01712    1.01944
   9.30827    0.01641    1.02045    0.03409    0.96923    0.01641    1.02022
   9.32331    0.01610    1.02130    0.03268    0.97000    0.01601    1.02108
   9.33835    0.01608    1.02210    0.03133    0.97109    0.01590    1.02192
   9.35338    0.01629    1.02276    0.03017    0.97253    0.01605    1.02267
   9.36842    0.01666    1.02321    0.02935    0.97428    0.01639    1.02323
   9.38346    0.01708    1.02340    0.02895    0.97625    0.01683    1.02354
   9.39850    0.01740    1.02334    0.02903    0.97834    0.01724    1.02359
   9.41353    0.01749    1.02312    0.02965    0.98044    0.01747    1.02343
   9.42857    0.01731    1.02291    0.03083    0.98243    0.01743    1.02319
   9.44361    0.01690    1.02285    0.03260    0.98419    0.01713    1.02305
   9.45865    0.01637    1.02306    0.03496    0.98552    0.01665    1.02313
   9.47368    0.01586    1.02355    0.03784    0.98622    0.01613    1.02348
   9.48872    0.01548    1.02427    0.04110    0.98603    0.01570    1.02411
   9.50376    0.01530    1.02517    0.04442    0.98473    0.01544    1.02494
   9.51880    0.01537    1.02618    0.04736    0.98225    0.01541    1.02591
   9.53384    0.01571    1.02721    0.04939    0.97877    0.01564    1.02695
   9.54887    0.01633    1.02821    0.05014    0.97474    0.01616    1.02798
   9.56391    0.01724    1.02907    0.04952    0.97077    0.01697    1.02891
   9.57895    0.01839    1.02971    0.04779    0.96740    0.01806    1.02967
   9.59398    0.01974    1.03002    0.04539    0.96487    0.01939    1.03014
   9.60902    0.02117    1.02991    0.04271    0.96318    0.02087    1.03021
   9.62406    0.02247    1.02935    0.03999    0.96223    0.02233    1.02980
   9.63910    0.02345    1.02841    0.03737    0.96187    0.02357    1.02891
   9.65414    0.02396    1.02728    0.03494    0.96202    0.02434    1.02768
   9.66917    0.02398    1.02622    0.03276    0.96258    0.02455    1.02637
   9.68421    0.02366    1.02545    0.03088    0.96346    0.02425    1.02526
   9.69925    0.02322    1.02504    0.02934    0.96454    0.02363    1.02456
   9.71429    0.02285    1.02493    0.02809    0.96574    0.02294    1.02429
   9.72932    0.02266    1.02499    0.02707    0.96700    0.02240    1.02439
   9.74436    0.02269    1.02507    0.02624    0.96834    0.02213    1.02469
   9.75940    0.02286    1.02503    0.02559    0.96980    0.02217    1.02502
   9.77444    0.02305    1.02483    0.02518    0.97139    0.02247    1.02522
   9.78947    0.02315    1.02450    0.02506    0.97310    0.02290    1.02515
   9.80451    0.02312    1.02411    0.02529    0.97490    0.02330    1.02476
   9.81955    0.02297    1.02373    0.02594    0.97672    0.02349    1.02410
   9.83459    0.02275    1.02337    0.02704    0.97846    0.02334    1.02334
   9.84962    0.02246    1.02299    0.02859    0.98005    0.02285    1.02265
   9.86466    0.02204    1.02258    0.03060    0.98137    0.02212    1.02214
   9.87970    0.02141    1.02218    0.03305    0.98232    0.02124    1.02185
   9.89474    0.02056    1.02190    0.03591    0.98280    0.02029    1.02178
   9.90977    0.01952    1.02187    0.03915    0.98267    0.01929    1.02191
   9.92481    0.01841    1.02214    0.04270    0.98175    0.01829    1.02227
   9.93985    0.01736    1.02270    0.04641    0.97981    0.01733    1.02284
   9.95489    0.01645    1.02351    0.04992    0.97662    0.01648    1.02360
   9.96992    0.01572    1.02446    0.05269    0.97215    0.01578    1.02451
   9.98496    0.01519    1.02549    0.05416    0.96668    0.01525    1.02550
  10.00000    0.01483    1.02652    0.05393    0.96082    0.01487    1.02651
  10.01504    0.01460    1.02750    0.05204    0.95531    0.01462    1.02748
  10.03008    0.01442    1.02842    0.04888    0.95071    0.01442    1.02840
  10.04511    0.01423    1.02928    0.04497    0.94724    0.01422    1.02926
  10.06015    0.01399    1.03013    0.04078    0.94488    0.01398    1.03012
  10.07519    0.01368    1.03103    0.03659    0.94346    0.01367    1.03103
  10.09023    0.01334    1.03204    0.03259    0.94283    0.01334    1.03204
  10.10526    0.01301    1.03318    0.02887    0.94283    0.01301    1.03318
  10.12030    0.01273    1.03444    0.02551    0.94331    0.01273    1.03444
  10.13534    0.01252    1.03580    0.02253    0.94415    0.01252    1.03580
  10.15038    0.01240    1.03725    0.01994    0.94523    0.01240    1.03725
  10.16541    0.01236    1.03877    0.01771    0.94646    0.01236    1.03877
  10.18045    0.01241    1.04035    0.01580    0.94776    0.01241    1.04035
  10.19549    0.01254    1.04199    0.01417    0.94908    0.01254    1.04199
  10.21053    0.01274    1.04368    0.01278    0.95038    0.01274    1.04368
  10.22556    0.01302    1.04542    0.01160    0.95164    0.01302    1.04542
  10.24060    0.01337    1.04722    0.01057    0.95286    0.01337    1.04722
  10.26     0.1379E-1   1.049     0.9689E-2  0.9540     0.1379E-1   1.049   
  10.27     0.1429E-1   1.051     0.8920E-2  0.9551     0.1429E-1   1.051   
  10.29     0.1486E-1   1.053     0.8248E-2  0.9562     0.1486E-1   1.053   
  10.30     0.1551E-1   1.055     0.7657E-2  0.9572     0.1551E-1   1.055   
  10.32     0.1625E-1   1.057     0.7135E-2  0.9581     0.1625E-1   1.057   
  10.33     0.1709E-1   1.060     0.6671E-2  0.9590     0.1709E-1   1.060   
  10.35     0.1802E-1   1.062     0.6257E-2  0.9599     0.1802E-1   1.062   
  10.36     0.1908E-1   1.064     0.5886E-2  0.9607     0.1908E-1   1.064   
  10.38     0.2025E-1   1.067     0.5551E-2  0.9615     0.2025E-1   1.067   
  10.39     0.2158E-1   1.070     0.5249E-2  0.9622     0.2158E-1   1.070   
  10.41     0.2307E-1   1.073     0.4975E-2  0.9629     0.2307E-1   1.073   
  10.42     0.2474E-1   1.076     0.4725E-2  0.9636     0.2474E-1   1.076   
  10.44     0.2663E-1   1.079     0.4496E-2  0.9642     0.2663E-1   1.079   
  10.45     0.2877E-1   1.083     0.4287E-2  0.9649     0.2877E-1   1.083   
  10.47     0.3120E-1   1.086     0.4094E-2  0.9655     0.3120E-1   1.086   
  10.48     0.3397E-1   1.090     0.3917E-2  0.9660     0.3397E-1   1.090   
  10.50     0.3713E-1   1.095     0.3752E-2  0.9666     0.3713E-1   1.095   
  10.51     0.4077E-1   1.099     0.3600E-2  0.9671     0.4077E-1   1.099   
  10.53     0.4498E-1   1.104     0.3459E-2  0.9676     0.4498E-1   1.104   
  10.54     0.4986E-1   1.109     0.3327E-2  0.9681     0.4986E-1   1.109   
  10.56     0.5555E-1   1.114     0.3204E-2  0.9686     0.5555E-1   1.114   
  10.57     0.6222E-1   1.120     0.3089E-2  0.9690     0.6222E-1   1.120   
  10.59     0.7009E-1   1.126     0.2981E-2  0.9695     0.7009E-1   1.126   
  10.60     0.7941E-1   1.132     0.2880E-2  0.9699     0.7941E-1   1.132   
  10.62     0.9050E-1   1.138     0.2785E-2  0.9703     0.9050E-1   1.138   
  10.63     0.1037      1.144     0.2695E-2  0.9707     0.1037      1.144   
  10.65     0.1195      1.149     0.2611E-2  0.9711     0.1195      1.149   
  10.66     0.1384      1.153     0.2531E-2  0.9715     0.1384      1.153   
  10.68     0.1606      1.155     0.2456E-2  0.9718     0.1606      1.155   
  10.69     0.1864      1.153     0.2384E-2  0.9722     0.1864      1.153   
  10.71     0.2154      1.145     0.2316E-2  0.9725     0.2154      1.145   
  10.72     0.2463      1.130     0.2252E-2  0.9729     0.2463      1.130   
  10.74     0.2765      1.105     0.2191E-2  0.9732     0.2765      1.105   
  10.75     0.3018      1.070     0.2132E-2  0.9735     0.3018      1.070   
  10.77     0.3172      1.026     0.2077E-2  0.9738     0.3172      1.026   
  10.78     0.3194     0.9788     0.2024E-2  0.9741     0.3194     0.9788   
  10.80     0.3076     0.9334     0.1973E-2  0.9744     0.3076     0.9334   
  10.81     0.2848     0.8954     0.1925E-2  0.9747     0.2848     0.8954   
  10.83     0.2556     0.8675     0.1879E-2  0.9750     0.2556     0.8675   
  10.84     0.2245     0.8495     0.1834E-2  0.9753     0.2245     0.8495   
  10.86     0.1947     0.8399     0.1792E-2  0.9755     0.1947     0.8399   
  10.87     0.1678     0.8364     0.1751E-2  0.9758     0.1678     0.8364   
  10.89     0.1445     0.8371     0.1712E-2  0.9760     0.1445     0.8371   
  10.90     0.1246     0.8404     0.1675E-2  0.9763     0.1246     0.8404   
  10.92     0.1079     0.8453     0.1639E-2  0.9765     0.1079     0.8453   
  10.93     0.9394E-1  0.8510     0.1604E-2  0.9768     0.9394E-1  0.8510   
  10.95     0.8221E-1  0.8570     0.1571E-2  0.9770     0.8221E-1  0.8570   
  10.96     0.7235E-1  0.8630     0.1539E-2  0.9773     0.7235E-1  0.8630   
  10.98     0.6404E-1  0.8690     0.1508E-2  0.9775     0.6404E-1  0.8690   
  10.99     0.5698E-1  0.8746     0.1478E-2  0.9777     0.5698E-1  0.8746   
  11.01     0.5097E-1  0.8801     0.1449E-2  0.9779     0.5097E-1  0.8801   
  11.02     0.4582E-1  0.8852     0.1422E-2  0.9781     0.4582E-1  0.8852   
  11.04     0.4138E-1  0.8900     0.1395E-2  0.9783     0.4138E-1  0.8900   
  11.05     0.3753E-1  0.8945     0.1369E-2  0.9785     0.3753E-1  0.8945   
  11.07     0.3418E-1  0.8987     0.1344E-2  0.9788     0.3418E-1  0.8987   
  11.08     0.3125E-1  0.9026     0.1320E-2  0.9789     0.3125E-1  0.9026   
  11.10     0.2867E-1  0.9063     0.1296E-2  0.9791     0.2867E-1  0.9063   
  11.11     0.2639E-1  0.9097     0.1274E-2  0.9793     0.2639E-1  0.9097   
  11.13     0.2436E-1  0.9129     0.1252E-2  0.9795     0.2436E-1  0.9129   
  11.14     0.2256E-1  0.9160     0.1230E-2  0.9797     0.2256E-1  0.9160   
  11.16     0.2095E-1  0.9188     0.1210E-2  0.9799     0.2095E-1  0.9188   
  11.17     0.1950E-1  0.9215     0.1190E-2  0.9801     0.1950E-1  0.9215   
  11.19     0.1820E-1  0.9240     0.1170E-2  0.9802     0.1820E-1  0.9240   
  11.20     0.1702E-1  0.9263     0.1152E-2  0.9804     0.1702E-1  0.9263   
  11.22     0.1595E-1  0.9286     0.1133E-2  0.9806     0.1595E-1  0.9286   
  11.23     0.1498E-1  0.9307     0.1116E-2  0.9808     0.1498E-1  0.9307   
  11.25     0.1410E-1  0.9327     0.1099E-2  0.9809     0.1410E-1  0.9327   
  11.26     0.1329E-1  0.9346     0.1082E-2  0.9811     0.1329E-1  0.9346   
  11.28     0.1254E-1  0.9364     0.1066E-2  0.9812     0.1254E-1  0.9364   
  11.29     0.1186E-1  0.9381     0.1050E-2  0.9814     0.1186E-1  0.9381   
  11.31     0.1124E-1  0.9397     0.1035E-2  0.9816     0.1124E-1  0.9397   
  11.32     0.1066E-1  0.9412     0.1020E-2  0.9817     0.1066E-1  0.9412   
  11.34     0.1012E-1  0.9427     0.1005E-2  0.9819     0.1012E-1  0.9427   
  11.35     0.9630E-2  0.9441     0.9913E-3  0.9820     0.9630E-2  0.9441   
  11.37     0.9171E-2  0.9454     0.9776E-3  0.9822     0.9171E-2  0.9454   
  11.38     0.8744E-2  0.9467     0.9643E-3  0.9823     0.8744E-2  0.9467   
  11.40     0.8346E-2  0.9479     0.9513E-3  0.9825     0.8346E-2  0.9479   
  11.41     0.7975E-2  0.9491     0.9387E-3  0.9826     0.7975E-2  0.9491   
  11.43     0.7629E-2  0.9502     0.9264E-3  0.9827     0.7629E-2  0.9502   
  11.44     0.7305E-2  0.9513     0.9145E-3  0.9829     0.7305E-2  0.9513   
  11.46     0.7002E-2  0.9523     0.9028E-3  0.9830     0.7002E-2  0.9523   
  11.47     0.6717E-2  0.9533     0.8915E-3  0.9831     0.6717E-2  0.9533   
  11.49     0.6450E-2  0.9542     0.8805E-3  0.9833     0.6450E-2  0.9542   
  11.50     0.6198E-2  0.9552     0.8697E-3  0.9834     0.6198E-2  0.9552   
  11.52     0.5962E-2  0.9560     0.8593E-3  0.9835     0.5962E-2  0.9560   
  11.53     0.5738E-2  0.9569     0.8491E-3  0.9837     0.5738E-2  0.9569   
  11.55     0.5528E-2  0.9577     0.8392E-3  0.9838     0.5528E-2  0.9577   
  11.56     0.5329E-2  0.9585     0.8295E-3  0.9839     0.5329E-2  0.9585   
  11.58     0.5141E-2  0.9593     0.8201E-3  0.9840     0.5141E-2  0.9593   
  11.59     0.4962E-2  0.9600     0.8109E-3  0.9842     0.4962E-2  0.9600   
  11.61     0.4794E-2  0.9607     0.8020E-3  0.9843     0.4794E-2  0.9607   
  11.62     0.4633E-2  0.9614     0.7933E-3  0.9844     0.4633E-2  0.9614   
  11.64     0.4481E-2  0.9621     0.7848E-3  0.9845     0.4481E-2  0.9621   
  11.65     0.4337E-2  0.9627     0.7765E-3  0.9846     0.4337E-2  0.9627   
  11.67     0.4200E-2  0.9634     0.7685E-3  0.9847     0.4200E-2  0.9634   
  11.68     0.4069E-2  0.9640     0.7607E-3  0.9849     0.4069E-2  0.9640   
  11.70     0.3944E-2  0.9645     0.7531E-3  0.9850     0.3944E-2  0.9645   
  11.71     0.3826E-2  0.9651     0.7457E-3  0.9851     0.3826E-2  0.9651   
  11.73     0.3712E-2  0.9657     0.7385E-3  0.9852     0.3712E-2  0.9657   
  11.74     0.3604E-2  0.9662     0.7315E-3  0.9853     0.3604E-2  0.9662   
  11.76     0.3501E-2  0.9667     0.7247E-3  0.9854     0.3501E-2  0.9667   
  11.77     0.3402E-2  0.9672     0.7181E-3  0.9855     0.3402E-2  0.9672   
  11.79     0.3308E-2  0.9677     0.7116E-3  0.9856     0.3308E-2  0.9677   
  11.80     0.3218E-2  0.9682     0.7054E-3  0.9857     0.3218E-2  0.9682   
  11.82     0.3131E-2  0.9687     0.6993E-3  0.9858     0.3131E-2  0.9687   
  11.83     0.3048E-2  0.9691     0.6935E-3  0.9859     0.3048E-2  0.9691   
  11.85     0.2969E-2  0.9696     0.6878E-3  0.9861     0.2969E-2  0.9696   
  11.86     0.2893E-2  0.9700     0.6823E-3  0.9862     0.2893E-2  0.9700   
  11.88     0.2819E-2  0.9704     0.6769E-3  0.9863     0.2819E-2  0.9704   
  11.89     0.2749E-2  0.9709     0.6718E-3  0.9864     0.2749E-2  0.9709   
  11.91     0.2682E-2  0.9713     0.6668E-3  0.9865     0.2682E-2  0.9713   
  11.92     0.2617E-2  0.9717     0.6620E-3  0.9866     0.2617E-2  0.9717   
  11.94     0.2554E-2  0.9720     0.6573E-3  0.9867     0.2554E-2  0.9720   
  11.95     0.2494E-2  0.9724     0.6529E-3  0.9868     0.2494E-2  0.9724   
  11.97     0.2437E-2  0.9728     0.6486E-3  0.9869     0.2437E-2  0.9728   
  11.98     0.2381E-2  0.9731     0.6444E-3  0.9869     0.2381E-2  0.9731   
  12.00     0.2327E-2  0.9735     0.6405E-3  0.9870     0.2327E-2  0.9735   
# 
# 08/26/2016 at 12:04 YAMBO @ narro [start]
# 08/26/2016 at 12:05               [end]
#  
# Timing   [Min/Max/Average]: 48s/48s/48s
#
# .-Input file : yambo.in
# | optics                       # [R OPT] Optics
# | bse                          # [R BSE] Bethe Salpeter Equation.
# | bsk                          # [R BSK] Bethe Salpeter Equation kernel
# | bss                          # [R BSS] Bethe Salpeter Equation solver
# | tddft                        # [R   K] Use TDDFT kernel
# | BoseTemp= 0.000000     eV    # Bosonic Temperature
# | FFTGvecs=  50301       RL    # [FFT] Plane-waves
# | BS_nCPU_invert= 1            # [PARALLEL] CPUs for matrix inversion
# | BS_nCPU_diago= 1             # [PARALLEL] CPUs for matrix diagonalization
# | BSEmod= "coupling"           # [BSE] resonant/retarded/coupling
# | BSKmod= "ALDA"               # [BSE] IP/Hartree/HF/ALDA/SEX/BSfxc
# | BSSmod= "h"                  # [BSS] (h)aydock/(d)iagonalization/(i)nversion/(t)ddft`
# | BSENGexx=  50301       RL    # [BSK] Exchange components
# | % BEnRange
# |   6.00000 | 12.00000 | eV    # [BSS] Energy range
# | %
# | % BDmRange
# |   0.10000 |  0.10000 | eV    # [BSS] Damping range
# | %
# | BEnSteps=  400               # [BSS] Energy steps
# | % BLongDir
# | 0.1000E-4 | 0.000    | 0.000    |        # [BSS] [cc] Electric Field
# | %
# | % BSEBands
# |    1 |  40 |                 # [BSK] Bands range
# | %
# | BSHayTrs=0.1000E-2           # [BSS] Relative [o/o] Haydock treshold. Strict(>0)/Average(<0)
