#                                                           
# :::   :::   :::     ::::    ::::  :::::::::   ::::::::    
# :+:   :+: :+: :+:   +:+:+: :+:+:+ :+:    :+: :+:    :+:   
#  +:+ +:+ +:+   +:+  +:+ +:+:+ +:+ +:+    +:+ +:+    +:+   
#   +#++: +#++:++#++: +#+  +:+  +#+ +#++:++#+  +#+    +:+   
#    +#+  +#+     +#+ +#+       +#+ +#+    +#+ +#+    +#+   
#    #+#  #+#     #+# #+#       #+# #+#    #+# #+#    #+#   
#    ###  ###     ### ###       ### #########   ########    
#                                                           
#                                                           
#        Version 4.1.2 Revision 14030 Hash 116e4f9          
#                        MPI Build                          
#                http://www.yambo-code.org                  
#
# Absorption @ Q(1) [q->0 direction] :0.1000E-4  0.000     0.000   
#
#
# - Energies      are Slater exchange(X)+Perdew & Zunger(C)+Scissor
# - Wavefunctions are Slater exchange(X)+Perdew & Zunger(C)
#
# - The Green`s function is Retarded -
# - Using the Length Gauge -
# - [r,Vnl] *is* included -
#
#   BSK|Identifier              :4586
#      |Dimension               :144
#      |Bands                   :25 - 28
#      |Exchange           [res]: yes
#      |Correlation        [res]: yes
#      |Kernel`s coupling       : no
#      |Exchange           [cpl]: no
#      |Correlation        [cpl]: no
#      |W interaction is bare   : no
#      |ALDA kernel in R-space  : no
#      |RL vectors    [exchange]:2055
#      |RL vectors [correlation]:85
#      |E/h energy range    [ev]:-1.000000 - -1.000000
#      |Coupling range     [o/o]: 100.0000 -  100.0000
#    W |Interaction is diagonal : no
#      |Matrix size             :85
#      |Bands                   :1 - 60
#      |e/h energy range    [ev]:-1.000000 - -1.000000
#      |Poles              [o/o]: 100.0000
#      |RL vectors in the sum   :2055
#      |[r,Vnl] included        : yes
#      |Field direction         :0.1000E-4  0.000000  0.000000
#      |Coulomb Cutoff          :box z
#      |xc-Kernel               :none
#   RIM|RL components      [col]:1
#      |Random points      [col]:1000000
#
#  E/ev[1]    EPS-Im[2]  EPS-Re[3]  EPSo-Im[4] EPSo-Re[5]
 -4.000     -.2901E-2  0.5264     -.8857      4.269   
 -3.992     -.2924E-2  0.5241     -.8298      3.594   
 -3.984     -.2947E-2  0.5217     -.7963      2.953   
 -3.976     -.2971E-2  0.5193     -.7829      2.330   
 -3.968     -.2995E-2  0.5169     -.7893      1.710   
 -3.960     -.3018E-2  0.5145     -.8168      1.078   
 -3.952     -.3043E-2  0.5121     -.8692     0.4168   
 -3.944     -.3067E-2  0.5097     -.9533     -.2951   
 -3.936     -.3092E-2  0.5072     -1.081     -1.084   
 -3.928     -.3117E-2  0.5047     -1.272     -1.987   
 -3.920     -.3142E-2  0.5022     -1.564     -3.060   
 -3.912     -.3168E-2  0.4997     -2.025     -4.384   
 -3.904     -.3194E-2  0.4971     -2.797     -6.094   
 -3.896     -.3220E-2  0.4946     -4.205     -8.403   
 -3.888     -.3247E-2  0.4920     -7.096     -11.60   
 -3.880     -.3273E-2  0.4894     -13.95     -15.44   
 -3.872     -.3300E-2  0.4867     -29.94     -13.19   
 -3.864     -.3328E-2  0.4841     -35.95      12.05   
 -3.856     -.3356E-2  0.4814     -18.11      21.49   
 -3.848     -.3384E-2  0.4787     -8.735      18.16   
 -3.840     -.3412E-2  0.4760     -4.918      14.65   
 -3.832     -.3441E-2  0.4732     -3.141      12.10   
 -3.824     -.3470E-2  0.4705     -2.197      10.24   
 -3.816     -.3500E-2  0.4677     -1.643      8.846   
 -3.808     -.3530E-2  0.4649     -1.295      7.745   
 -3.800     -.3560E-2  0.4620     -1.063      6.846   
 -3.792     -.3590E-2  0.4592     -.9043      6.087   
 -3.784     -.3621E-2  0.4563     -.7927      5.426   
 -3.776     -.3653E-2  0.4534     -.7140      4.837   
 -3.768     -.3684E-2  0.4504     -.6594      4.297   
 -3.760     -.3717E-2  0.4475     -.6235      3.792   
 -3.752     -.3749E-2  0.4445     -.6032      3.307   
   -3.7437    -0.0038     0.4415    -0.5970     2.8336
   -3.7357    -0.0038     0.4384    -0.6044     2.3594
   -3.7277    -0.0038     0.4354    -0.6265     1.8741
   -3.7197    -0.0039     0.4323    -0.6657     1.3660
   -3.7117    -0.0039     0.4291    -0.7267     0.8207
   -3.7037    -0.0040     0.4260    -0.8172     0.2198
   -3.6957    -0.0040     0.4228    -0.9511    -0.4619
   -3.6877    -0.0040     0.4196    -1.1530    -1.2611
   -3.6797    -0.0041     0.4164    -1.4705    -2.2340
   -3.6717    -0.0041     0.4131    -2.0037    -3.4697
 -3.664     -.4135E-2  0.4098     -2.988     -5.108   
 -3.656     -.4173E-2  0.4065     -5.062     -7.305   
 -3.648     -.4211E-2  0.4031     -10.09     -9.543   
 -3.640     -.4250E-2  0.3997     -20.08     -5.393   
 -3.632     -.4289E-2  0.3963     -17.88      8.572   
 -3.624     -.4329E-2  0.3929     -8.827      9.859   
 -3.616     -.4370E-2  0.3894     -4.995      7.120   
 -3.608     -.4411E-2  0.3859     -3.592      4.527   
   -3.5996    -0.0045     0.3823    -3.2171     2.1946
   -3.5916    -0.0045     0.3787    -3.5042    -0.1609
 -3.584     -.4537E-2  0.3751     -4.571     -2.863   
 -3.576     -.4580E-2  0.3715     -7.135     -6.260   
 -3.568     -.4624E-2  0.3678     -13.51     -10.16   
 -3.560     -.4668E-2  0.3641     -28.55     -8.222   
 -3.552     -.4713E-2  0.3603     -34.17      15.51   
 -3.544     -.4759E-2  0.3565     -17.25      24.34   
 -3.536     -.4805E-2  0.3527     -8.336      21.12   
 -3.528     -.4852E-2  0.3488     -4.695      17.75   
 -3.520     -.4900E-2  0.3449     -2.988      15.31   
 -3.512     -.4948E-2  0.3410     -2.072      13.56   
 -3.504     -.4997E-2  0.3370     -1.527      12.25   
 -3.495     -.5047E-2  0.3330     -1.177      11.24   
 -3.487     -.5097E-2  0.3289     -.9391      10.43   
 -3.479     -.5148E-2  0.3248     -.7695      9.776   
 -3.471     -.5200E-2  0.3207     -.6442      9.228   
 -3.463     -.5253E-2  0.3165     -.5489      8.762   
 -3.455     -.5306E-2  0.3122     -.4745      8.361   
 -3.447     -.5360E-2  0.3080     -.4152      8.011   
 -3.439     -.5415E-2  0.3037     -.3671      7.703   
 -3.431     -.5471E-2  0.2993     -.3276      7.428   
 -3.423     -.5528E-2  0.2949     -.2945      7.182   
 -3.415     -.5585E-2  0.2904     -.2667      6.959   
 -3.407     -.5643E-2  0.2859     -.2429      6.757   
 -3.399     -.5702E-2  0.2814     -.2224      6.572   
 -3.391     -.5763E-2  0.2768     -.2047      6.402   
 -3.383     -.5823E-2  0.2722     -.1892      6.246   
 -3.375     -.5885E-2  0.2675     -.1755      6.101   
 -3.367     -.5948E-2  0.2628     -.1634      5.966   
   -3.3594    -0.0060     0.2580    -0.1526     5.8397
   -3.3514    -0.0061     0.2531    -0.1430     5.7218
   -3.3433    -0.0061     0.2482    -0.1343     5.6112
   -3.3353    -0.0062     0.2433    -0.1265     5.5072
   -3.3273    -0.0063     0.2383    -0.1194     5.4091
   -3.3193    -0.0063     0.2332    -0.1129     5.3164
   -3.3113    -0.0064     0.2281    -0.1070     5.2286
   -3.3033    -0.0065     0.2230    -0.1016     5.1453
   -3.2953    -0.0066     0.2177    -0.0966     5.0661
   -3.2873    -0.0066     0.2124    -0.0921     4.9907
   -3.2793    -0.0067     0.2071    -0.0878     4.9189
   -3.2713    -0.0068     0.2017    -0.0839     4.8503
   -3.2633    -0.0069     0.1962    -0.0803     4.7846
   -3.2553    -0.0069     0.1907    -0.0769     4.7218
   -3.2472    -0.0070     0.1851    -0.0737     4.6616
   -3.2392    -0.0071     0.1795    -0.0708     4.6039
   -3.2312    -0.0072     0.1738    -0.0680     4.5484
   -3.2232    -0.0073     0.1680    -0.0654     4.4950
   -3.2152    -0.0074     0.1621    -0.0630     4.4437
   -3.2072    -0.0074     0.1562    -0.0607     4.3942
   -3.1992    -0.0075     0.1502    -0.0586     4.3465
   -3.1912    -0.0076     0.1441    -0.0566     4.3004
   -3.1832    -0.0077     0.1380    -0.0546     4.2559
   -3.1752    -0.0078     0.1318    -0.0528     4.2130
   -3.1672    -0.0079     0.1255    -0.0511     4.1714
   -3.1592    -0.0080     0.1191    -0.0495     4.1311
   -3.1512    -0.0081     0.1127    -0.0479     4.0922
   -3.1431    -0.0082     0.1062    -0.0465     4.0544
   -3.1351    -0.0083     0.0996    -0.0451     4.0178
   -3.1271    -0.0084     0.0929    -0.0437     3.9822
   -3.1191    -0.0085     0.0861    -0.0425     3.9477
   -3.1111    -0.0086     0.0793    -0.0413     3.9142
   -3.1031    -0.0087     0.0723    -0.0401     3.8817
   -3.0951    -0.0088     0.0653    -0.0390     3.8500
   -3.0871    -0.0089     0.0582    -0.0380     3.8192
   -3.0791    -0.0091     0.0510    -0.0370     3.7892
   -3.0711    -0.0092     0.0437    -0.0360     3.7601
   -3.0631    -0.0093     0.0363    -0.0351     3.7316
   -3.0551    -0.0094     0.0288    -0.0342     3.7039
   -3.0470    -0.0095     0.0212    -0.0333     3.6769
   -3.0390    -0.0097     0.0135    -0.0325     3.6506
   -3.0310    -0.0098     0.0057    -0.0317     3.6249
 -3.023     -.9938E-2  -.2216E-2  -.3095E-1   3.600   
  -3.01502   -0.01007   -0.01023   -0.03021    3.57537
  -3.00701   -0.01021   -0.01835   -0.02951    3.55146
  -2.99900   -0.01035   -0.02658   -0.02883    3.52811
  -2.99099   -0.01050   -0.03493   -0.02818    3.50530
  -2.98298   -0.01064   -0.04339   -0.02755    3.48299
  -2.97498   -0.01079   -0.05197   -0.02694    3.46118
  -2.96697   -0.01094   -0.06067   -0.02636    3.43985
  -2.95896   -0.01110   -0.06950   -0.02579    3.41898
  -2.95095   -0.01126   -0.07845   -0.02524    3.39856
  -2.94294   -0.01142   -0.08753   -0.02471    3.37857
  -2.93494   -0.01159   -0.09674   -0.02420    3.35900
  -2.92693   -0.01176   -0.10609   -0.02370    3.33983
  -2.91892   -0.01193   -0.11557   -0.02322    3.32105
  -2.91091   -0.01211   -0.12519   -0.02275    3.30265
  -2.90290   -0.01229   -0.13496   -0.02230    3.28462
  -2.89490   -0.01248   -0.14488   -0.02186    3.26694
  -2.88689   -0.01267   -0.15494   -0.02144    3.24960
  -2.87888   -0.01286   -0.16516   -0.02103    3.23261
  -2.87087   -0.01306   -0.17554   -0.02063    3.21593
  -2.86286   -0.01326   -0.18607   -0.02024    3.19957
  -2.85486   -0.01347   -0.19677   -0.01986    3.18352
  -2.84685   -0.01368   -0.20764   -0.01950    3.16776
  -2.83884   -0.01390   -0.21868   -0.01914    3.15230
  -2.83083   -0.01412   -0.22990   -0.01880    3.13711
  -2.82282   -0.01435   -0.24130   -0.01846    3.12220
  -2.81481   -0.01458   -0.25288   -0.01813    3.10755
  -2.80681   -0.01482   -0.26465   -0.01782    3.09316
  -2.79880   -0.01507   -0.27662   -0.01751    3.07902
  -2.79079   -0.01532   -0.28879   -0.01720    3.06512
  -2.78278   -0.01558   -0.30116   -0.01691    3.05147
  -2.77477   -0.01584   -0.31373   -0.01662    3.03804
  -2.76677   -0.01612   -0.32653   -0.01635    3.02485
  -2.75876   -0.01639   -0.33954   -0.01607    3.01187
  -2.75075   -0.01668   -0.35278   -0.01581    2.99910
  -2.74274   -0.01697   -0.36625   -0.01555    2.98655
  -2.73473   -0.01728   -0.37996   -0.01530    2.97420
  -2.72673   -0.01759   -0.39392   -0.01505    2.96205
  -2.71872   -0.01790   -0.40813   -0.01481    2.95010
  -2.71071   -0.01823   -0.42259   -0.01458    2.93833
  -2.70270   -0.01857   -0.43732   -0.01435    2.92675
  -2.69469   -0.01891   -0.45232   -0.01413    2.91535
  -2.68669   -0.01927   -0.46760   -0.01391    2.90412
  -2.67868   -0.01963   -0.48318   -0.01370    2.89307
  -2.67067   -0.02001   -0.49904   -0.01349    2.88219
  -2.66266   -0.02040   -0.51522   -0.01328    2.87147
  -2.65465   -0.02080   -0.53171   -0.01309    2.86092
  -2.64665   -0.02121   -0.54852   -0.01289    2.85052
  -2.63864   -0.02163   -0.56567   -0.01270    2.84027
  -2.63063   -0.02207   -0.58316   -0.01252    2.83018
  -2.62262   -0.02252   -0.60101   -0.01233    2.82023
  -2.61461   -0.02299   -0.61922   -0.01216    2.81043
  -2.60661   -0.02347   -0.63782   -0.01198    2.80076
  -2.59860   -0.02396   -0.65680   -0.01181    2.79124
  -2.59059   -0.02447   -0.67619   -0.01164    2.78185
  -2.58258   -0.02500   -0.69599   -0.01148    2.77259
  -2.57457   -0.02555   -0.71622   -0.01132    2.76347
  -2.56657   -0.02612   -0.73690   -0.01116    2.75447
  -2.55856   -0.02670   -0.75804   -0.01101    2.74559
  -2.55055   -0.02731   -0.77966   -0.01086    2.73684
  -2.54254   -0.02794   -0.80177   -0.01071    2.72820
  -2.53453   -0.02859   -0.82439   -0.01057    2.71969
  -2.52653   -0.02926   -0.84754   -0.01042    2.71128
  -2.51852   -0.02996   -0.87124   -0.01028    2.70299
  -2.51051   -0.03069   -0.89552   -0.01015    2.69481
  -2.50250   -0.03145   -0.92038   -0.01001    2.68674
   -2.4945    -0.0322    -0.9459    -0.0099     2.6788
   -2.4865    -0.0330    -0.9720    -0.0098     2.6709
   -2.4785    -0.0339    -0.9988    -0.0096     2.6632
   -2.4705    -0.0348    -1.0263    -0.0095     2.6555
   -2.4625    -0.0357    -1.0545    -0.0094     2.6479
   -2.4545    -0.0367    -1.0834    -0.0093     2.6405
   -2.4464    -0.0377    -1.1132    -0.0091     2.6331
   -2.4384    -0.0387    -1.1437    -0.0090     2.6258
   -2.4304    -0.0398    -1.1752    -0.0089     2.6186
   -2.4224    -0.0410    -1.2075    -0.0088     2.6115
   -2.4144    -0.0422    -1.2407    -0.0087     2.6045
   -2.4064    -0.0434    -1.2750    -0.0086     2.5976
   -2.3984    -0.0448    -1.3103    -0.0085     2.5908
   -2.3904    -0.0461    -1.3466    -0.0084     2.5840
   -2.3824    -0.0476    -1.3841    -0.0083     2.5774
   -2.3744    -0.0491    -1.4228    -0.0082     2.5708
   -2.3664    -0.0508    -1.4628    -0.0081     2.5643
   -2.3584    -0.0525    -1.5041    -0.0080     2.5578
   -2.3504    -0.0543    -1.5468    -0.0079     2.5515
   -2.3423    -0.0562    -1.5910    -0.0078     2.5452
   -2.3343    -0.0582    -1.6367    -0.0077     2.5390
   -2.3263    -0.0604    -1.6842    -0.0076     2.5329
   -2.3183    -0.0627    -1.7334    -0.0075     2.5268
   -2.3103    -0.0652    -1.7845    -0.0074     2.5208
   -2.3023    -0.0678    -1.8376    -0.0074     2.5149
   -2.2943    -0.0706    -1.8929    -0.0073     2.5090
   -2.2863    -0.0736    -1.9506    -0.0072     2.5032
   -2.2783    -0.0768    -2.0107    -0.0071     2.4975
   -2.2703    -0.0804    -2.0735    -0.0070     2.4919
   -2.2623    -0.0841    -2.1392    -0.0069     2.4863
   -2.2543    -0.0883    -2.2081    -0.0069     2.4807
   -2.2462    -0.0928    -2.2804    -0.0068     2.4753
   -2.2382    -0.0977    -2.3564    -0.0067     2.4699
   -2.2302    -0.1031    -2.4366    -0.0066     2.4645
   -2.2222    -0.1091    -2.5212    -0.0066     2.4592
   -2.2142    -0.1157    -2.6109    -0.0065     2.4540
   -2.2062    -0.1231    -2.7061    -0.0064     2.4489
   -2.1982    -0.1315    -2.8076    -0.0063     2.4437
   -2.1902    -0.1410    -2.9161    -0.0063     2.4387
   -2.1822    -0.1518    -3.0326    -0.0062     2.4337
   -2.1742    -0.1643    -3.1582    -0.0061     2.4287
   -2.1662    -0.1789    -3.2945    -0.0061     2.4238
   -2.1582    -0.1962    -3.4433    -0.0060     2.4190
   -2.1502    -0.2169    -3.6068    -0.0059     2.4142
   -2.1421    -0.2422    -3.7880    -0.0059     2.4095
   -2.1341    -0.2736    -3.9910    -0.0058     2.4048
   -2.1261    -0.3138    -4.2212    -0.0058     2.4001
   -2.1181    -0.3663    -4.4861    -0.0057     2.3956
   -2.1101    -0.4377    -4.7965    -0.0056     2.3910
   -2.1021    -0.5390    -5.1686    -0.0056     2.3865
 -2.094     -.6906     -5.627     -.5525E-2   2.382   
 -2.086     -.9347     -6.213     -.5467E-2   2.378   
 -2.078     -1.367     -6.987     -.5411E-2   2.373   
 -2.070     -2.241     -8.025     -.5355E-2   2.369   
 -2.062     -4.265     -9.164     -.5300E-2   2.365   
 -2.054     -8.077     -8.285     -.5245E-2   2.361   
 -2.046     -9.547     -4.881     -.5192E-2   2.356   
 -2.038     -9.896     -.6199     -.5139E-2   2.352   
 -2.030     -5.656      1.962     -.5086E-2   2.348   
   -2.0220    -2.8801     0.9160    -0.0050     2.3441
   -2.0140    -1.7350    -0.3206    -0.0050     2.3400
   -2.0060    -1.2131    -1.2935    -0.0049     2.3361
   -1.9980    -0.9478    -2.0703    -0.0049     2.3321
   -1.9900    -0.8055    -2.7276    -0.0048     2.3283
   -1.9820    -0.7309    -3.3167    -0.0048     2.3244
   -1.9740    -0.6989    -3.8718    -0.0047     2.3206
   -1.9660    -0.6977    -4.4176    -0.0047     2.3168
 -1.958     -.7223     -4.974     -.4646E-2   2.313   
 -1.950     -.7721     -5.560     -.4600E-2   2.309   
 -1.942     -.8501     -6.194     -.4554E-2   2.306   
 -1.934     -.9640     -6.900     -.4510E-2   2.302   
 -1.926     -1.128     -7.707     -.4465E-2   2.298   
 -1.918     -1.369     -8.659     -.4422E-2   2.295   
 -1.910     -1.738     -9.816     -.4379E-2   2.291   
 -1.902     -2.346     -11.28     -.4336E-2   2.288   
 -1.894     -3.466     -13.17     -.4294E-2   2.284   
 -1.886     -5.851     -15.53     -.4252E-2   2.281   
 -1.878     -11.09     -16.72     -.4211E-2   2.278   
 -1.870     -14.91     -12.41     -.4170E-2   2.274   
 -1.862     -14.74     -11.35     -.4130E-2   2.271   
 -1.854     -17.90     -10.92     -.4090E-2   2.268   
 -1.846     -19.98     -5.821     -.4051E-2   2.264   
 -1.838     -19.60     -5.180     -.4012E-2   2.261   
 -1.830     -23.74      1.290     -.3974E-2   2.258   
 -1.822     -16.26      7.587     -.3936E-2   2.255   
 -1.814     -11.50      6.402     -.3899E-2   2.252   
 -1.806     -7.760      5.147     -.3862E-2   2.249   
 -1.798     -5.407      2.005     -.3825E-2   2.246   
 -1.790     -4.740     -1.336     -.3789E-2   2.242   
 -1.782     -5.104     -4.773     -.3753E-2   2.239   
 -1.774     -6.577     -8.710     -.3718E-2   2.236   
 -1.766     -10.12     -13.65     -.3683E-2   2.233   
 -1.758     -18.83     -19.47     -.3648E-2   2.231   
 -1.750     -39.94     -18.35     -.3614E-2   2.228   
 -1.742     -51.89      15.02     -.3580E-2   2.225   
 -1.734     -27.15      30.96     -.3546E-2   2.222   
 -1.726     -13.02      26.53     -.3513E-2   2.219   
 -1.718     -7.282      21.41     -.3480E-2   2.216   
 -1.710     -4.628      17.66     -.3448E-2   2.214   
 -1.702     -3.221      14.94     -.3416E-2   2.211   
 -1.694     -2.396      12.90     -.3384E-2   2.208   
 -1.686     -1.875      11.30     -.3353E-2   2.205   
 -1.678     -1.528      10.00     -.3321E-2   2.203   
 -1.670     -1.291      8.918     -.3291E-2   2.200   
 -1.662     -1.127      7.980     -.3260E-2   2.197   
 -1.654     -1.017      7.146     -.3230E-2   2.195   
 -1.646     -.9558      6.380     -.3200E-2   2.192   
 -1.638     -.9485      5.654     -.3171E-2   2.190   
 -1.630     -1.027      4.955     -.3141E-2   2.187   
 -1.622     -1.199      4.323     -.3112E-2   2.185   
 -1.614     -1.520      3.721     -.3084E-2   2.182   
 -1.606     -1.970      3.614     -.3055E-2   2.180   
 -1.598     -1.650      3.449     -.3027E-2   2.177   
   -1.5896    -1.5162     2.6140    -0.0030     2.1749
   -1.5816    -1.8408     1.5651    -0.0030     2.1725
   -1.5736    -2.8490     0.4254    -0.0029     2.1701
 -1.566     -4.966     0.1717     -.2917E-2   2.168   
 -1.558     -5.713      1.350     -.2891E-2   2.165   
 -1.550     -6.940     0.6056     -.2864E-2   2.163   
 -1.542     -11.15      3.240     -.2838E-2   2.161   
 -1.534     -8.491      9.444     -.2812E-2   2.159   
 -1.526     -4.124      9.355     -.2786E-2   2.156   
 -1.518     -2.275      7.958     -.2760E-2   2.154   
 -1.510     -1.473      6.807     -.2735E-2   2.152   
 -1.502     -1.072      5.923     -.2710E-2   2.150   
 -1.493     -.8493      5.217     -.2685E-2   2.148   
 -1.485     -.7171      4.623     -.2661E-2   2.145   
 -1.477     -.6369      4.101     -.2636E-2   2.143   
 -1.469     -.5899      3.623     -.2612E-2   2.141   
 -1.461     -.5669      3.171     -.2588E-2   2.139   
 -1.453     -.5636      2.727     -.2564E-2   2.137   
   -1.4454    -0.5789     2.2790    -0.0025     2.1350
   -1.4374    -0.6150     1.8121    -0.0025     2.1330
   -1.4294    -0.6772     1.3098    -0.0025     2.1310
   -1.4214    -0.7769     0.7505    -0.0025     2.1290
   -1.4134    -0.9361     0.1033    -0.0024     2.1270
   -1.4054    -1.2006    -0.6789    -0.0024     2.1251
   -1.3974    -1.6743    -1.6698    -0.0024     2.1231
 -1.389     -2.626     -2.969     -.2382E-2   2.121   
 -1.381     -4.838     -4.521     -.2360E-2   2.119   
 -1.373     -9.992     -4.288     -.2338E-2   2.117   
 -1.365     -12.39      3.307     -.2317E-2   2.116   
 -1.357     -6.842      6.231     -.2295E-2   2.114   
 -1.349     -3.935      4.615     -.2274E-2   2.112   
 -1.341     -3.190      2.723     -.2253E-2   2.110   
 -1.333     -3.821      1.292     -.2232E-2   2.108   
 -1.325     -4.713      1.627     -.2212E-2   2.107   
 -1.317     -3.727      1.414     -.2191E-2   2.105   
 -1.309     -3.679     -.3205     -.2171E-2   2.103   
 -1.301     -5.329     -2.080     -.2150E-2   2.101   
 -1.293     -8.048     -1.564     -.2130E-2   2.100   
 -1.285     -8.070     -1.206     -.2111E-2   2.098   
 -1.277     -11.20     -3.187     -.2091E-2   2.096   
 -1.269     -18.67      1.646     -.2071E-2   2.095   
 -1.261     -13.99      11.66     -.2052E-2   2.093   
 -1.253     -7.110      11.09     -.2033E-2   2.091   
 -1.245     -4.427      8.379     -.2013E-2   2.090   
 -1.237     -3.606      5.855     -.1994E-2   2.088   
 -1.229     -3.820      3.405     -.1976E-2   2.086   
 -1.221     -5.247     0.7153     -.1957E-2   2.085   
 -1.213     -9.317     -2.104     -.1938E-2   2.083   
 -1.205     -18.97     -.5653     -.1920E-2   2.082   
 -1.197     -21.16      14.42     -.1902E-2   2.080   
 -1.189     -10.54      18.85     -.1884E-2   2.079   
 -1.181     -5.221      16.58     -.1866E-2   2.077   
 -1.173     -3.022      14.36     -.1848E-2   2.076   
 -1.165     -1.972      12.74     -.1830E-2   2.074   
 -1.157     -1.399      11.55     -.1812E-2   2.073   
 -1.149     -1.053      10.65     -.1795E-2   2.071   
 -1.141     -.8267      9.945     -.1777E-2   2.070   
 -1.133     -.6706      9.372     -.1760E-2   2.068   
 -1.125     -.5577      8.897     -.1743E-2   2.067   
 -1.117     -.4733      8.496     -.1726E-2   2.066   
 -1.109     -.4081      8.151     -.1709E-2   2.064   
 -1.101     -.3567      7.850     -.1692E-2   2.063   
 -1.093     -.3152      7.586     -.1676E-2   2.062   
 -1.085     -.2812      7.350     -.1659E-2   2.060   
 -1.077     -.2529      7.139     -.1643E-2   2.059   
 -1.069     -.2291      6.947     -.1626E-2   2.058   
 -1.061     -.2088      6.774     -.1610E-2   2.056   
 -1.053     -.1914      6.615     -.1594E-2   2.055   
 -1.045     -.1762      6.468     -.1578E-2   2.054   
 -1.037     -.1629      6.334     -.1562E-2   2.053   
 -1.029     -.1513      6.208     -.1546E-2   2.051   
 -1.021     -.1409      6.092     -.1531E-2   2.050   
 -1.013     -.1317      5.983     -.1515E-2   2.049   
 -1.005     -.1234      5.882     -.1500E-2   2.048   
 -.9970     -.1160      5.786     -.1484E-2   2.046   
 -.9890     -.1093      5.696     -.1469E-2   2.045   
 -.9810     -.1031      5.611     -.1454E-2   2.044   
 -.9730     -.9756E-1   5.531     -.1438E-2   2.043   
 -.9650     -.9246E-1   5.456     -.1423E-2   2.042   
 -.9570     -.8778E-1   5.384     -.1409E-2   2.041   
 -.9489     -.8347E-1   5.315     -.1394E-2   2.040   
 -.9409     -.7950E-1   5.250     -.1379E-2   2.038   
 -.9329     -.7581E-1   5.188     -.1364E-2   2.037   
 -.9249     -.7240E-1   5.129     -.1350E-2   2.036   
 -.9169     -.6922E-1   5.072     -.1335E-2   2.035   
 -.9089     -.6626E-1   5.018     -.1321E-2   2.034   
 -.9009     -.6350E-1   4.966     -.1306E-2   2.033   
 -.8929     -.6091E-1   4.916     -.1292E-2   2.032   
 -.8849     -.5848E-1   4.869     -.1278E-2   2.031   
 -.8769     -.5621E-1   4.823     -.1264E-2   2.030   
 -.8689     -.5406E-1   4.779     -.1250E-2   2.029   
 -.8609     -.5204E-1   4.736     -.1236E-2   2.028   
 -.8529     -.5014E-1   4.695     -.1222E-2   2.027   
 -.8448     -.4833E-1   4.656     -.1208E-2   2.026   
 -.8368     -.4663E-1   4.618     -.1194E-2   2.025   
 -.8288     -.4501E-1   4.581     -.1181E-2   2.024   
 -.8208     -.4348E-1   4.546     -.1167E-2   2.023   
 -.8128     -.4202E-1   4.512     -.1153E-2   2.022   
 -.8048     -.4064E-1   4.479     -.1140E-2   2.021   
 -.7968     -.3932E-1   4.447     -.1127E-2   2.020   
 -.7888     -.3806E-1   4.416     -.1113E-2   2.019   
 -.7808     -.3686E-1   4.386     -.1100E-2   2.019   
 -.7728     -.3571E-1   4.357     -.1087E-2   2.018   
 -.7648     -.3462E-1   4.329     -.1074E-2   2.017   
 -.7568     -.3357E-1   4.301     -.1061E-2   2.016   
 -.7487     -.3257E-1   4.275     -.1048E-2   2.015   
 -.7407     -.3160E-1   4.249     -.1035E-2   2.014   
 -.7327     -.3068E-1   4.224     -.1022E-2   2.014   
 -.7247     -.2979E-1   4.200     -.1009E-2   2.013   
 -.7167     -.2894E-1   4.177     -.9963E-3   2.012   
 -.7087     -.2812E-1   4.154     -.9836E-3   2.011   
 -.7007     -.2733E-1   4.132     -.9709E-3   2.010   
 -.6927     -.2657E-1   4.110     -.9583E-3   2.010   
 -.6847     -.2584E-1   4.089     -.9458E-3   2.009   
 -.6767     -.2513E-1   4.069     -.9333E-3   2.008   
 -.6687     -.2445E-1   4.049     -.9209E-3   2.007   
 -.6607     -.2380E-1   4.030     -.9085E-3   2.007   
 -.6527     -.2316E-1   4.011     -.8962E-3   2.006   
 -.6446     -.2254E-1   3.992     -.8839E-3   2.005   
 -.6366     -.2195E-1   3.975     -.8717E-3   2.004   
 -.6286     -.2137E-1   3.957     -.8595E-3   2.004   
 -.6206     -.2082E-1   3.940     -.8474E-3   2.003   
 -.6126     -.2028E-1   3.924     -.8353E-3   2.002   
 -.6046     -.1975E-1   3.908     -.8233E-3   2.002   
 -.5966     -.1924E-1   3.892     -.8113E-3   2.001   
 -.5886     -.1875E-1   3.877     -.7993E-3   2.000   
 -.5806     -.1827E-1   3.862     -.7874E-3   2.000   
 -.5726     -.1781E-1   3.848     -.7756E-3   1.999   
 -.5646     -.1735E-1   3.834     -.7638E-3   1.999   
 -.5566     -.1691E-1   3.820     -.7520E-3   1.998   
 -.5485     -.1649E-1   3.807     -.7403E-3   1.997   
 -.5405     -.1607E-1   3.794     -.7286E-3   1.997   
 -.5325     -.1566E-1   3.781     -.7170E-3   1.996   
 -.5245     -.1527E-1   3.769     -.7054E-3   1.996   
 -.5165     -.1488E-1   3.757     -.6938E-3   1.995   
 -.5085     -.1451E-1   3.745     -.6823E-3   1.994   
 -.5005     -.1414E-1   3.733     -.6708E-3   1.994   
 -.4925     -.1378E-1   3.722     -.6593E-3   1.993   
 -.4845     -.1343E-1   3.711     -.6479E-3   1.993   
 -.4765     -.1309E-1   3.701     -.6365E-3   1.992   
 -.4685     -.1276E-1   3.690     -.6252E-3   1.992   
 -.4605     -.1243E-1   3.680     -.6139E-3   1.991   
 -.4525     -.1211E-1   3.670     -.6026E-3   1.991   
 -.4444     -.1180E-1   3.661     -.5913E-3   1.990   
 -.4364     -.1149E-1   3.652     -.5801E-3   1.990   
 -.4284     -.1119E-1   3.642     -.5689E-3   1.989   
 -.4204     -.1090E-1   3.634     -.5578E-3   1.989   
 -.4124     -.1061E-1   3.625     -.5467E-3   1.989   
 -.4044     -.1033E-1   3.617     -.5356E-3   1.988   
 -.3964     -.1005E-1   3.608     -.5245E-3   1.988   
 -.3884     -.9778E-2   3.601     -.5135E-3   1.987   
 -.3804     -.9511E-2   3.593     -.5025E-3   1.987   
 -.3724     -.9249E-2   3.585     -.4915E-3   1.986   
 -.3644     -.8991E-2   3.578     -.4805E-3   1.986   
 -.3564     -.8738E-2   3.571     -.4696E-3   1.986   
 -.3483     -.8490E-2   3.564     -.4587E-3   1.985   
 -.3403     -.8245E-2   3.557     -.4478E-3   1.985   
 -.3323     -.8004E-2   3.551     -.4369E-3   1.985   
 -.3243     -.7767E-2   3.544     -.4261E-3   1.984   
 -.3163     -.7534E-2   3.538     -.4153E-3   1.984   
 -.3083     -.7304E-2   3.532     -.4045E-3   1.984   
 -.3003     -.7077E-2   3.527     -.3937E-3   1.983   
 -.2923     -.6854E-2   3.521     -.3830E-3   1.983   
 -.2843     -.6633E-2   3.516     -.3723E-3   1.983   
 -.2763     -.6416E-2   3.510     -.3616E-3   1.982   
 -.2683     -.6202E-2   3.505     -.3509E-3   1.982   
 -.2603     -.5990E-2   3.501     -.3402E-3   1.982   
 -.2523     -.5781E-2   3.496     -.3296E-3   1.982   
 -.2442     -.5574E-2   3.491     -.3189E-3   1.981   
 -.2362     -.5370E-2   3.487     -.3083E-3   1.981   
 -.2282     -.5168E-2   3.483     -.2977E-3   1.981   
 -.2202     -.4968E-2   3.479     -.2871E-3   1.981   
 -.2122     -.4770E-2   3.475     -.2765E-3   1.980   
 -.2042     -.4574E-2   3.471     -.2660E-3   1.980   
 -.1962     -.4380E-2   3.467     -.2555E-3   1.980   
 -.1882     -.4188E-2   3.464     -.2449E-3   1.980   
 -.1802     -.3998E-2   3.461     -.2344E-3   1.980   
 -.1722     -.3809E-2   3.458     -.2239E-3   1.979   
 -.1642     -.3622E-2   3.455     -.2134E-3   1.979   
 -.1562     -.3437E-2   3.452     -.2029E-3   1.979   
 -.1481     -.3252E-2   3.449     -.1925E-3   1.979   
 -.1401     -.3069E-2   3.447     -.1820E-3   1.979   
 -.1321     -.2887E-2   3.444     -.1715E-3   1.979   
 -.1241     -.2707E-2   3.442     -.1611E-3   1.978   
 -.1161     -.2527E-2   3.440     -.1507E-3   1.978   
 -.1081     -.2349E-2   3.438     -.1402E-3   1.978   
 -.1001     -.2171E-2   3.436     -.1298E-3   1.978   
 -.9209E-1  -.1994E-2   3.434     -.1194E-3   1.978   
 -.8408E-1  -.1818E-2   3.433     -.1090E-3   1.978   
 -.7608E-1  -.1643E-2   3.432     -.9862E-4   1.978   
 -.6807E-1  -.1468E-2   3.430     -.8822E-4   1.978   
 -.6006E-1  -.1294E-2   3.429     -.7783E-4   1.978   
 -.5205E-1  -.1121E-2   3.428     -.6745E-4   1.978   
 -.4404E-1  -.9476E-3   3.427     -.5706E-4   1.978   
 -.3604E-1  -.7748E-3   3.427     -.4668E-4   1.978   
 -.2803E-1  -.6023E-3   3.426     -.3631E-4   1.977   
 -.2002E-1  -.4301E-3   3.426     -.2593E-4   1.977   
 -.1201E-1  -.2580E-3   3.425     -.1556E-4   1.977   
 -.4004E-2  -.8598E-4   3.425     -.5186E-5   1.977   
 0.4004E-2  0.8597E-4   3.425     0.5186E-5   1.977   
 0.1201E-1  0.2580E-3   3.425     0.1556E-4   1.977   
 0.2002E-1  0.4300E-3   3.426     0.2593E-4   1.977   
 0.2803E-1  0.6023E-3   3.426     0.3631E-4   1.977   
 0.3604E-1  0.7748E-3   3.427     0.4668E-4   1.978   
 0.4404E-1  0.9476E-3   3.427     0.5706E-4   1.978   
 0.5205E-1  0.1121E-2   3.428     0.6745E-4   1.978   
 0.6006E-1  0.1294E-2   3.429     0.7783E-4   1.978   
 0.6807E-1  0.1468E-2   3.430     0.8822E-4   1.978   
 0.7608E-1  0.1643E-2   3.432     0.9862E-4   1.978   
 0.8408E-1  0.1818E-2   3.433     0.1090E-3   1.978   
 0.9209E-1  0.1994E-2   3.434     0.1194E-3   1.978   
 0.1001     0.2171E-2   3.436     0.1298E-3   1.978   
 0.1081     0.2349E-2   3.438     0.1402E-3   1.978   
 0.1161     0.2527E-2   3.440     0.1507E-3   1.978   
 0.1241     0.2707E-2   3.442     0.1611E-3   1.978   
 0.1321     0.2887E-2   3.444     0.1715E-3   1.979   
 0.1401     0.3069E-2   3.447     0.1820E-3   1.979   
 0.1481     0.3252E-2   3.449     0.1925E-3   1.979   
 0.1562     0.3437E-2   3.452     0.2029E-3   1.979   
 0.1642     0.3622E-2   3.455     0.2134E-3   1.979   
 0.1722     0.3809E-2   3.458     0.2239E-3   1.979   
 0.1802     0.3998E-2   3.461     0.2344E-3   1.980   
 0.1882     0.4188E-2   3.464     0.2449E-3   1.980   
 0.1962     0.4380E-2   3.467     0.2555E-3   1.980   
 0.2042     0.4574E-2   3.471     0.2660E-3   1.980   
 0.2122     0.4770E-2   3.475     0.2765E-3   1.980   
 0.2202     0.4968E-2   3.479     0.2871E-3   1.981   
 0.2282     0.5168E-2   3.483     0.2977E-3   1.981   
 0.2362     0.5370E-2   3.487     0.3083E-3   1.981   
 0.2442     0.5574E-2   3.491     0.3189E-3   1.981   
 0.2523     0.5781E-2   3.496     0.3296E-3   1.982   
 0.2603     0.5990E-2   3.501     0.3402E-3   1.982   
 0.2683     0.6202E-2   3.505     0.3509E-3   1.982   
 0.2763     0.6416E-2   3.510     0.3616E-3   1.982   
 0.2843     0.6633E-2   3.516     0.3723E-3   1.983   
 0.2923     0.6854E-2   3.521     0.3830E-3   1.983   
 0.3003     0.7077E-2   3.527     0.3937E-3   1.983   
 0.3083     0.7304E-2   3.532     0.4045E-3   1.984   
 0.3163     0.7534E-2   3.538     0.4153E-3   1.984   
 0.3243     0.7767E-2   3.544     0.4261E-3   1.984   
 0.3323     0.8004E-2   3.551     0.4369E-3   1.985   
 0.3403     0.8245E-2   3.557     0.4478E-3   1.985   
 0.3483     0.8489E-2   3.564     0.4587E-3   1.985   
 0.3564     0.8738E-2   3.571     0.4696E-3   1.986   
 0.3644     0.8991E-2   3.578     0.4805E-3   1.986   
 0.3724     0.9249E-2   3.585     0.4915E-3   1.986   
 0.3804     0.9511E-2   3.593     0.5025E-3   1.987   
 0.3884     0.9778E-2   3.601     0.5135E-3   1.987   
 0.3964     0.1005E-1   3.608     0.5245E-3   1.988   
 0.4044     0.1033E-1   3.617     0.5356E-3   1.988   
 0.4124     0.1061E-1   3.625     0.5467E-3   1.989   
 0.4204     0.1090E-1   3.634     0.5578E-3   1.989   
 0.4284     0.1119E-1   3.642     0.5689E-3   1.989   
 0.4364     0.1149E-1   3.652     0.5801E-3   1.990   
 0.4444     0.1180E-1   3.661     0.5913E-3   1.990   
 0.4525     0.1211E-1   3.670     0.6026E-3   1.991   
 0.4605     0.1243E-1   3.680     0.6139E-3   1.991   
 0.4685     0.1276E-1   3.690     0.6252E-3   1.992   
 0.4765     0.1309E-1   3.701     0.6365E-3   1.992   
 0.4845     0.1343E-1   3.711     0.6479E-3   1.993   
 0.4925     0.1378E-1   3.722     0.6593E-3   1.993   
 0.5005     0.1414E-1   3.733     0.6708E-3   1.994   
 0.5085     0.1451E-1   3.745     0.6823E-3   1.994   
 0.5165     0.1488E-1   3.757     0.6938E-3   1.995   
 0.5245     0.1527E-1   3.769     0.7054E-3   1.996   
 0.5325     0.1566E-1   3.781     0.7170E-3   1.996   
 0.5405     0.1607E-1   3.794     0.7286E-3   1.997   
 0.5485     0.1649E-1   3.807     0.7403E-3   1.997   
 0.5566     0.1691E-1   3.820     0.7520E-3   1.998   
 0.5646     0.1735E-1   3.834     0.7638E-3   1.999   
 0.5726     0.1781E-1   3.848     0.7756E-3   1.999   
 0.5806     0.1827E-1   3.862     0.7874E-3   2.000   
 0.5886     0.1875E-1   3.877     0.7993E-3   2.000   
 0.5966     0.1924E-1   3.892     0.8113E-3   2.001   
 0.6046     0.1975E-1   3.908     0.8233E-3   2.002   
 0.6126     0.2028E-1   3.924     0.8353E-3   2.002   
 0.6206     0.2082E-1   3.940     0.8474E-3   2.003   
 0.6286     0.2137E-1   3.957     0.8595E-3   2.004   
 0.6366     0.2195E-1   3.975     0.8717E-3   2.004   
 0.6446     0.2254E-1   3.992     0.8839E-3   2.005   
 0.6527     0.2316E-1   4.011     0.8962E-3   2.006   
 0.6607     0.2380E-1   4.030     0.9085E-3   2.007   
 0.6687     0.2445E-1   4.049     0.9209E-3   2.007   
 0.6767     0.2513E-1   4.069     0.9333E-3   2.008   
 0.6847     0.2584E-1   4.089     0.9458E-3   2.009   
 0.6927     0.2657E-1   4.110     0.9583E-3   2.010   
 0.7007     0.2733E-1   4.132     0.9709E-3   2.010   
 0.7087     0.2812E-1   4.154     0.9836E-3   2.011   
 0.7167     0.2894E-1   4.177     0.9963E-3   2.012   
 0.7247     0.2979E-1   4.200     0.1009E-2   2.013   
 0.7327     0.3068E-1   4.224     0.1022E-2   2.014   
 0.7407     0.3160E-1   4.249     0.1035E-2   2.014   
 0.7487     0.3257E-1   4.275     0.1048E-2   2.015   
 0.7568     0.3357E-1   4.301     0.1061E-2   2.016   
 0.7648     0.3462E-1   4.329     0.1074E-2   2.017   
 0.7728     0.3571E-1   4.357     0.1087E-2   2.018   
 0.7808     0.3686E-1   4.386     0.1100E-2   2.019   
 0.7888     0.3806E-1   4.416     0.1113E-2   2.019   
 0.7968     0.3932E-1   4.447     0.1127E-2   2.020   
 0.8048     0.4064E-1   4.479     0.1140E-2   2.021   
 0.8128     0.4202E-1   4.512     0.1153E-2   2.022   
 0.8208     0.4348E-1   4.546     0.1167E-2   2.023   
 0.8288     0.4501E-1   4.581     0.1181E-2   2.024   
 0.8368     0.4663E-1   4.618     0.1194E-2   2.025   
 0.8448     0.4833E-1   4.656     0.1208E-2   2.026   
 0.8529     0.5014E-1   4.695     0.1222E-2   2.027   
 0.8609     0.5204E-1   4.736     0.1236E-2   2.028   
 0.8689     0.5406E-1   4.779     0.1250E-2   2.029   
 0.8769     0.5621E-1   4.823     0.1264E-2   2.030   
 0.8849     0.5848E-1   4.869     0.1278E-2   2.031   
 0.8929     0.6091E-1   4.916     0.1292E-2   2.032   
 0.9009     0.6350E-1   4.966     0.1306E-2   2.033   
 0.9089     0.6626E-1   5.018     0.1321E-2   2.034   
 0.9169     0.6922E-1   5.072     0.1335E-2   2.035   
 0.9249     0.7240E-1   5.129     0.1350E-2   2.036   
 0.9329     0.7581E-1   5.188     0.1364E-2   2.037   
 0.9409     0.7950E-1   5.250     0.1379E-2   2.038   
 0.9489     0.8347E-1   5.315     0.1394E-2   2.040   
 0.9570     0.8778E-1   5.384     0.1409E-2   2.041   
 0.9650     0.9246E-1   5.456     0.1423E-2   2.042   
 0.9730     0.9756E-1   5.531     0.1438E-2   2.043   
 0.9810     0.1031      5.611     0.1454E-2   2.044   
 0.9890     0.1093      5.696     0.1469E-2   2.045   
 0.9970     0.1160      5.786     0.1484E-2   2.046   
  1.005     0.1234      5.882     0.1500E-2   2.048   
  1.013     0.1317      5.983     0.1515E-2   2.049   
  1.021     0.1409      6.092     0.1531E-2   2.050   
  1.029     0.1513      6.208     0.1546E-2   2.051   
  1.037     0.1629      6.334     0.1562E-2   2.053   
  1.045     0.1762      6.468     0.1578E-2   2.054   
  1.053     0.1914      6.615     0.1594E-2   2.055   
  1.061     0.2088      6.774     0.1610E-2   2.056   
  1.069     0.2291      6.947     0.1626E-2   2.058   
  1.077     0.2529      7.139     0.1643E-2   2.059   
  1.085     0.2812      7.350     0.1659E-2   2.060   
  1.093     0.3152      7.586     0.1676E-2   2.062   
  1.101     0.3567      7.850     0.1692E-2   2.063   
  1.109     0.4081      8.151     0.1709E-2   2.064   
  1.117     0.4733      8.496     0.1726E-2   2.066   
  1.125     0.5577      8.897     0.1743E-2   2.067   
  1.133     0.6706      9.372     0.1760E-2   2.068   
  1.141     0.8267      9.945     0.1777E-2   2.070   
  1.149      1.053      10.65     0.1795E-2   2.071   
  1.157      1.399      11.55     0.1812E-2   2.073   
  1.165      1.972      12.74     0.1830E-2   2.074   
  1.173      3.022      14.36     0.1848E-2   2.076   
  1.181      5.221      16.58     0.1866E-2   2.077   
  1.189      10.54      18.85     0.1884E-2   2.079   
  1.197      21.16      14.42     0.1902E-2   2.080   
  1.205      18.97     -.5649     0.1920E-2   2.082   
  1.213      9.317     -2.104     0.1938E-2   2.083   
  1.221      5.247     0.7151     0.1957E-2   2.085   
  1.229      3.820      3.405     0.1976E-2   2.086   
  1.237      3.606      5.855     0.1994E-2   2.088   
  1.245      4.427      8.379     0.2013E-2   2.090   
  1.253      7.110      11.09     0.2033E-2   2.091   
  1.261      13.99      11.66     0.2052E-2   2.093   
  1.269      18.67      1.646     0.2071E-2   2.095   
  1.277      11.20     -3.187     0.2091E-2   2.096   
  1.285      8.070     -1.206     0.2111E-2   2.098   
  1.293      8.048     -1.563     0.2130E-2   2.100   
  1.301      5.329     -2.080     0.2150E-2   2.101   
  1.309      3.679     -.3206     0.2171E-2   2.103   
  1.317      3.727      1.414     0.2191E-2   2.105   
  1.325      4.713      1.627     0.2212E-2   2.107   
  1.333      3.821      1.292     0.2232E-2   2.108   
  1.341      3.190      2.723     0.2253E-2   2.110   
  1.349      3.935      4.615     0.2274E-2   2.112   
  1.357      6.842      6.231     0.2295E-2   2.114   
  1.365      12.39      3.307     0.2317E-2   2.116   
  1.373      9.992     -4.288     0.2338E-2   2.117   
  1.381      4.838     -4.521     0.2360E-2   2.119   
  1.389      2.626     -2.969     0.2382E-2   2.121   
    1.3974     1.6743    -1.6698     0.0024     2.1231
    1.4054     1.2006    -0.6789     0.0024     2.1251
    1.4134     0.9361     0.1033     0.0024     2.1270
    1.4214     0.7769     0.7505     0.0025     2.1290
    1.4294     0.6772     1.3098     0.0025     2.1310
    1.4374     0.6150     1.8121     0.0025     2.1330
    1.4454     0.5789     2.2790     0.0025     2.1350
  1.453     0.5636      2.727     0.2564E-2   2.137   
  1.461     0.5669      3.171     0.2588E-2   2.139   
  1.469     0.5899      3.623     0.2612E-2   2.141   
  1.477     0.6369      4.101     0.2636E-2   2.143   
  1.485     0.7171      4.623     0.2661E-2   2.145   
  1.493     0.8493      5.217     0.2685E-2   2.148   
  1.502      1.072      5.923     0.2710E-2   2.150   
  1.510      1.473      6.807     0.2735E-2   2.152   
  1.518      2.275      7.958     0.2760E-2   2.154   
  1.526      4.124      9.355     0.2786E-2   2.156   
  1.534      8.491      9.444     0.2812E-2   2.159   
  1.542      11.15      3.240     0.2838E-2   2.161   
  1.550      6.941     0.6056     0.2864E-2   2.163   
  1.558      5.713      1.350     0.2891E-2   2.165   
  1.566      4.966     0.1717     0.2917E-2   2.168   
    1.5736     2.8491     0.4254     0.0029     2.1701
    1.5816     1.8409     1.5650     0.0030     2.1725
    1.5896     1.5162     2.6139     0.0030     2.1749
  1.598      1.650      3.449     0.3027E-2   2.177   
  1.606      1.970      3.614     0.3055E-2   2.180   
  1.614      1.520      3.721     0.3084E-2   2.182   
  1.622      1.199      4.323     0.3112E-2   2.185   
  1.630      1.027      4.954     0.3141E-2   2.187   
  1.638     0.9485      5.654     0.3171E-2   2.190   
  1.646     0.9558      6.380     0.3200E-2   2.192   
  1.654      1.017      7.146     0.3230E-2   2.195   
  1.662      1.127      7.980     0.3260E-2   2.197   
  1.670      1.291      8.918     0.3291E-2   2.200   
  1.678      1.528      10.00     0.3321E-2   2.203   
  1.686      1.875      11.30     0.3353E-2   2.205   
  1.694      2.396      12.90     0.3384E-2   2.208   
  1.702      3.221      14.94     0.3416E-2   2.211   
  1.710      4.628      17.66     0.3448E-2   2.214   
  1.718      7.282      21.41     0.3480E-2   2.216   
  1.726      13.02      26.53     0.3513E-2   2.219   
  1.734      27.15      30.96     0.3546E-2   2.222   
  1.742      51.89      15.02     0.3580E-2   2.225   
  1.750      39.94     -18.35     0.3614E-2   2.228   
  1.758      18.83     -19.48     0.3648E-2   2.231   
  1.766      10.12     -13.65     0.3683E-2   2.233   
  1.774      6.578     -8.710     0.3718E-2   2.236   
  1.782      5.104     -4.773     0.3753E-2   2.239   
  1.790      4.740     -1.336     0.3789E-2   2.242   
  1.798      5.407      2.005     0.3825E-2   2.246   
  1.806      7.760      5.147     0.3862E-2   2.249   
  1.814      11.50      6.402     0.3899E-2   2.252   
  1.822      16.26      7.587     0.3936E-2   2.255   
  1.830      23.74      1.290     0.3974E-2   2.258   
  1.838      19.60     -5.180     0.4012E-2   2.261   
  1.846      19.98     -5.821     0.4051E-2   2.264   
  1.854      17.90     -10.92     0.4090E-2   2.268   
  1.862      14.74     -11.35     0.4130E-2   2.271   
  1.870      14.91     -12.41     0.4170E-2   2.274   
  1.878      11.09     -16.72     0.4211E-2   2.278   
  1.886      5.852     -15.53     0.4252E-2   2.281   
  1.894      3.466     -13.17     0.4294E-2   2.284   
  1.902      2.346     -11.28     0.4336E-2   2.288   
  1.910      1.738     -9.816     0.4379E-2   2.291   
  1.918      1.369     -8.659     0.4422E-2   2.295   
  1.926      1.128     -7.707     0.4465E-2   2.298   
  1.934     0.9640     -6.900     0.4510E-2   2.302   
  1.942     0.8501     -6.194     0.4554E-2   2.306   
  1.950     0.7721     -5.560     0.4600E-2   2.309   
  1.958     0.7223     -4.974     0.4646E-2   2.313   
    1.9660     0.6977    -4.4176     0.0047     2.3168
    1.9740     0.6989    -3.8718     0.0047     2.3206
    1.9820     0.7309    -3.3167     0.0048     2.3244
    1.9900     0.8055    -2.7276     0.0048     2.3283
    1.9980     0.9478    -2.0703     0.0049     2.3321
    2.0060     1.2131    -1.2935     0.0049     2.3361
    2.0140     1.7350    -0.3207     0.0050     2.3400
    2.0220     2.8800     0.9160     0.0050     2.3441
  2.030      5.656      1.962     0.5086E-2   2.348   
  2.038      9.896     -.6196     0.5139E-2   2.352   
  2.046      9.547     -4.881     0.5192E-2   2.356   
  2.054      8.078     -8.285     0.5245E-2   2.361   
  2.062      4.265     -9.164     0.5300E-2   2.365   
  2.070      2.241     -8.026     0.5355E-2   2.369   
  2.078      1.367     -6.987     0.5411E-2   2.373   
  2.086     0.9347     -6.213     0.5467E-2   2.378   
  2.094     0.6906     -5.628     0.5525E-2   2.382   
    2.1021     0.5390    -5.1687     0.0056     2.3865
    2.1101     0.4377    -4.7965     0.0056     2.3910
    2.1181     0.3663    -4.4861     0.0057     2.3956
    2.1261     0.3138    -4.2212     0.0058     2.4001
    2.1341     0.2736    -3.9910     0.0058     2.4048
    2.1421     0.2422    -3.7880     0.0059     2.4095
    2.1502     0.2169    -3.6068     0.0059     2.4142
    2.1582     0.1962    -3.4433     0.0060     2.4190
    2.1662     0.1789    -3.2946     0.0061     2.4238
    2.1742     0.1643    -3.1583     0.0061     2.4287
    2.1822     0.1518    -3.0326     0.0062     2.4337
    2.1902     0.1410    -2.9161     0.0063     2.4387
    2.1982     0.1315    -2.8076     0.0063     2.4437
    2.2062     0.1231    -2.7061     0.0064     2.4489
    2.2142     0.1157    -2.6109     0.0065     2.4540
    2.2222     0.1091    -2.5212     0.0066     2.4592
    2.2302     0.1031    -2.4366     0.0066     2.4645
    2.2382     0.0977    -2.3564     0.0067     2.4699
    2.2462     0.0928    -2.2804     0.0068     2.4753
    2.2543     0.0883    -2.2081     0.0069     2.4807
    2.2623     0.0841    -2.1392     0.0069     2.4863
    2.2703     0.0804    -2.0735     0.0070     2.4919
    2.2783     0.0768    -2.0107     0.0071     2.4975
    2.2863     0.0736    -1.9506     0.0072     2.5032
    2.2943     0.0706    -1.8930     0.0073     2.5090
    2.3023     0.0678    -1.8376     0.0074     2.5149
    2.3103     0.0652    -1.7845     0.0074     2.5208
    2.3183     0.0627    -1.7334     0.0075     2.5268
    2.3263     0.0604    -1.6842     0.0076     2.5329
    2.3343     0.0582    -1.6367     0.0077     2.5390
    2.3423     0.0562    -1.5910     0.0078     2.5452
    2.3503     0.0543    -1.5468     0.0079     2.5515
    2.3584     0.0525    -1.5041     0.0080     2.5578
    2.3664     0.0508    -1.4628     0.0081     2.5643
    2.3744     0.0491    -1.4228     0.0082     2.5708
    2.3824     0.0476    -1.3841     0.0083     2.5774
    2.3904     0.0461    -1.3466     0.0084     2.5840
    2.3984     0.0448    -1.3103     0.0085     2.5908
    2.4064     0.0434    -1.2750     0.0086     2.5976
    2.4144     0.0422    -1.2407     0.0087     2.6045
    2.4224     0.0410    -1.2075     0.0088     2.6115
    2.4304     0.0398    -1.1752     0.0089     2.6186
    2.4384     0.0387    -1.1437     0.0090     2.6258
    2.4464     0.0377    -1.1132     0.0091     2.6331
    2.4545     0.0367    -1.0834     0.0093     2.6405
    2.4625     0.0357    -1.0545     0.0094     2.6479
    2.4705     0.0348    -1.0263     0.0095     2.6555
    2.4785     0.0339    -0.9988     0.0096     2.6632
    2.4865     0.0330    -0.9720     0.0098     2.6709
    2.4945     0.0322    -0.9459     0.0099     2.6788
   2.50250    0.03145   -0.92039    0.01001    2.68674
   2.51051    0.03069   -0.89552    0.01015    2.69481
   2.51852    0.02996   -0.87124    0.01028    2.70299
   2.52653    0.02926   -0.84754    0.01042    2.71128
   2.53453    0.02859   -0.82439    0.01057    2.71969
   2.54254    0.02794   -0.80177    0.01071    2.72820
   2.55055    0.02731   -0.77966    0.01086    2.73684
   2.55856    0.02670   -0.75804    0.01101    2.74559
   2.56657    0.02612   -0.73690    0.01116    2.75447
   2.57457    0.02555   -0.71622    0.01132    2.76347
   2.58258    0.02500   -0.69599    0.01148    2.77259
   2.59059    0.02447   -0.67619    0.01164    2.78185
   2.59860    0.02396   -0.65680    0.01181    2.79124
   2.60661    0.02347   -0.63782    0.01198    2.80076
   2.61461    0.02299   -0.61922    0.01216    2.81043
   2.62262    0.02252   -0.60101    0.01233    2.82023
   2.63063    0.02207   -0.58316    0.01252    2.83018
   2.63864    0.02163   -0.56567    0.01270    2.84027
   2.64665    0.02121   -0.54852    0.01289    2.85052
   2.65465    0.02080   -0.53171    0.01309    2.86092
   2.66266    0.02040   -0.51522    0.01328    2.87147
   2.67067    0.02001   -0.49905    0.01349    2.88219
   2.67868    0.01963   -0.48318    0.01370    2.89307
   2.68669    0.01927   -0.46760    0.01391    2.90412
   2.69469    0.01891   -0.45232    0.01413    2.91535
   2.70270    0.01857   -0.43732    0.01435    2.92675
   2.71071    0.01823   -0.42259    0.01458    2.93833
   2.71872    0.01790   -0.40813    0.01481    2.95010
   2.72673    0.01759   -0.39392    0.01505    2.96205
   2.73473    0.01728   -0.37997    0.01530    2.97420
   2.74274    0.01697   -0.36625    0.01555    2.98655
   2.75075    0.01668   -0.35278    0.01581    2.99910
   2.75876    0.01639   -0.33954    0.01607    3.01187
   2.76677    0.01612   -0.32653    0.01635    3.02485
   2.77477    0.01584   -0.31374    0.01662    3.03804
   2.78278    0.01558   -0.30116    0.01691    3.05147
   2.79079    0.01532   -0.28879    0.01720    3.06512
   2.79880    0.01507   -0.27662    0.01751    3.07902
   2.80681    0.01482   -0.26465    0.01782    3.09316
   2.81481    0.01458   -0.25288    0.01813    3.10755
   2.82282    0.01435   -0.24130    0.01846    3.12220
   2.83083    0.01412   -0.22990    0.01880    3.13711
   2.83884    0.01390   -0.21868    0.01914    3.15230
   2.84685    0.01368   -0.20764    0.01950    3.16776
   2.85485    0.01347   -0.19677    0.01986    3.18352
   2.86286    0.01326   -0.18607    0.02024    3.19957
   2.87087    0.01306   -0.17554    0.02063    3.21593
   2.87888    0.01286   -0.16516    0.02103    3.23261
   2.88689    0.01267   -0.15494    0.02144    3.24960
   2.89490    0.01248   -0.14488    0.02186    3.26694
   2.90290    0.01229   -0.13496    0.02230    3.28461
   2.91091    0.01211   -0.12519    0.02275    3.30265
   2.91892    0.01193   -0.11557    0.02322    3.32105
   2.92693    0.01176   -0.10609    0.02370    3.33983
   2.93493    0.01159   -0.09674    0.02420    3.35900
   2.94294    0.01142   -0.08753    0.02471    3.37857
   2.95095    0.01126   -0.07845    0.02524    3.39856
   2.95896    0.01110   -0.06950    0.02579    3.41898
   2.96697    0.01094   -0.06067    0.02636    3.43985
   2.97497    0.01079   -0.05197    0.02694    3.46118
   2.98298    0.01064   -0.04339    0.02755    3.48299
   2.99099    0.01050   -0.03493    0.02818    3.50530
   2.99900    0.01035   -0.02658    0.02883    3.52811
   3.00701    0.01021   -0.01835    0.02951    3.55146
   3.01501    0.01007   -0.01023    0.03021    3.57537
  3.023     0.9938E-2  -.2216E-2  0.3095E-1   3.600   
    3.0310     0.0098     0.0057     0.0317     3.6249
    3.0390     0.0097     0.0135     0.0325     3.6506
    3.0470     0.0095     0.0212     0.0333     3.6769
    3.0551     0.0094     0.0288     0.0342     3.7039
    3.0631     0.0093     0.0363     0.0351     3.7316
    3.0711     0.0092     0.0437     0.0360     3.7601
    3.0791     0.0091     0.0510     0.0370     3.7892
    3.0871     0.0089     0.0582     0.0380     3.8192
    3.0951     0.0088     0.0653     0.0390     3.8500
    3.1031     0.0087     0.0723     0.0401     3.8817
    3.1111     0.0086     0.0793     0.0413     3.9142
    3.1191     0.0085     0.0861     0.0425     3.9477
    3.1271     0.0084     0.0929     0.0437     3.9822
    3.1351     0.0083     0.0996     0.0451     4.0178
    3.1431     0.0082     0.1062     0.0465     4.0544
    3.1512     0.0081     0.1127     0.0479     4.0922
    3.1592     0.0080     0.1191     0.0495     4.1311
    3.1672     0.0079     0.1255     0.0511     4.1714
    3.1752     0.0078     0.1318     0.0528     4.2130
    3.1832     0.0077     0.1380     0.0546     4.2559
    3.1912     0.0076     0.1441     0.0566     4.3004
    3.1992     0.0075     0.1502     0.0586     4.3465
    3.2072     0.0074     0.1562     0.0607     4.3942
    3.2152     0.0074     0.1621     0.0630     4.4436
    3.2232     0.0073     0.1680     0.0654     4.4950
    3.2312     0.0072     0.1738     0.0680     4.5484
    3.2392     0.0071     0.1795     0.0708     4.6039
    3.2472     0.0070     0.1851     0.0737     4.6616
    3.2553     0.0069     0.1907     0.0769     4.7218
    3.2633     0.0069     0.1962     0.0803     4.7846
    3.2713     0.0068     0.2017     0.0839     4.8503
    3.2793     0.0067     0.2071     0.0878     4.9189
    3.2873     0.0066     0.2124     0.0921     4.9907
    3.2953     0.0066     0.2177     0.0966     5.0661
    3.3033     0.0065     0.2230     0.1016     5.1453
    3.3113     0.0064     0.2281     0.1070     5.2286
    3.3193     0.0063     0.2332     0.1129     5.3164
    3.3273     0.0063     0.2383     0.1194     5.4091
    3.3353     0.0062     0.2433     0.1265     5.5072
    3.3433     0.0061     0.2482     0.1343     5.6112
    3.3514     0.0061     0.2531     0.1430     5.7218
    3.3594     0.0060     0.2580     0.1526     5.8397
  3.367     0.5948E-2  0.2628     0.1634      5.966   
  3.375     0.5885E-2  0.2675     0.1755      6.101   
  3.383     0.5823E-2  0.2722     0.1892      6.246   
  3.391     0.5763E-2  0.2768     0.2047      6.402   
  3.399     0.5702E-2  0.2814     0.2224      6.572   
  3.407     0.5643E-2  0.2859     0.2429      6.757   
  3.415     0.5585E-2  0.2904     0.2667      6.959   
  3.423     0.5528E-2  0.2949     0.2945      7.182   
  3.431     0.5471E-2  0.2993     0.3276      7.428   
  3.439     0.5415E-2  0.3037     0.3671      7.703   
  3.447     0.5360E-2  0.3080     0.4152      8.011   
  3.455     0.5306E-2  0.3122     0.4744      8.361   
  3.463     0.5253E-2  0.3165     0.5489      8.762   
  3.471     0.5200E-2  0.3207     0.6442      9.228   
  3.479     0.5148E-2  0.3248     0.7695      9.776   
  3.487     0.5097E-2  0.3289     0.9391      10.43   
  3.495     0.5047E-2  0.3330      1.177      11.24   
  3.504     0.4997E-2  0.3370      1.527      12.25   
  3.512     0.4948E-2  0.3410      2.072      13.56   
  3.520     0.4900E-2  0.3449      2.988      15.31   
  3.528     0.4852E-2  0.3488      4.695      17.75   
  3.536     0.4805E-2  0.3527      8.336      21.12   
  3.544     0.4759E-2  0.3565      17.25      24.34   
  3.552     0.4713E-2  0.3603      34.17      15.51   
  3.560     0.4668E-2  0.3641      28.56     -8.221   
  3.568     0.4624E-2  0.3678      13.51     -10.16   
  3.576     0.4580E-2  0.3715      7.135     -6.260   
  3.584     0.4537E-2  0.3751      4.571     -2.863   
    3.5916     0.0045     0.3787     3.5042    -0.1610
    3.5996     0.0045     0.3823     3.2171     2.1946
  3.608     0.4411E-2  0.3859      3.592      4.527   
  3.616     0.4370E-2  0.3894      4.994      7.120   
  3.624     0.4329E-2  0.3929      8.826      9.859   
  3.632     0.4289E-2  0.3963      17.88      8.572   
  3.640     0.4250E-2  0.3997      20.08     -5.393   
  3.648     0.4211E-2  0.4031      10.09     -9.543   
  3.656     0.4173E-2  0.4065      5.062     -7.305   
  3.664     0.4135E-2  0.4098      2.989     -5.108   
    3.6717     0.0041     0.4131     2.0037    -3.4697
    3.6797     0.0041     0.4164     1.4705    -2.2340
    3.6877     0.0040     0.4196     1.1530    -1.2611
    3.6957     0.0040     0.4228     0.9511    -0.4619
    3.7037     0.0040     0.4260     0.8172     0.2198
    3.7117     0.0039     0.4291     0.7267     0.8207
    3.7197     0.0039     0.4323     0.6657     1.3660
    3.7277     0.0038     0.4354     0.6265     1.8741
    3.7357     0.0038     0.4384     0.6044     2.3594
    3.7437     0.0038     0.4415     0.5970     2.8335
  3.752     0.3749E-2  0.4445     0.6032      3.307   
  3.760     0.3717E-2  0.4475     0.6235      3.792   
  3.768     0.3684E-2  0.4504     0.6594      4.297   
  3.776     0.3653E-2  0.4534     0.7140      4.837   
  3.784     0.3621E-2  0.4563     0.7927      5.426   
  3.792     0.3590E-2  0.4592     0.9043      6.087   
  3.800     0.3560E-2  0.4620      1.063      6.846   
  3.808     0.3530E-2  0.4649      1.295      7.745   
  3.816     0.3500E-2  0.4677      1.643      8.846   
  3.824     0.3470E-2  0.4705      2.197      10.24   
  3.832     0.3441E-2  0.4732      3.141      12.10   
  3.840     0.3412E-2  0.4760      4.918      14.65   
  3.848     0.3384E-2  0.4787      8.734      18.16   
  3.856     0.3356E-2  0.4814      18.11      21.49   
  3.864     0.3328E-2  0.4841      35.95      12.05   
  3.872     0.3300E-2  0.4867      29.95     -13.18   
  3.880     0.3273E-2  0.4894      13.95     -15.44   
  3.888     0.3247E-2  0.4920      7.096     -11.60   
  3.896     0.3220E-2  0.4946      4.205     -8.403   
  3.904     0.3194E-2  0.4971      2.797     -6.094   
  3.912     0.3168E-2  0.4997      2.025     -4.384   
  3.920     0.3142E-2  0.5022      1.564     -3.060   
  3.928     0.3117E-2  0.5047      1.272     -1.988   
  3.936     0.3092E-2  0.5072      1.081     -1.084   
  3.944     0.3067E-2  0.5097     0.9533     -.2951   
  3.952     0.3043E-2  0.5121     0.8692     0.4167   
  3.960     0.3018E-2  0.5145     0.8168      1.078   
  3.968     0.2995E-2  0.5169     0.7893      1.710   
  3.976     0.2971E-2  0.5193     0.7829      2.330   
  3.984     0.2947E-2  0.5217     0.7963      2.953   
  3.992     0.2924E-2  0.5241     0.8298      3.594   
  4.000     0.2901E-2  0.5264     0.8857      4.269   
# 
# 02/16/2017 at 17:16 YAMBO_PL @ aiken [start]
# 02/16/2017 at 17:17                  [end]
#  
# Timing   [Min/Max/Average]: 33s/33s/33s
#
# .-Input file : INPUTS/04_bse_pl_causal_111
# | optics                       # [R OPT] Optics
# | bse                          # [R BSE] Bethe Salpeter Equation.
# | bsk                          # [R BSK] Bethe Salpeter Equation kernel
# | bss                          # [R BSS] Bethe Salpeter Equation solver
# | em1s                         # [R Xs] Static Inverse Dielectric Matrix
# | rim_cut                      # [R RIM CUT] Coulomb potential
# | photolum                     # [R] Photo-Luminescence
# | BoseTemp= 0.000000     eV    # Bosonic Temperature
# | DBsIOoff= "DIP"              # [IO] Space-separated list of DB with NO I/O. DB=(DIP,X,HF,COLLs,J,GF,CARRIERs,W,SC,BS,ALL)
# | FFTGvecs= 10           Ha    # [FFT] Plane-waves
# | RandQpts= 1000000            # [RIM] Number of random q-points in the BZ
# | RandGvec= 1            RL    # [RIM] Coulomb interaction RS components
# | CUTGeo= "box z"              # [CUT] Coulomb Cutoff geometry: box/cylinder/sphere X/Y/Z/XY..
# | % CUTBox
# |   0.00000 |  0.00000 | 38.00000 |        # [CUT] [au] Box sides
# | %
# | CUTRadius= 0.000000          # [CUT] [au] Sphere/Cylinder radius
# | CUTCylLen= 0.000000          # [CUT] [au] Cylinder length
# | Chimod= "hartree"            # [X] IP/Hartree/ALDA/LRC/BSfxc
# | BSEmod= "retarded"           # [BSE] resonant/retarded/coupling
# | BSKmod= "SEX"                # [BSE] IP/Hartree/HF/ALDA/SEX/BSfxc
# | BSSmod= "d"                  # [BSS] (h)aydock/(d)iagonalization/(i)nversion/(t)ddft`
# | BSENGexx= 10           Ha    # [BSK] Exchange components
# | BSENGBlk= 1010         mHa   # [BSK] Screened interaction block size
# | #WehCpl                      # [BSK] eh interaction included also in coupling
# | % PL_weights
# |  1.000000 | 1.000000 | 1.000000 |        # [PL] [cc] Weights of the carthesian components of the emitted radiation
# | %
# | % KfnQP_E
# |  1.038620 | 1.000000 | 1.000000 |        # [EXTQP BSK BSS] E parameters  (c/v) eV|adim|adim
# | %
# | KfnRTdb= "f @ 0 fs < ./03_ypp_carriers/ndb.RT_carriers" # [EXTRT BSK BSS] Database
# | RfnRTdb= "f @ 0 fs < ./03_ypp_carriers/ndb.RT_carriers" # [EXTRT R] Database
# | % BEnRange
# | -4.000000 | 4.000000 | eV    # [BSS] Energy range
# | %
# | % BDmRange
# |    0.0100 |   0.0100 | eV    # [BSS] Damping range
# | %
# | BEnSteps= 1000               # [BSS] Energy steps
# | % BLongDir
# | 0.1000E-4 | 0.000    | 0.000    |        # [BSS] [cc] Electric Field
# | %
# | % BSEBands
# |  25 | 28 |                   # [BSK] Bands range
# | %
# | % BndsRnXs
# |    1 |  60 |                 # [Xs] Polarization function bands
# | %
# | NGsBlkXs= 1010         mHa   # [Xs] Response block size
# | GrFnTpXs= "R"                # [Xs] Green`s function (T)ordered,(R)etarded,(r)senant,(a)ntiresonant [T, R, r, Ta, Ra]
# | % DmRngeXs
# |   0.10000 |  0.10000 | eV    # [Xs] Damping range
# | %
# | % LongDrXs
# | 0.1000E-4 | 0.000    | 0.000    |        # [Xs] [cc] Electric Field
# | %
