#                                                           
# :::   :::   :::     ::::    ::::  :::::::::   ::::::::    
# :+:   :+: :+: :+:   +:+:+: :+:+:+ :+:    :+: :+:    :+:   
#  +:+ +:+ +:+   +:+  +:+ +:+:+ +:+ +:+    +:+ +:+    +:+   
#   +#++: +#++:++#++: +#+  +:+  +#+ +#++:++#+  +#+    +:+   
#    +#+  +#+     +#+ +#+       +#+ +#+    +#+ +#+    +#+   
#    #+#  #+#     #+# #+#       #+# #+#    #+# #+#    #+#   
#    ###  ###     ### ###       ### #########   ########    
#                                                           
#                                                           
#        Version 4.1.2 Revision 14030 Hash 116e4f9          
#                        MPI Build                          
#                http://www.yambo-code.org                  
#
# Joint density of states @ Q(1) [q->0 direction] :0.1000E-4  0.000     0.000   
#
# - Energies      are Slater exchange(X)+Perdew & Zunger(C)+Scissor
# - The Green`s function is Retarded -
#
#   BSK|Identifier              :4586
#      |Dimension               :144
#      |Bands                   :25 - 28
#      |Exchange           [res]: yes
#      |Correlation        [res]: yes
#      |Kernel`s coupling       : no
#      |Exchange           [cpl]: no
#      |Correlation        [cpl]: no
#      |W interaction is bare   : no
#      |ALDA kernel in R-space  : no
#      |RL vectors    [exchange]:2055
#      |RL vectors [correlation]:85
#      |E/h energy range    [ev]:-1.000000 - -1.000000
#      |Coupling range     [o/o]: 100.0000 -  100.0000
#    W |Interaction is diagonal : no
#      |Matrix size             :85
#      |Bands                   :1 - 60
#      |e/h energy range    [ev]:-1.000000 - -1.000000
#      |Poles              [o/o]: 100.0000
#      |RL vectors in the sum   :2055
#      |[r,Vnl] included        : yes
#      |Field direction         :0.1000E-4  0.000000  0.000000
#      |Coulomb Cutoff          :box z
#      |xc-Kernel               :none
#   RIM|RL components      [col]:1
#      |Random points      [col]:1000000
#
#  E/ev[1]    PL[2]      PLo[3]
#  E/ev[1]    jdos-Im[2] jdos-Re[3] jdoso-Im[4]jdoso-Re[5]jdos`-Im[6]jdos`-Re[7]
  -4.00000    0.35817   90.08572
  -3.99199    0.36075   83.94388
  -3.98398    0.36336   80.09997
  -3.97598    0.36599   78.31582
  -3.96797    0.36865   78.56030
  -3.95996    0.37135   81.03150
  -3.95195    0.37407   86.27457
  -3.94394    0.37683   95.54800
   -3.9359     0.3796   111.4224
   -3.9279     0.3824   131.6510
   -3.9199     0.3853   153.4906
   -3.9119     0.3882   193.1688
   -3.9039     0.3911   263.5469
   -3.8959     0.3940   393.6550
 -3.888     0.3970      661.7   
 -3.880     0.4000      1298.   
 -3.872     0.4031      2781.   
 -3.864     0.4061      3340.   
 -3.856     0.4093      1691.   
 -3.848     0.4124      833.5   
 -3.840     0.4156      500.8   
   -3.8318     0.4188   326.1966
   -3.8238     0.4221   220.1765
   -3.8158     0.4254   161.1623
   -3.8078     0.4288   125.7881
   -3.7998     0.4322   103.4109
  -3.79179    0.43559   89.57443
  -3.78378    0.43906   83.46453
  -3.77578    0.44257   82.25673
  -3.76777    0.44613   70.92216
  -3.75976    0.44973   61.56673
  -3.75175    0.45337   56.95449
  -3.74374    0.45706   54.87598
  -3.73574    0.46079   54.50084
  -3.72773    0.46457   55.61517
  -3.71972    0.46840   58.29688
  -3.71171    0.47228   62.85878
  -3.70370    0.47621   69.91451
  -3.69570    0.48018   80.56588
  -3.68769    0.48421   96.82639
   -3.6797     0.4883   122.5894
   -3.6717     0.4924   166.0483
   -3.6637     0.4966   246.5435
   -3.6557     0.5008   416.3531
 -3.648     0.5051      828.3   
 -3.640     0.5095      1647.   
 -3.632     0.5139      1467.   
 -3.624     0.5183      723.5   
   -3.6156     0.5229   408.5525
   -3.6076     0.5275   292.5859
   -3.5996     0.5321   260.4345
   -3.5916     0.5368   281.7267
   -3.5836     0.5416   365.1627
 -3.576     0.5464      567.4   
 -3.568     0.5513      1071.   
 -3.560     0.5563      2260.   
 -3.552     0.5613      2704.   
 -3.544     0.5664      1366.   
 -3.536     0.5716      661.0   
   -3.5275     0.5769   372.9697
   -3.5195     0.5822   237.8947
   -3.5115     0.5876   165.3620
   -3.5035     0.5931   122.2028
  -3.49550    0.59864   94.47456
  -3.48749    0.60428   75.58868
  -3.47948    0.61000   62.12284
  -3.47147    0.61580   52.16296
  -3.46346    0.62168   44.57381
  -3.45546    0.62766   38.64539
  -3.44745    0.63372   33.91726
  -3.43944    0.63987   30.07829
  -3.43143    0.64611   26.91351
  -3.42342    0.65244   24.26935
  -3.41542    0.65887   22.03406
  -3.40741    0.66540   20.12499
  -3.39940    0.67203   18.47924
  -3.39139    0.67875   17.04888
  -3.38338    0.68559   15.79645
  -3.37538    0.69252   14.69241
  -3.36737    0.69957   13.71321
  -3.35936    0.70672   12.83991
  -3.35135    0.71399   12.05710
  -3.34334    0.72137   11.35208
  -3.33534    0.72887   10.71439
  -3.32733    0.73649   10.13527
 -3.319319   0.744232   9.607449
 -3.311311   0.752100   9.124681
 -3.303303   0.760095   8.681731
 -3.295295   0.768221   8.274080
 -3.287287   0.776481   7.897870
 -3.279279   0.784877   7.549771
 -3.271271   0.793414   7.226902
 -3.263263   0.802093   6.926726
 -3.255255   0.810919   6.647036
 -3.247247   0.819894   6.385909
 -3.239239   0.829023   6.141662
 -3.231231   0.838308   5.912731
 -3.223223   0.847754   5.697821
 -3.215215   0.857364   5.495735
 -3.207207   0.867142   5.305398
 -3.199199   0.877092   5.125875
 -3.191191   0.887218   4.956300
 -3.183183   0.897525   4.795912
 -3.175175   0.908018   4.644012
 -3.167167   0.918699   4.499981
 -3.159159   0.929575   4.363251
 -3.151151   0.940650   4.233300
 -3.143143   0.951929   4.109669
 -3.135135   0.963417   3.991921
 -3.127127   0.975120   3.879679
 -3.119119   0.987042   3.772571
 -3.111111   0.999191   3.670285
 -3.103103   1.011571   3.572512
 -3.095095   1.024189   3.478989
 -3.087087   1.037051   3.389461
 -3.079079   1.050163   3.303711
 -3.071071   1.063532   3.221546
 -3.063063   1.077166   3.142801
 -3.055055   1.091070   3.067391
 -3.047047   1.105254   2.995331
 -3.039039   1.119724   2.927000
 -3.031031   1.134488   2.863771
 -3.023023   1.149554   2.808943
 -3.015015   1.164932   2.751531
 -3.007007   1.180629   2.679469
 -2.998999   1.196657   2.614737
 -2.990991   1.213022   2.555911
 -2.982983   1.229736   2.500440
 -2.974975   1.246809   2.447394
 -2.966967   1.264252   2.396367
 -2.958959   1.282074   2.347154
 -2.950951   1.300289   2.299618
 -2.942943   1.318907   2.253655
 -2.934935   1.337942   2.209178
 -2.926927   1.357406   2.166115
 -2.918919   1.377312   2.124397
 -2.910911   1.397675   2.083965
 -2.902903   1.418509   2.044760
 -2.894895   1.439828   2.006729
 -2.886887   1.461649   1.969822
 -2.878879   1.483989   1.933994
 -2.870871   1.506863   1.899198
 -2.862863   1.530291   1.865394
 -2.854855   1.554289   1.832545
 -2.846847   1.578879   1.800605
 -2.838839   1.604080   1.769550
 -2.830831   1.629912   1.739337
 -2.822823   1.656401   1.709940
 -2.814815   1.683565   1.681326
 -2.806807   1.711431   1.653467
 -2.798799   1.740023   1.626333
 -2.790791   1.769368   1.599900
 -2.782783   1.799495   1.574144
 -2.774775   1.830430   1.549037
 -2.766767   1.862206   1.524559
 -2.758759   1.894854   1.500688
 -2.750751   1.928406   1.477406
 -2.742743   1.962901   1.454684
 -2.734735   1.998371   1.432515
 -2.726727   2.034858   1.410871
 -2.718719   2.072402   1.389741
 -2.710711   2.111045   1.369108
 -2.702703   2.150834   1.348949
 -2.694695   2.191815   1.329257
 -2.686687   2.234039   1.310010
 -2.678679   2.277559   1.291201
 -2.670671   2.322429   1.272813
 -2.662663   2.368711   1.254832
 -2.654655   2.416467   1.237247
 -2.646647   2.465760   1.220046
 -2.638638   2.516666   1.203217
 -2.630631   2.569252   1.186750
 -2.622623   2.623602   1.170632
 -2.614615   2.679797   1.154855
 -2.606607   2.737925   1.139408
 -2.598598   2.798085   1.124283
 -2.590591   2.860372   1.109468
 -2.582583   2.924894   1.094957
 -2.574575   2.991766   1.080740
 -2.566567   3.061110   1.066810
 -2.558558   3.133056   1.053157
 -2.550551   3.207741   1.039776
 -2.542543   3.285316   1.026657
 -2.534534   3.365940   1.013795
 -2.526527   3.449781   1.001182
 -2.518518   3.537030   0.988811
 -2.510511   3.627876   0.976678
 -2.502502   3.722538   0.964775
 -2.494494   3.821244   0.953094
 -2.486487   3.924239   0.941633
 -2.478479   4.031799   0.930385
 -2.470470   4.144207   0.919344
 -2.462462   4.261784   0.908505
 -2.454454   4.384869   0.897863
 -2.446447   4.513831   0.887414
 -2.438439   4.649087   0.877151
 -2.430430   4.791076   0.867072
 -2.422423   4.940280   0.857173
 -2.414414   5.097245   0.847444
 -2.406407   5.262538   0.837889
 -2.398398   5.436821   0.828497
 -2.390390   5.620800   0.819269
 -2.382383   5.815260   0.810197
 -2.374374   6.021089   0.801280
 -2.366366   6.239239   0.792515
 -2.358358   6.470811   0.783898
 -2.350350   6.717015   0.775424
 -2.342343   6.979203   0.767090
 -2.334334   7.258931   0.758894
 -2.326326   7.557901   0.750833
 -2.318318   7.878097   0.742903
 -2.310310   8.221743   0.735101
 -2.302302   8.591384   0.727426
 -2.294294   8.989967   0.719873
 -2.286286   9.420858   0.712440
 -2.278278   9.887969   0.705125
  -2.27027   10.39585    0.69792
  -2.26226   10.94982    0.69084
  -2.25425   11.55620    0.68386
  -2.24625   12.22240    0.67699
  -2.23824   12.95734    0.67023
  -2.23023   13.77169    0.66357
  -2.22222   14.67840    0.65701
  -2.21421   15.69338    0.65055
  -2.20621   16.83616    0.64419
  -2.19820   18.13117    0.63792
  -2.19019   19.60919    0.63175
  -2.18218   21.30963    0.62567
  -2.17417   23.28345    0.61967
  -2.16617   25.59767    0.61377
  -2.15816   28.34199    0.60795
  -2.15015   31.63861    0.60221
  -2.14214   35.65816    0.59656
  -2.13413   40.64410    0.59099
  -2.12613   46.95450    0.58550
  -2.11812   55.13383    0.58008
  -2.11011   66.04303    0.57475
  -2.10210   81.11156    0.56948
   -2.0941   102.8527     0.5643
   -2.0861   136.0242     0.5592
   -2.0781   190.5101     0.5541
   -2.0701   289.4017     0.5492
   -2.0621   493.0158     0.5442
 -2.054      927.4     0.5394   
 -2.046      1736.     0.5346   
 -2.038      2562.     0.5299   
 -2.030      1610.     0.5253   
 -2.022      789.1     0.5207   
   -2.0140   429.6180     0.5162
   -2.0060   271.5533     0.5117
   -1.9980   193.4044     0.5073
   -1.9900   151.1053     0.5029
   -1.9820   127.3170     0.4986
   -1.9740   114.4383     0.4944
   -1.9660   108.9880     0.4902
   -1.9580   109.6338     0.4861
   -1.9500   116.7193     0.4820
   -1.9419   131.7399     0.4780
   -1.9339   156.4743     0.4740
   -1.9259   200.2421     0.4701
   -1.9179   236.6922     0.4662
   -1.9099   280.2446     0.4624
   -1.9019   384.7827     0.4586
 -1.894      610.9     0.4549   
 -1.886      1142.     0.4512   
 -1.878      2233.     0.4476   
 -1.870      2467.     0.4440   
 -1.862      1970.     0.4405   
 -1.854      1737.     0.4369   
 -1.846      1586.     0.4335   
 -1.838      1375.     0.4301   
 -1.830      1700.     0.4267   
 -1.822      1899.     0.4233   
 -1.814      1892.     0.4200   
 -1.806      1255.     0.4168   
 -1.798      879.7     0.4136   
 -1.790      995.2     0.4104   
 -1.782      965.4     0.4072   
 -1.774      557.1     0.4041   
   -1.7658   368.9017     0.4010
   -1.7578   335.6701     0.3980
 -1.750      437.9     0.3950   
 -1.742      500.7     0.3920   
   -1.7337   303.8674     0.3891
   -1.7257   188.4542     0.3862
   -1.7177   139.2450     0.3833
   -1.7097   116.0821     0.3805
   -1.7017   105.0045     0.3777
   -1.6937   101.1181     0.3749
   -1.6857   102.9101     0.3721
   -1.6777   110.7669     0.3694
   -1.6697   127.2155     0.3667
   -1.6617   156.4624     0.3641
   -1.6537   198.1221     0.3615
   -1.6456   277.9859     0.3589
 -1.638      460.4     0.3563   
 -1.630      890.1     0.3538   
 -1.622      1313.     0.3513   
 -1.614      1229.     0.3488   
 -1.606      1377.     0.3463   
 -1.598      899.9     0.3439   
 -1.590      577.4     0.3415   
 -1.582      551.9     0.3391   
 -1.574      772.0     0.3367   
 -1.566      1276.     0.3344   
 -1.558      1252.     0.3321   
 -1.550      1053.     0.3298   
 -1.542      1344.     0.3276   
 -1.534      991.5     0.3253   
 -1.526      503.9     0.3231   
   -1.5175   290.0791     0.3209
   -1.5095   193.9473     0.3187
   -1.5015   145.1884     0.3166
   -1.4935   119.8434     0.3145
   -1.4855   109.6615     0.3124
  -1.47748   98.03914    0.31030
  -1.46947   84.22639    0.30824
  -1.46146   77.11803    0.30620
  -1.45345   74.74146    0.30418
  -1.44545   75.91520    0.30218
  -1.43744   80.59801    0.30021
  -1.42943   89.85725    0.29825
   -1.4214   106.3112     0.2963
   -1.4134   129.8940     0.2944
   -1.4054   161.7143     0.2925
   -1.3974   223.4188     0.2906
 -1.389      347.5     0.2887   
 -1.381      624.3     0.2869   
 -1.373      1283.     0.2851   
 -1.365      1835.     0.2833   
 -1.357      1198.     0.2815   
 -1.349      683.1     0.2797   
 -1.341      576.0     0.2779   
 -1.333      783.7     0.2762   
 -1.325      1026.     0.2745   
 -1.317      709.1     0.2727   
 -1.309      572.0     0.2710   
 -1.301      767.3     0.2694   
 -1.293      1112.     0.2677   
 -1.285      736.1     0.2661   
 -1.277      435.4     0.2644   
 -1.269      366.3     0.2628   
   -1.2613   260.3602     0.2612
   -1.2533   164.9949     0.2596
   -1.2452   123.1549     0.2581
   -1.2372   108.0461     0.2565
   -1.2292   111.6752     0.2550
   -1.2212   140.3391     0.2534
   -1.2132   226.0744     0.2519
 -1.205      433.3     0.2504   
 -1.197      479.0     0.2489   
 -1.189      247.6     0.2474   
   -1.1812   132.1273     0.2460
  -1.17317   82.87202    0.24453
  -1.16517   57.70111    0.24309
  -1.15716   43.71001    0.24167
  -1.14915   35.07693    0.24026
  -1.14114   29.27756    0.23886
  -1.13313   25.12821    0.23748
  -1.12513   22.01476    0.23610
  -1.11712   19.59087    0.23474
  -1.10911   17.64809    0.23339
  -1.10110   16.05395    0.23205
  -1.09309   14.72065    0.23073
  -1.08509   13.58772    0.22941
  -1.07708   12.61216    0.22811
  -1.06907   11.76263    0.22681
  -1.06106   11.01564    0.22553
  -1.05305   10.35331    0.22426
 -1.045045   9.761751   0.223003
 -1.037037   9.230013   0.221753
 -1.029029   8.749327   0.220514
 -1.021021   8.312567   0.219286
 -1.013013   7.913916   0.218068
 -1.005005   7.548555   0.216861
 -0.996997   7.212464   0.215663
 -0.988989   6.902231   0.214475
 -0.980981   6.614989   0.213298
 -0.972973   6.348268   0.212130
 -0.964965   6.099955   0.210971
 -0.956957   5.868219   0.209823
 -0.948949   5.651453   0.208683
 -0.940941   5.448270   0.207553
 -0.932933   5.257446   0.206432
 -0.924925   5.077899   0.205321
 -0.916917   4.908676   0.204218
 -0.908909   4.748917   0.203124
 -0.900901   4.597871   0.202039
 -0.892893   4.454849   0.200963
 -0.884885   4.319251   0.199896
 -0.876877   4.190517   0.198837
 -0.868869   4.068156   0.197786
 -0.860861   3.951718   0.196744
 -0.852853   3.840792   0.195710
 -0.844845   3.735012   0.194685
 -0.836837   3.634034   0.193667
 -0.828829   3.537554   0.192658
 -0.820821   3.445281   0.191656
 -0.812813   3.356969   0.190662
 -0.804805   3.272369   0.189676
 -0.796797   3.191269   0.188698
 -0.788789   3.113471   0.187727
 -0.780781   3.038792   0.186764
 -0.772773   2.967074   0.185808
 -0.764765   2.898170   0.184860
 -0.756757   2.831962   0.183919
 -0.748749   2.768371   0.182986
 -0.740741   2.707376   0.182059
 -0.732733   2.649100   0.181139
 -0.724725   2.594007   0.180227
 -0.716717   2.543608   0.179321
 -0.708709   2.502427   0.178422
 -0.700701   2.471385   0.177530
 -0.692693   2.410001   0.176645
 -0.684685   2.344253   0.175767
 -0.676677   2.290291   0.174895
 -0.668669   2.241967   0.174029
 -0.660661   2.196643   0.173170
 -0.652653   2.153366   0.172318
 -0.644645   2.111733   0.171472
 -0.636637   2.071533   0.170632
 -0.628629   2.032640   0.169798
 -0.620621   1.994962   0.168971
 -0.612613   1.958426   0.168149
 -0.604605   1.922974   0.167334
 -0.596597   1.888556   0.166525
 -0.588589   1.855126   0.165722
 -0.580581   1.822639   0.164924
 -0.572573   1.791059   0.164133
 -0.564565   1.760347   0.163348
 -0.556557   1.730469   0.162568
 -0.548549   1.701396   0.161795
 -0.540541   1.673092   0.161027
 -0.532533   1.645533   0.160266
 -0.524525   1.618690   0.159512
 -0.516517   1.592535   0.158764
 -0.508509   1.567046   0.158024
 -0.500500   1.542198   0.157294
 -0.492493   1.517970   0.156578
 -0.484485   1.494339   0.155884
 -0.476477   1.471283   0.155238
 -0.468469   1.448787   0.154711
 -0.460460   1.426828   0.154414
 -0.452453   1.405391   0.153695
 -0.444445   1.384457   0.152571
 -0.436436   1.364011   0.151677
 -0.428429   1.344036   0.150900
 -0.420421   1.324518   0.150170
 -0.412413   1.305442   0.149462
 -0.404405   1.286794   0.148767
 -0.396396   1.268561   0.148081
 -0.388389   1.250732   0.147403
 -0.380381   1.233292   0.146731
 -0.372372   1.216230   0.146064
 -0.364365   1.199535   0.145402
 -0.356356   1.183196   0.144745
 -0.348348   1.167203   0.144094
 -0.340341   1.151546   0.143446
 -0.332332   1.136215   0.142804
 -0.324325   1.121200   0.142165
 -0.316316   1.106493   0.141532
 -0.308308   1.092085   0.140902
 -0.300301   1.077968   0.140277
 -0.292292   1.064133   0.139656
 -0.284285   1.050574   0.139039
 -0.276276   1.037281   0.138427
 -0.268268   1.024249   0.137818
 -0.260261   1.011469   0.137214
 -0.252252   0.998936   0.136614
 -0.244244   0.986643   0.136017
 -0.236236   0.974584   0.135425
 -0.228228   0.962753   0.134836
 -0.220220   0.951142   0.134251
 -0.212212   0.939748   0.133670
 -0.204204   0.928564   0.133093
 -0.196197   0.917586   0.132520
 -0.188188   0.906807   0.131951
 -0.180180   0.896224   0.131385
 -0.172172   0.885831   0.130822
 -0.164164   0.875623   0.130264
 -0.156156   0.865597   0.129709
 -0.148148   0.855746   0.129158
 -0.140140   0.846069   0.128610
 -0.132132   0.836559   0.128066
 -0.124124   0.827215   0.127525
 -0.116116   0.818030   0.126988
 -0.108108   0.809002   0.126455
 -0.100100   0.800127   0.125925
  -0.09209    0.79140    0.12540
  -0.08408    0.78282    0.12488
  -0.07608    0.77439    0.12436
  -0.06807    0.76609    0.12385
  -0.06006    0.75793    0.12334
  -0.05205    0.74990    0.12284
  -0.04404    0.74200    0.12237
  -0.03604    0.73423    0.12194
  -0.02803    0.72659    0.12158
  -0.02002    0.71907    0.12102
  -0.01201    0.71166    0.12040
   -0.0040     0.7044     0.1199
    0.0040     0.6972     0.1193
   0.01201    0.69014    0.11885
   0.02002    0.68319    0.11836
   0.02803    0.67634    0.11788
   0.03604    0.66960    0.11740
   0.04404    0.66297    0.11692
   0.05205    0.65643    0.11645
   0.06006    0.64999    0.11598
   0.06807    0.64365    0.11551
   0.07608    0.63741    0.11505
   0.08408    0.63125    0.11459
   0.09209    0.62519    0.11413
  0.100100   0.619213   0.113674
  0.108108   0.613326   0.113222
  0.116116   0.607524   0.112773
  0.124124   0.601806   0.112326
  0.132132   0.596170   0.111882
  0.140140   0.590614   0.111441
  0.148148   0.585138   0.111002
  0.156156   0.579739   0.110566
  0.164164   0.574416   0.110132
  0.172172   0.569167   0.109701
  0.180180   0.563992   0.109273
  0.188188   0.558888   0.108847
  0.196196   0.553855   0.108424
  0.204204   0.548890   0.108003
  0.212212   0.543994   0.107584
  0.220220   0.539164   0.107168
  0.228228   0.534399   0.106755
  0.236236   0.529699   0.106344
  0.244244   0.525061   0.105935
  0.252252   0.520485   0.105529
  0.260260   0.515970   0.105125
  0.268268   0.511515   0.104723
  0.276276   0.507118   0.104324
  0.284284   0.502778   0.103926
  0.292292   0.498495   0.103532
  0.300300   0.494267   0.103139
  0.308308   0.490095   0.102749
  0.316316   0.485975   0.102361
  0.324324   0.481908   0.101975
  0.332332   0.477893   0.101591
  0.340340   0.473929   0.101210
  0.348348   0.470015   0.100831
  0.356356   0.466150   0.100453
  0.364364   0.462333   0.100078
   0.37237    0.45856    0.09971
   0.38038    0.45484    0.09933
   0.38839    0.45116    0.09897
   0.39640    0.44753    0.09860
   0.40440    0.44395    0.09823
   0.41241    0.44040    0.09787
   0.42042    0.43690    0.09751
   0.42843    0.43344    0.09715
   0.43644    0.43003    0.09680
   0.44444    0.42665    0.09644
   0.45245    0.42332    0.09609
   0.46046    0.42002    0.09574
   0.46847    0.41676    0.09539
   0.47648    0.41354    0.09504
   0.48448    0.41036    0.09470
   0.49249    0.40722    0.09435
   0.50050    0.40411    0.09401
   0.50851    0.40104    0.09367
   0.51652    0.39800    0.09334
   0.52452    0.39500    0.09300
   0.53253    0.39203    0.09267
   0.54054    0.38910    0.09234
   0.54855    0.38620    0.09201
   0.55656    0.38333    0.09168
   0.56456    0.38050    0.09135
   0.57257    0.37770    0.09103
   0.58058    0.37492    0.09070
   0.58859    0.37218    0.09038
   0.59660    0.36947    0.09006
   0.60460    0.36679    0.08974
   0.61261    0.36414    0.08943
   0.62062    0.36152    0.08911
   0.62863    0.35892    0.08880
   0.63664    0.35636    0.08849
   0.64464    0.35382    0.08818
   0.65265    0.35131    0.08787
   0.66066    0.34883    0.08756
   0.66867    0.34637    0.08726
   0.67668    0.34394    0.08696
   0.68468    0.34153    0.08666
   0.69269    0.33916    0.08636
   0.70070    0.33680    0.08606
   0.70871    0.33447    0.08576
   0.71672    0.33217    0.08547
   0.72472    0.32989    0.08517
   0.73273    0.32763    0.08488
   0.74074    0.32539    0.08459
   0.74875    0.32318    0.08430
   0.75676    0.32099    0.08401
   0.76476    0.31883    0.08373
   0.77277    0.31668    0.08344
   0.78078    0.31456    0.08316
   0.78879    0.31246    0.08288
   0.79680    0.31038    0.08260
   0.80480    0.30832    0.08232
   0.81281    0.30629    0.08204
   0.82082    0.30427    0.08176
   0.82883    0.30227    0.08149
   0.83684    0.30029    0.08122
   0.84484    0.29834    0.08095
   0.85285    0.29640    0.08067
   0.86086    0.29448    0.08041
   0.86887    0.29258    0.08014
   0.87688    0.29070    0.07987
   0.88488    0.28883    0.07961
   0.89289    0.28699    0.07934
   0.90090    0.28516    0.07908
   0.90891    0.28335    0.07882
   0.91692    0.28155    0.07856
   0.92492    0.27978    0.07830
   0.93293    0.27802    0.07805
   0.94094    0.27628    0.07779
   0.94895    0.27455    0.07754
   0.95696    0.27284    0.07728
   0.96496    0.27115    0.07703
   0.97297    0.26947    0.07678
   0.98098    0.26781    0.07653
   0.98899    0.26616    0.07628
   0.99700    0.26453    0.07604
   1.00500    0.26292    0.07579
   1.01301    0.26131    0.07555
   1.02102    0.25973    0.07530
   1.02903    0.25816    0.07506
   1.03704    0.25660    0.07482
   1.04504    0.25506    0.07458
   1.05305    0.25353    0.07434
   1.06106    0.25201    0.07410
   1.06907    0.25051    0.07387
   1.07708    0.24902    0.07363
   1.08508    0.24755    0.07340
   1.09309    0.24608    0.07317
   1.10110    0.24464    0.07293
   1.10911    0.24320    0.07270
   1.11712    0.24178    0.07248
   1.12512    0.24037    0.07225
   1.13313    0.23897    0.07202
   1.14114    0.23758    0.07179
   1.14915    0.23621    0.07157
   1.15716    0.23485    0.07135
   1.16516    0.23350    0.07112
   1.17317    0.23216    0.07090
   1.18118    0.23083    0.07068
   1.18919    0.22952    0.07046
   1.19720    0.22821    0.07024
   1.20520    0.22692    0.07003
   1.21321    0.22564    0.06981
   1.22122    0.22437    0.06959
   1.22923    0.22311    0.06938
   1.23724    0.22186    0.06917
   1.24524    0.22062    0.06896
   1.25325    0.21939    0.06874
   1.26126    0.21817    0.06853
   1.26927    0.21697    0.06833
   1.27728    0.21577    0.06812
   1.28528    0.21458    0.06791
   1.29329    0.21340    0.06770
   1.30130    0.21223    0.06750
   1.30931    0.21108    0.06730
   1.31732    0.20993    0.06709
   1.32533    0.20879    0.06689
   1.33333    0.20766    0.06669
   1.34134    0.20654    0.06649
   1.34935    0.20542    0.06629
   1.35736    0.20432    0.06609
   1.36537    0.20323    0.06589
   1.37337    0.20214    0.06570
   1.38138    0.20107    0.06550
   1.38939    0.20000    0.06531
   1.39740    0.19894    0.06511
   1.40541    0.19789    0.06492
   1.41341    0.19685    0.06473
   1.42142    0.19581    0.06454
   1.42943    0.19479    0.06435
   1.43744    0.19377    0.06416
   1.44545    0.19276    0.06397
   1.45345    0.19176    0.06379
   1.46146    0.19076    0.06360
   1.46947    0.18978    0.06342
   1.47748    0.18880    0.06323
   1.48549    0.18783    0.06305
   1.49349    0.18686    0.06287
   1.50150    0.18591    0.06268
   1.50951    0.18496    0.06250
   1.51752    0.18402    0.06232
   1.52553    0.18309    0.06214
   1.53353    0.18216    0.06197
   1.54154    0.18124    0.06179
   1.54955    0.18033    0.06161
   1.55756    0.17942    0.06144
   1.56557    0.17852    0.06126
   1.57357    0.17763    0.06109
   1.58158    0.17674    0.06092
   1.58959    0.17587    0.06075
   1.59760    0.17499    0.06057
   1.60561    0.17413    0.06040
   1.61361    0.17327    0.06023
   1.62162    0.17242    0.06007
   1.62963    0.17157    0.05990
   1.63764    0.17073    0.05973
   1.64565    0.16990    0.05957
   1.65365    0.16907    0.05940
   1.66166    0.16825    0.05924
   1.66967    0.16743    0.05907
   1.67768    0.16662    0.05891
   1.68569    0.16582    0.05875
   1.69369    0.16502    0.05859
   1.70170    0.16423    0.05843
   1.70971    0.16345    0.05827
   1.71772    0.16267    0.05811
   1.72573    0.16189    0.05796
   1.73373    0.16113    0.05780
   1.74174    0.16037    0.05765
   1.74975    0.15961    0.05749
   1.75776    0.15886    0.05734
   1.76577    0.15812    0.05719
   1.77377    0.15739    0.05704
   1.78178    0.15666    0.05688
   1.78979    0.15594    0.05674
   1.79780    0.15523    0.05659
   1.80581    0.15454    0.05644
   1.81381    0.15387    0.05629
   1.82182    0.15323    0.05615
   1.82983    0.15266    0.05600
   1.83784    0.15223    0.05586
   1.84585    0.15220    0.05572
   1.85385    0.15301    0.05557
   1.86186    0.15271    0.05543
   1.86987    0.15040    0.05529
   1.87788    0.14890    0.05515
   1.88589    0.14789    0.05502
   1.89389    0.14706    0.05488
   1.90190    0.14632    0.05475
   1.90991    0.14561    0.05461
   1.91792    0.14492    0.05448
   1.92593    0.14425    0.05435
   1.93393    0.14359    0.05422
   1.94194    0.14293    0.05409
   1.94995    0.14229    0.05396
   1.95796    0.14165    0.05383
   1.96597    0.14101    0.05371
   1.97397    0.14038    0.05358
   1.98198    0.13976    0.05346
   1.98999    0.13914    0.05334
   1.99800    0.13853    0.05322
   2.00601    0.13791    0.05310
   2.01401    0.13731    0.05299
   2.02202    0.13671    0.05287
   2.03003    0.13611    0.05276
   2.03804    0.13552    0.05265
   2.04605    0.13493    0.05254
   2.05405    0.13434    0.05243
   2.06206    0.13376    0.05233
   2.07007    0.13318    0.05223
   2.07808    0.13261    0.05213
   2.08609    0.13204    0.05203
   2.09409    0.13147    0.05194
   2.10210    0.13091    0.05184
   2.11011    0.13035    0.05176
   2.11812    0.12980    0.05167
   2.12613    0.12925    0.05159
   2.13413    0.12870    0.05151
   2.14214    0.12816    0.05143
   2.15015    0.12762    0.05136
   2.15816    0.12708    0.05130
   2.16617    0.12655    0.05124
   2.17417    0.12602    0.05118
   2.18218    0.12549    0.05113
   2.19019    0.12497    0.05108
   2.19820    0.12446    0.05105
   2.20621    0.12395    0.05102
   2.21421    0.12344    0.05099
   2.22222    0.12294    0.05098
   2.23023    0.12245    0.05097
   2.23824    0.12197    0.05098
   2.24625    0.12151    0.05100
   2.25425    0.12108    0.05103
   2.26226    0.12070    0.05107
   2.27027    0.12045    0.05113
   2.27828    0.12054    0.05121
   2.28629    0.12140    0.05131
   2.29429    0.12140    0.05143
   2.30230    0.11943    0.05158
   2.31031    0.11817    0.05176
   2.31832    0.11738    0.05197
   2.32633    0.11676    0.05222
   2.33433    0.11621    0.05252
   2.34234    0.11570    0.05287
   2.35035    0.11520    0.05328
   2.35836    0.11472    0.05376
   2.36637    0.11425    0.05434
   2.37437    0.11379    0.05502
   2.38238    0.11333    0.05583
   2.39039    0.11287    0.05680
   2.39840    0.11242    0.05796
   2.40641    0.11197    0.05937
   2.41441    0.11153    0.06109
   2.42242    0.11109    0.06321
   2.43043    0.11065    0.06586
   2.43844    0.11021    0.06921
   2.44645    0.10978    0.07354
   2.45445    0.10935    0.07922
   2.46246    0.10892    0.08688
   2.47047    0.10850    0.09751
  2.478478   0.108075   0.112848
  2.486486   0.107655   0.136023
  2.494494   0.107239   0.173254
  2.502502   0.106824   0.238117
  2.510510   0.106412   0.364105
  2.518518   0.106003   0.645860
  2.526526   0.105596   1.345025
  2.534534   0.105191   2.280569
  2.542542   0.104789   1.477520
  2.550550   0.104389   0.701751
  2.558558   0.103991   0.386867
  2.566566   0.103596   0.248532
  2.574574   0.103203   0.178332
  2.582582   0.102812   0.138412
  2.590590   0.102424   0.113701
   2.59860    0.10204    0.09739
   2.60661    0.10165    0.08606
   2.61461    0.10127    0.07788
   2.62262    0.10089    0.07177
   2.63063    0.10051    0.06708
   2.63864    0.10014    0.06341
   2.64665    0.09977    0.06046
   2.65465    0.09939    0.05807
   2.66266    0.09903    0.05608
   2.67067    0.09866    0.05442
   2.67868    0.09829    0.05301
   2.68669    0.09793    0.05180
   2.69469    0.09757    0.05075
   2.70270    0.09721    0.04984
   2.71071    0.09685    0.04903
   2.71872    0.09650    0.04832
   2.72673    0.09615    0.04768
   2.73473    0.09579    0.04710
   2.74274    0.09545    0.04658
   2.75075    0.09510    0.04610
   2.75876    0.09475    0.04566
   2.76677    0.09441    0.04526
   2.77477    0.09407    0.04489
   2.78278    0.09373    0.04455
   2.79079    0.09339    0.04422
   2.79880    0.09306    0.04392
   2.80681    0.09272    0.04364
   2.81481    0.09239    0.04337
   2.82282    0.09206    0.04312
   2.83083    0.09173    0.04288
   2.83884    0.09140    0.04265
   2.84685    0.09108    0.04243
   2.85485    0.09075    0.04223
   2.86286    0.09043    0.04203
   2.87087    0.09011    0.04183
   2.87888    0.08980    0.04165
   2.88689    0.08948    0.04147
   2.89490    0.08916    0.04130
   2.90290    0.08885    0.04113
   2.91091    0.08854    0.04097
   2.91892    0.08823    0.04081
   2.92693    0.08792    0.04066
   2.93493    0.08761    0.04051
   2.94294    0.08731    0.04036
   2.95095    0.08701    0.04022
   2.95896    0.08670    0.04008
   2.96697    0.08640    0.03995
   2.97497    0.08611    0.03981
   2.98298    0.08581    0.03968
   2.99099    0.08551    0.03955
   2.99900    0.08522    0.03943
   3.00701    0.08493    0.03931
   3.01501    0.08464    0.03918
   3.02302    0.08435    0.03906
   3.03103    0.08406    0.03895
   3.03904    0.08377    0.03883
   3.04705    0.08349    0.03872
   3.05505    0.08320    0.03860
   3.06306    0.08292    0.03849
   3.07107    0.08264    0.03838
   3.07908    0.08236    0.03827
   3.08709    0.08209    0.03817
   3.09509    0.08181    0.03806
   3.10310    0.08153    0.03796
   3.11111    0.08126    0.03785
   3.11912    0.08099    0.03775
   3.12713    0.08072    0.03765
   3.13513    0.08045    0.03755
   3.14314    0.08018    0.03745
   3.15115    0.07992    0.03735
   3.15916    0.07965    0.03725
   3.16717    0.07939    0.03715
   3.17517    0.07912    0.03706
   3.18318    0.07886    0.03696
   3.19119    0.07860    0.03687
   3.19920    0.07834    0.03677
   3.20721    0.07809    0.03668
   3.21521    0.07783    0.03659
   3.22322    0.07758    0.03649
   3.23123    0.07732    0.03640
   3.23924    0.07707    0.03631
   3.24725    0.07682    0.03622
   3.25526    0.07657    0.03613
   3.26326    0.07632    0.03604
   3.27127    0.07608    0.03596
   3.27928    0.07583    0.03587
   3.28729    0.07558    0.03578
   3.29529    0.07534    0.03569
   3.30330    0.07510    0.03561
   3.31131    0.07486    0.03552
   3.31932    0.07462    0.03544
   3.32733    0.07438    0.03535
   3.33534    0.07414    0.03527
   3.34334    0.07391    0.03518
   3.35135    0.07367    0.03510
   3.35936    0.07344    0.03502
   3.36737    0.07320    0.03494
   3.37537    0.07297    0.03485
   3.38338    0.07274    0.03477
   3.39139    0.07251    0.03469
   3.39940    0.07228    0.03461
   3.40741    0.07206    0.03453
   3.41542    0.07183    0.03445
   3.42342    0.07160    0.03437
   3.43143    0.07138    0.03429
   3.43944    0.07116    0.03421
   3.44745    0.07094    0.03414
   3.45546    0.07072    0.03406
   3.46346    0.07050    0.03398
   3.47147    0.07028    0.03390
   3.47948    0.07006    0.03383
   3.48749    0.06984    0.03375
   3.49550    0.06963    0.03367
   3.50350    0.06941    0.03360
   3.51151    0.06920    0.03352
   3.51952    0.06899    0.03345
   3.52753    0.06878    0.03337
   3.53554    0.06857    0.03330
   3.54354    0.06836    0.03322
   3.55155    0.06815    0.03315
   3.55956    0.06794    0.03307
   3.56757    0.06773    0.03300
   3.57558    0.06753    0.03293
   3.58358    0.06732    0.03285
   3.59159    0.06712    0.03278
   3.59960    0.06692    0.03271
   3.60761    0.06672    0.03264
   3.61562    0.06652    0.03257
   3.62362    0.06632    0.03249
   3.63163    0.06612    0.03242
   3.63964    0.06592    0.03235
   3.64765    0.06573    0.03228
   3.65566    0.06553    0.03221
   3.66366    0.06533    0.03214
   3.67167    0.06514    0.03207
   3.67968    0.06495    0.03200
   3.68769    0.06476    0.03193
   3.69570    0.06456    0.03186
   3.70370    0.06437    0.03180
   3.71171    0.06419    0.03173
   3.71972    0.06400    0.03166
   3.72773    0.06381    0.03159
   3.73574    0.06362    0.03152
   3.74374    0.06344    0.03146
   3.75175    0.06325    0.03139
   3.75976    0.06307    0.03132
   3.76777    0.06289    0.03126
   3.77578    0.06270    0.03119
   3.78378    0.06252    0.03112
   3.79179    0.06234    0.03106
   3.79980    0.06216    0.03099
   3.80781    0.06199    0.03093
   3.81582    0.06181    0.03086
   3.82382    0.06163    0.03080
   3.83183    0.06146    0.03073
   3.83984    0.06128    0.03067
   3.84785    0.06111    0.03060
   3.85586    0.06093    0.03054
   3.86386    0.06076    0.03047
   3.87187    0.06059    0.03041
   3.87988    0.06042    0.03035
   3.88789    0.06025    0.03028
   3.89590    0.06008    0.03022
   3.90390    0.05991    0.03016
   3.91191    0.05974    0.03009
   3.91992    0.05958    0.03003
   3.92793    0.05941    0.02997
   3.93594    0.05925    0.02991
   3.94394    0.05908    0.02985
   3.95195    0.05892    0.02978
   3.95996    0.05876    0.02972
   3.96797    0.05860    0.02966
   3.97598    0.05844    0.02960
   3.98398    0.05828    0.02954
   3.99199    0.05812    0.02948
   4.00000    0.05796    0.02942
 -4.000     -.1322E-2  -.2660     -.4010     0.5504   
 -3.992     -.1338E-2  -.2671     -.4083     0.2338   
 -3.984     -.1354E-2  -.2682     -.4328     -.9324E-1
 -3.976     -.1370E-2  -.2693     -.4812     -.4444   
 -3.968     -.1386E-2  -.2704     -.5685     -.8384   
 -3.960     -.1402E-2  -.2715     -.7292     -1.303   
 -3.952     -.1418E-2  -.2726     -1.052     -1.876   
 -3.944     -.1434E-2  -.2737     -1.792     -2.554   
 -3.936     -.1451E-2  -.2749     -3.548     -2.727   
 -3.928     -.1467E-2  -.2761     -4.675     -.2976   
 -3.920     -.1484E-2  -.2773     -2.738     0.7645   
 -3.912     -.1500E-2  -.2784     -1.680     0.1558E-1
 -3.904     -.1517E-2  -.2797     -1.403     -.9104   
 -3.896     -.1533E-2  -.2809     -1.541     -1.885   
 -3.888     -.1550E-2  -.2821     -2.139     -3.009   
 -3.880     -.1567E-2  -.2834     -3.721     -4.268   
 -3.872     -.1584E-2  -.2846     -7.474     -4.154   
 -3.864     -.1601E-2  -.2859     -9.055      1.164   
 -3.856     -.1619E-2  -.2872     -5.427      2.749   
 -3.848     -.1636E-2  -.2885     -4.433      1.449   
 -3.840     -.1653E-2  -.2898     -5.623      1.730   
 -3.832     -.1671E-2  -.2911     -4.329      3.711   
 -3.824     -.1689E-2  -.2925     -2.434      3.159   
 -3.816     -.1707E-2  -.2938     -1.708      2.051   
 -3.808     -.1725E-2  -.2952     -1.562     0.9825   
 -3.800     -.1743E-2  -.2966     -1.845     -.1166   
 -3.792     -.1761E-2  -.2980     -2.824     -1.330   
 -3.784     -.1780E-2  -.2994     -5.485     -2.097   
 -3.776     -.1798E-2  -.3009     -9.093      1.527   
 -3.768     -.1817E-2  -.3023     -5.908      5.927   
 -3.760     -.1836E-2  -.3038     -2.848      5.483   
 -3.752     -.1855E-2  -.3052     -1.600      4.437   
 -3.744     -.1875E-2  -.3067     -1.050      3.607   
 -3.736     -.1894E-2  -.3082     -.7722      2.970   
 -3.728     -.1914E-2  -.3098     -.6186      2.457   
 -3.720     -.1934E-2  -.3113     -.5303      2.022   
 -3.712     -.1954E-2  -.3129     -.4816      1.633   
 -3.704     -.1974E-2  -.3144     -.4610      1.268   
 -3.696     -.1995E-2  -.3160     -.4643     0.9091   
 -3.688     -.2015E-2  -.3176     -.4932     0.5397   
 -3.680     -.2036E-2  -.3193     -.5559     0.1404   
 -3.672     -.2057E-2  -.3209     -.6730     -.3144   
 -3.664     -.2079E-2  -.3226     -.8950     -.8613   
 -3.656     -.2100E-2  -.3242     -1.358     -1.542   
 -3.648     -.2122E-2  -.3259     -2.454     -2.263   
 -3.640     -.2144E-2  -.3276     -4.620     -1.721   
 -3.632     -.2167E-2  -.3294     -4.384     0.7610   
 -3.624     -.2189E-2  -.3311     -2.999     0.5502   
 -3.616     -.2212E-2  -.3329     -3.344     -.2431   
 -3.608     -.2235E-2  -.3346     -4.020     0.6601   
 -3.600     -.2259E-2  -.3364     -2.764     0.9589   
 -3.592     -.2283E-2  -.3383     -2.181     -.1501   
 -3.584     -.2307E-2  -.3401     -2.431     -1.570   
 -3.576     -.2331E-2  -.3420     -3.568     -3.295   
 -3.568     -.2355E-2  -.3438     -6.609     -5.235   
 -3.560     -.2380E-2  -.3457     -13.89     -4.321   
 -3.552     -.2405E-2  -.3476     -16.60      7.174   
 -3.544     -.2431E-2  -.3496     -8.379      11.44   
 -3.536     -.2457E-2  -.3515     -4.053      9.874   
 -3.528     -.2483E-2  -.3535     -2.284      8.235   
 -3.520     -.2510E-2  -.3555     -1.454      7.048   
 -3.512     -.2536E-2  -.3575     -1.009      6.193   
 -3.504     -.2564E-2  -.3596     -.7439      5.556   
 -3.495     -.2591E-2  -.3616     -.5737      5.064   
 -3.487     -.2619E-2  -.3637     -.4580      4.671   
 -3.479     -.2648E-2  -.3658     -.3755      4.351   
 -3.471     -.2676E-2  -.3680     -.3146      4.083   
 -3.463     -.2705E-2  -.3701     -.2683      3.855   
 -3.455     -.2735E-2  -.3723     -.2322      3.659   
 -3.447     -.2765E-2  -.3745     -.2034      3.488   
 -3.439     -.2795E-2  -.3767     -.1801      3.337   
 -3.431     -.2826E-2  -.3790     -.1609      3.202   
 -3.423     -.2857E-2  -.3812     -.1448      3.081   
 -3.415     -.2889E-2  -.3835     -.1313      2.971   
 -3.407     -.2921E-2  -.3859     -.1198      2.872   
 -3.399     -.2954E-2  -.3882     -.1099      2.780   
 -3.391     -.2987E-2  -.3906     -.1013      2.696   
 -3.383     -.3020E-2  -.3930     -.9381E-1   2.619   
 -3.375     -.3054E-2  -.3954     -.8721E-1   2.547   
 -3.367     -.3089E-2  -.3979     -.8137E-1   2.479   
 -3.359     -.3124E-2  -.4004     -.7618E-1   2.417   
 -3.351     -.3159E-2  -.4029     -.7154E-1   2.358   
 -3.343     -.3196E-2  -.4054     -.6738E-1   2.302   
 -3.335     -.3232E-2  -.4080     -.6363E-1   2.250   
 -3.327     -.3270E-2  -.4106     -.6023E-1   2.201   
 -3.319     -.3307E-2  -.4133     -.5716E-1   2.154   
   -3.3113    -0.0033    -0.4159    -0.0544     2.1092
   -3.3033    -0.0034    -0.4186    -0.0518     2.0668
   -3.2953    -0.0034    -0.4213    -0.0495     2.0264
   -3.2873    -0.0035    -0.4241    -0.0474     1.9877
   -3.2793    -0.0035    -0.4269    -0.0454     1.9506
   -3.2713    -0.0035    -0.4297    -0.0436     1.9150
   -3.2633    -0.0036    -0.4326    -0.0420     1.8808
   -3.2553    -0.0036    -0.4355    -0.0405     1.8479
   -3.2472    -0.0037    -0.4384    -0.0391     1.8161
   -3.2392    -0.0037    -0.4414    -0.0379     1.7853
   -3.2312    -0.0038    -0.4443    -0.0367     1.7555
   -3.2232    -0.0038    -0.4474    -0.0357     1.7265
   -3.2152    -0.0039    -0.4505    -0.0348     1.6983
   -3.2072    -0.0039    -0.4536    -0.0340     1.6709
   -3.1992    -0.0040    -0.4567    -0.0333     1.6440
   -3.1912    -0.0040    -0.4599    -0.0327     1.6176
   -3.1832    -0.0041    -0.4631    -0.0322     1.5917
   -3.1752    -0.0041    -0.4664    -0.0319     1.5661
   -3.1672    -0.0042    -0.4697    -0.0316     1.5407
   -3.1592    -0.0042    -0.4730    -0.0316     1.5155
   -3.1512    -0.0043    -0.4764    -0.0317     1.4902
   -3.1431    -0.0043    -0.4799    -0.0320     1.4648
   -3.1351    -0.0044    -0.4833    -0.0326     1.4391
   -3.1271    -0.0044    -0.4869    -0.0335     1.4128
   -3.1191    -0.0045    -0.4904    -0.0348     1.3857
   -3.1111    -0.0045    -0.4941    -0.0366     1.3574
   -3.1031    -0.0046    -0.4977    -0.0392     1.3274
   -3.0951    -0.0047    -0.5014    -0.0428     1.2952
   -3.0871    -0.0047    -0.5052    -0.0479     1.2597
   -3.0791    -0.0048    -0.5090    -0.0553     1.2198
   -3.0711    -0.0049    -0.5129    -0.0663     1.1734
   -3.0631    -0.0049    -0.5168    -0.0835     1.1176
   -3.0551    -0.0050    -0.5208    -0.1121     1.0473
   -3.0470    -0.0051    -0.5248    -0.1639     0.9547
   -3.0390    -0.0051    -0.5288    -0.2695     0.8288
   -3.0310    -0.0052    -0.5330    -0.5180     0.6755
   -3.0230    -0.0053    -0.5372    -1.1083     0.7223
   -3.0150    -0.0053    -0.5414    -1.4108     1.6523
   -3.0070    -0.0054    -0.5457    -0.7314     2.0664
   -2.9990    -0.0055    -0.5501    -0.3530     1.9411
   -2.9910    -0.0056    -0.5545    -0.1994     1.8000
   -2.9830    -0.0057    -0.5590    -0.1283     1.6960
   -2.9750    -0.0057    -0.5636    -0.0905     1.6198
   -2.9670    -0.0058    -0.5682    -0.0683     1.5617
   -2.9590    -0.0059    -0.5729    -0.0541     1.5157
   -2.9510    -0.0060    -0.5777    -0.0445     1.4780
   -2.9429    -0.0061    -0.5825    -0.0376     1.4462
   -2.9349    -0.0062    -0.5874    -0.0326     1.4188
   -2.9269    -0.0063    -0.5924    -0.0287     1.3947
   -2.9189    -0.0064    -0.5974    -0.0257     1.3732
   -2.9109    -0.0065    -0.6026    -0.0233     1.3539
   -2.9029    -0.0066    -0.6078    -0.0213     1.3362
   -2.8949    -0.0067    -0.6131    -0.0196     1.3199
   -2.8869    -0.0068    -0.6184    -0.0182     1.3049
   -2.8789    -0.0069    -0.6239    -0.0170     1.2909
   -2.8709    -0.0070    -0.6294    -0.0159     1.2777
   -2.8629    -0.0071    -0.6350    -0.0150     1.2654
   -2.8549    -0.0072    -0.6408    -0.0141     1.2538
   -2.8468    -0.0073    -0.6466    -0.0134     1.2428
   -2.8388    -0.0074    -0.6525    -0.0127     1.2324
   -2.8308    -0.0075    -0.6585    -0.0120     1.2225
   -2.8228    -0.0077    -0.6646    -0.0114     1.2131
   -2.8148    -0.0078    -0.6708    -0.0109     1.2042
   -2.8068    -0.0079    -0.6771    -0.0103     1.1957
   -2.7988    -0.0081    -0.6835    -0.0098     1.1877
   -2.7908    -0.0082    -0.6900    -0.0093     1.1800
   -2.7828    -0.0083    -0.6966    -0.0088     1.1727
   -2.7748    -0.0085    -0.7033    -0.0084     1.1658
   -2.7668    -0.0086    -0.7102    -0.0079     1.1593
   -2.7588    -0.0088    -0.7171    -0.0074     1.1532
   -2.7508    -0.0089    -0.7242    -0.0069     1.1474
   -2.7427    -0.0091    -0.7314    -0.0064     1.1421
   -2.7347    -0.0093    -0.7388    -0.0059     1.1371
   -2.7267    -0.0094    -0.7463    -0.0054     1.1325
   -2.7187    -0.0096    -0.7539    -0.0048     1.1284
   -2.7107    -0.0098    -0.7616    -0.0042     1.1248
   -2.7027    -0.0099    -0.7695    -0.0036     1.1216
   -2.6947    -0.0101    -0.7775    -0.0029     1.1190
 -2.687     -.1031E-1  -.7857     -.2070E-2   1.117   
 -2.679     -.1050E-1  -.7940     -.1178E-2   1.116   
 -2.671     -.1070E-1  -.8025     -.1621E-3   1.115   
 -2.663     -.1090E-1  -.8112     0.1012E-2   1.115   
 -2.655     -.1111E-1  -.8200     0.2389E-2   1.117   
   -2.6466    -0.0113    -0.8290     0.0040     1.1190
   -2.6386    -0.0115    -0.8381     0.0060     1.1228
   -2.6306    -0.0118    -0.8475     0.0085     1.1283
  -2.62262   -0.01200   -0.85697    0.01161    1.13600
  -2.61461   -0.01223   -0.86667    0.01566    1.14637
  -2.60661   -0.01247   -0.87656    0.02105    1.16026
  -2.59860   -0.01272   -0.88664    0.02849    1.17884
  -2.59059   -0.01297   -0.89693    0.03919    1.20388
  -2.58258   -0.01323   -0.90741    0.05535    1.23812
  -2.57457   -0.01349   -0.91811    0.08145    1.28598
  -2.56657   -0.01376   -0.92901    0.12730    1.35462
  -2.55856   -0.01403   -0.94014    0.21762    1.45471
  -2.55055   -0.01430   -0.95148    0.42314    1.58917
  -2.54254   -0.01458   -0.96304    0.92947    1.62060
  -2.53453   -0.01487   -0.97483    1.45363    0.84044
  -2.52653   -0.01515   -0.98685    0.84309    0.18619
  -2.51852   -0.01544   -0.99910    0.38676    0.25530
  -2.51051   -0.01572   -1.01158    0.20290    0.38736
  -2.50250   -0.01601   -1.02429    0.12068    0.48345
  -2.49449   -0.01628   -1.03722    0.07836    0.54967
  -2.48649   -0.01655   -1.05037    0.05406    0.59635
  -2.47848   -0.01681   -1.06373    0.03894    0.63023
  -2.47047   -0.01705   -1.07730    0.02894    0.65548
  -2.46246   -0.01726   -1.09105    0.02200    0.67469
  -2.45445   -0.01744   -1.10496    0.01700    0.68954
  -2.44645   -0.01757   -1.11900    0.01329    0.70115
  -2.43844   -0.01764   -1.13314    0.01046    0.71030
   -2.4304    -0.0176    -1.1473     0.0083     0.7175
   -2.4224    -0.0175    -1.1614     0.0065     0.7233
   -2.4144    -0.0173    -1.1754     0.0051     0.7278
   -2.4064    -0.0168    -1.1892     0.0040     0.7313
   -2.3984    -0.0161    -1.2025     0.0031     0.7341
 -2.390     -.1499E-1  -1.215     0.2299E-2  0.7362   
 -2.382     -.1339E-1  -1.227     0.1652E-2  0.7377   
 -2.374     -.1105E-1  -1.237     0.1106E-2  0.7388   
 -2.366     -.7617E-2  -1.245     0.6420E-3  0.7394   
 -2.358     -.2538E-2  -1.250     0.2462E-3  0.7398   
 -2.350     0.5143E-2  -1.251     -.9331E-4  0.7398   
 -2.342     0.1715E-1  -1.245     -.3858E-3  0.7396   
 -2.334     0.3679E-1  -1.228     -.6388E-3  0.7392   
 -2.326     0.7114E-1  -1.196     -.8583E-3  0.7385   
 -2.318     0.1370     -1.138     -.1049E-2  0.7378   
 -2.310     0.2802     -1.045     -.1216E-2  0.7368   
 -2.302     0.6348     -.9599     -.1361E-2  0.7358   
 -2.294      1.315     -1.360     -.1489E-2  0.7347   
 -2.286      1.090     -2.374     -.1600E-2  0.7334   
 -2.278     0.4732     -2.514     -.1698E-2  0.7321   
 -2.270     0.2063     -2.418     -.1783E-2  0.7307   
 -2.262     0.9163E-1  -2.350     -.1858E-2  0.7292   
 -2.254     0.3358E-1  -2.318     -.1924E-2  0.7277   
 -2.246     -.4760E-3  -2.313     -.1982E-2  0.7261   
 -2.238     -.2310E-1  -2.327     -.2032E-2  0.7245   
 -2.230     -.3982E-1  -2.354     -.2075E-2  0.7229   
 -2.222     -.5339E-1  -2.393     -.2113E-2  0.7212   
 -2.214     -.6534E-1  -2.441     -.2146E-2  0.7195   
 -2.206     -.7661E-1  -2.498     -.2174E-2  0.7178   
 -2.198     -.8783E-1  -2.563     -.2198E-2  0.7160   
 -2.190     -.9952E-1  -2.638     -.2218E-2  0.7142   
 -2.182     -.1122     -2.722     -.2235E-2  0.7125   
 -2.174     -.1262     -2.817     -.2249E-2  0.7107   
 -2.166     -.1423     -2.923     -.2260E-2  0.7088   
 -2.158     -.1610     -3.043     -.2268E-2  0.7070   
 -2.150     -.1834     -3.179     -.2275E-2  0.7052   
 -2.142     -.2107     -3.334     -.2279E-2  0.7034   
 -2.134     -.2448     -3.512     -.2282E-2  0.7016   
 -2.126     -.2887     -3.720     -.2283E-2  0.6997   
 -2.118     -.3470     -3.966     -.2283E-2  0.6979   
 -2.110     -.4279     -4.262     -.2281E-2  0.6961   
 -2.102     -.5469     -4.626     -.2278E-2  0.6943   
 -2.094     -.7377     -5.086     -.2274E-2  0.6924   
 -2.086     -1.084     -5.663     -.2269E-2  0.6906   
 -2.078     -1.737     -6.237     -.2263E-2  0.6888   
 -2.070     -2.354     -6.642     -.2256E-2  0.6870   
 -2.062     -3.269     -7.706     -.2249E-2  0.6852   
 -2.054     -5.721     -8.665     -.2240E-2  0.6834   
 -2.046     -9.650     -7.986     -.2232E-2  0.6816   
 -2.038     -13.08     -3.047     -.2222E-2  0.6798   
 -2.030     -11.07      2.827     -.2212E-2  0.6780   
 -2.022     -6.370      4.757     -.2202E-2  0.6763   
 -2.014     -3.284      3.642     -.2191E-2  0.6745   
 -2.006     -1.949      2.269     -.2180E-2  0.6728   
   -1.9980    -1.3389     1.1982    -0.0022     0.6710
   -1.9900    -1.0347     0.3557    -0.0022     0.6693
   -1.9820    -0.8869    -0.3528    -0.0021     0.6676
   -1.9740    -0.8426    -0.9974    -0.0021     0.6658
   -1.9660    -0.8991    -1.6337    -0.0021     0.6641
 -1.958     -1.114     -2.308     -.2108E-2  0.6624   
 -1.950     -1.676     -2.975     -.2095E-2  0.6608   
 -1.942     -2.617     -3.050     -.2082E-2  0.6591   
 -1.934     -2.877     -2.918     -.2069E-2  0.6574   
 -1.926     -3.791     -2.885     -.2056E-2  0.6558   
 -1.918     -3.818     -1.693     -.2043E-2  0.6541   
 -1.910     -3.029     -1.706     -.2029E-2  0.6525   
 -1.902     -2.624     -2.385     -.2016E-2  0.6509   
 -1.894     -3.082     -3.476     -.2002E-2  0.6493   
 -1.886     -4.409     -4.179     -.1989E-2  0.6477   
 -1.878     -6.845     -3.662     -.1976E-2  0.6461   
 -1.870     -7.150     -.4012     -.1962E-2  0.6445   
 -1.862     -4.957     -.1084     -.1949E-2  0.6429   
 -1.854     -5.038     -1.406     -.1935E-2  0.6414   
 -1.846     -6.222     -.9074     -.1922E-2  0.6399   
 -1.838     -6.411     -.1712     -.1908E-2  0.6383   
 -1.830     -6.583     0.5177     -.1895E-2  0.6368   
 -1.822     -6.670      1.234     -.1882E-2  0.6353   
 -1.814     -7.150      2.892     -.1868E-2  0.6338   
 -1.806     -4.859      4.685     -.1855E-2  0.6323   
 -1.798     -2.974      3.837     -.1842E-2  0.6308   
 -1.790     -2.681      2.940     -.1829E-2  0.6293   
 -1.782     -2.403      3.087     -.1816E-2  0.6279   
 -1.774     -1.544      2.685     -.1803E-2  0.6264   
 -1.766     -1.180      1.933     -.1790E-2  0.6250   
   -1.7578    -1.2118     1.2230    -0.0018     0.6236
   -1.7497    -1.6978     0.7665    -0.0018     0.6221
 -1.742     -2.039      1.229     -.1751E-2  0.6207   
   -1.7337    -1.4754     1.2642    -0.0017     0.6193
   -1.7257    -1.3963     0.8978    -0.0017     0.6180
 -1.718     -1.284     0.9269     -.1714E-2  0.6166   
 -1.710     -.9102     0.6055     -.1701E-2  0.6152   
 -1.702     -.7822     0.8307E-1  -.1689E-2  0.6139   
 -1.694     -.8289     -.4780     -.1677E-2  0.6125   
 -1.686     -1.051     -1.108     -.1665E-2  0.6112   
 -1.678     -1.616     -1.837     -.1653E-2  0.6098   
 -1.670     -2.997     -2.363     -.1641E-2  0.6085   
 -1.662     -4.807     -1.144     -.1629E-2  0.6072   
 -1.654     -4.348      1.132     -.1617E-2  0.6059   
 -1.646     -2.572      1.359     -.1606E-2  0.6046   
 -1.638     -1.904     0.4610     -.1594E-2  0.6033   
 -1.630     -2.197     -.3265     -.1583E-2  0.6021   
 -1.622     -2.734     -.2191     -.1572E-2  0.6008   
 -1.614     -2.698     -.3368     -.1561E-2  0.5996   
 -1.606     -3.273     -.1335     -.1550E-2  0.5983   
 -1.598     -2.737     0.3479     -.1539E-2  0.5971   
 -1.590     -2.423     -.3210     -.1528E-2  0.5958   
 -1.582     -2.866     -.8070     -.1517E-2  0.5946   
 -1.574     -3.413     -1.121     -.1507E-2  0.5934   
 -1.566     -4.608     -1.266     -.1496E-2  0.5922   
 -1.558     -5.530     0.2330E-1  -.1486E-2  0.5910   
 -1.550     -5.409      1.121     -.1476E-2  0.5898   
 -1.542     -5.205      1.721     -.1465E-2  0.5887   
 -1.534     -4.884      2.526     -.1455E-2  0.5875   
 -1.526     -4.323      3.548     -.1446E-2  0.5863   
 -1.518     -2.665      3.839     -.1436E-2  0.5852   
 -1.510     -1.653      3.015     -.1426E-2  0.5840   
 -1.502     -1.346      2.129     -.1417E-2  0.5829   
 -1.493     -1.520      1.340     -.1407E-2  0.5818   
 -1.485     -2.267     0.9982     -.1398E-2  0.5806   
 -1.477     -2.633      1.569     -.1389E-2  0.5795   
 -1.469     -2.489      2.144     -.1380E-2  0.5784   
 -1.461     -1.589      2.335     -.1371E-2  0.5773   
 -1.453     -1.022      1.800     -.1362E-2  0.5762   
 -1.445     -.8338      1.209     -.1354E-2  0.5751   
 -1.437     -.8430     0.6344     -.1345E-2  0.5740   
 -1.429     -1.061     0.5160E-1  -.1337E-2  0.5730   
 -1.421     -1.669     -.3762     -.1328E-2  0.5719   
 -1.413     -2.164     0.2561E-1  -.1320E-2  0.5708   
 -1.405     -1.746     -.5872E-1  -.1312E-2  0.5698   
 -1.397     -1.902     -.7946     -.1304E-2  0.5687   
 -1.389     -2.704     -1.203     -.1297E-2  0.5677   
 -1.381     -3.418     -1.194     -.1289E-2  0.5667   
 -1.373     -4.388     -1.087     -.1282E-2  0.5656   
 -1.365     -5.203     0.2026     -.1275E-2  0.5646   
 -1.357     -4.221     0.9195     -.1268E-2  0.5636   
 -1.349     -4.271     0.1770     -.1261E-2  0.5626   
 -1.341     -5.155     0.5126     -.1254E-2  0.5616   
 -1.333     -5.404     0.7702     -.1247E-2  0.5606   
 -1.325     -6.487      1.732     -.1241E-2  0.5596   
 -1.317     -6.255      3.593     -.1234E-2  0.5586   
 -1.309     -4.464      4.503     -.1228E-2  0.5576   
 -1.301     -3.595      3.657     -.1222E-2  0.5566   
 -1.293     -3.855      3.719     -.1216E-2  0.5556   
 -1.285     -3.112      3.770     -.1211E-2  0.5547   
 -1.277     -3.322      3.170     -.1205E-2  0.5537   
 -1.269     -3.876      3.892     -.1200E-2  0.5527   
 -1.261     -3.037      4.663     -.1195E-2  0.5518   
 -1.253     -2.103      4.580     -.1190E-2  0.5508   
 -1.245     -1.501      3.931     -.1185E-2  0.5499   
 -1.237     -1.540      3.178     -.1181E-2  0.5489   
 -1.229     -2.195      2.886     -.1176E-2  0.5480   
 -1.221     -2.358      3.394     -.1172E-2  0.5470   
 -1.213     -2.243      3.464     -.1169E-2  0.5461   
 -1.205     -2.318      3.522     -.1165E-2  0.5452   
 -1.197     -2.209      4.072     -.1161E-2  0.5442   
 -1.189     -1.683      3.951     -.1158E-2  0.5433   
 -1.181     -1.927      3.882     -.1155E-2  0.5424   
 -1.173     -1.597      4.558     -.1153E-2  0.5415   
 -1.165     -.8574      4.447     -.1150E-2  0.5405   
 -1.157     -.5140      4.106     -.1148E-2  0.5396   
 -1.149     -.3550      3.821     -.1146E-2  0.5387   
 -1.141     -.2686      3.596     -.1145E-2  0.5378   
 -1.133     -.2153      3.414     -.1144E-2  0.5369   
 -1.125     -.1795      3.263     -.1143E-2  0.5360   
 -1.117     -.1537      3.133     -.1142E-2  0.5350   
 -1.109     -.1343      3.021     -.1142E-2  0.5341   
 -1.101     -.1191      2.921     -.1142E-2  0.5332   
 -1.093     -.1070      2.831     -.1142E-2  0.5323   
 -1.085     -.9698E-1   2.751     -.1143E-2  0.5314   
 -1.077     -.8862E-1   2.677     -.1145E-2  0.5305   
 -1.069     -.8154E-1   2.610     -.1146E-2  0.5295   
 -1.061     -.7545E-1   2.547     -.1148E-2  0.5286   
 -1.053     -.7016E-1   2.489     -.1151E-2  0.5277   
 -1.045     -.6552E-1   2.435     -.1154E-2  0.5268   
 -1.037     -.6143E-1   2.385     -.1158E-2  0.5259   
 -1.029     -.5780E-1   2.337     -.1162E-2  0.5249   
 -1.021     -.5454E-1   2.292     -.1167E-2  0.5240   
 -1.013     -.5162E-1   2.250     -.1172E-2  0.5231   
 -1.005     -.4898E-1   2.210     -.1178E-2  0.5221   
 -.9970     -.4660E-1   2.172     -.1185E-2  0.5212   
 -.9890     -.4443E-1   2.135     -.1192E-2  0.5202   
 -.9810     -.4245E-1   2.100     -.1200E-2  0.5193   
 -.9730     -.4064E-1   2.067     -.1209E-2  0.5183   
 -.9650     -.3900E-1   2.035     -.1218E-2  0.5173   
 -.9570     -.3749E-1   2.005     -.1229E-2  0.5164   
 -.9489     -.3611E-1   1.976     -.1240E-2  0.5154   
 -.9409     -.3485E-1   1.947     -.1253E-2  0.5144   
 -.9329     -.3369E-1   1.920     -.1266E-2  0.5134   
 -.9249     -.3265E-1   1.893     -.1281E-2  0.5123   
 -.9169     -.3170E-1   1.868     -.1297E-2  0.5113   
 -.9089     -.3084E-1   1.843     -.1314E-2  0.5103   
 -.9009     -.3008E-1   1.818     -.1333E-2  0.5092   
 -.8929     -.2942E-1   1.794     -.1353E-2  0.5081   
 -.8849     -.2884E-1   1.771     -.1374E-2  0.5070   
 -.8769     -.2836E-1   1.748     -.1398E-2  0.5059   
 -.8689     -.2799E-1   1.726     -.1423E-2  0.5048   
 -.8609     -.2772E-1   1.704     -.1450E-2  0.5037   
 -.8529     -.2757E-1   1.681     -.1479E-2  0.5025   
 -.8448     -.2756E-1   1.659     -.1511E-2  0.5013   
 -.8368     -.2771E-1   1.637     -.1545E-2  0.5001   
 -.8288     -.2804E-1   1.615     -.1582E-2  0.4988   
   -0.8208    -0.0286     1.5926    -0.0016     0.4975
   -0.8128    -0.0294     1.5695    -0.0017     0.4962
   -0.8048    -0.0306     1.5457    -0.0017     0.4949
   -0.7968    -0.0323     1.5207    -0.0018     0.4935
   -0.7888    -0.0345     1.4943    -0.0018     0.4920
   -0.7808    -0.0377     1.4659    -0.0019     0.4906
   -0.7728    -0.0421     1.4347    -0.0019     0.4890
   -0.7648    -0.0483     1.3997    -0.0020     0.4875
   -0.7568    -0.0574     1.3592    -0.0021     0.4858
   -0.7487    -0.0712     1.3108    -0.0022     0.4841
   -0.7407    -0.0933     1.2506    -0.0023     0.4824
   -0.7327    -0.1317     1.1725    -0.0024     0.4805
   -0.7247    -0.2051     1.0664    -0.0025     0.4786
   -0.7167    -0.3658     0.9238    -0.0026     0.4766
   -0.7087    -0.7643     0.8083    -0.0027     0.4744
   -0.7007    -1.4334     1.2853    -0.0029     0.4722
   -0.6927    -1.0605     2.1795    -0.0030     0.4699
   -0.6847    -0.4923     2.1981    -0.0032     0.4674
   -0.6767    -0.2562     2.0479    -0.0034     0.4647
   -0.6687    -0.1546     1.9281    -0.0036     0.4619
   -0.6607    -0.1040     1.8416    -0.0039     0.4589
   -0.6527    -0.0755     1.7775    -0.0042     0.4557
   -0.6446    -0.0581     1.7279    -0.0045     0.4522
   -0.6366    -0.0466     1.6883    -0.0049     0.4485
   -0.6286    -0.0386     1.6555    -0.0053     0.4445
   -0.6206    -0.0328     1.6278    -0.0058     0.4401
   -0.6126    -0.0285     1.6038    -0.0063     0.4353
   -0.6046    -0.0252     1.5827    -0.0070     0.4300
   -0.5966    -0.0225     1.5639    -0.0078     0.4241
   -0.5886    -0.0204     1.5469    -0.0087     0.4176
   -0.5806    -0.0186     1.5314    -0.0098     0.4103
  -0.57257   -0.01717    1.51722   -0.01112    0.40209
  -0.56456   -0.01592    1.50407   -0.01276    0.39270
  -0.55656   -0.01485    1.49183   -0.01480    0.38190
  -0.54855   -0.01392    1.48037   -0.01739    0.36932
  -0.54054   -0.01310    1.46961   -0.02075    0.35449
  -0.53253   -0.01237    1.45945   -0.02521    0.33674
  -0.52452   -0.01173    1.44984   -0.03128    0.31510
  -0.51652   -0.01114    1.44071   -0.03986    0.28817
  -0.50851   -0.01061    1.43202   -0.05251    0.25381
  -0.50050   -0.01013    1.42374   -0.07224    0.20863
   -0.4925    -0.0097     1.4158    -0.1053     0.1471
   -0.4845    -0.0093     1.4082    -0.1662     0.0606
   -0.4765    -0.0089     1.4010    -0.2941    -0.0618
   -0.4685    -0.0085     1.3940    -0.6033    -0.1962
   -0.4605    -0.0082     1.3873    -1.2672     0.0251
   -0.4525    -0.0079     1.3809    -1.2555     1.0347
   -0.4444    -0.0076     1.3747    -0.5953     1.2421
   -0.4364    -0.0073     1.3687    -0.2909     1.1069
   -0.4284    -0.0071     1.3629    -0.1648     0.9852
   -0.4204    -0.0068     1.3573    -0.1046     0.8991
   -0.4124    -0.0066     1.3520    -0.0718     0.8379
   -0.4044    -0.0064     1.3468    -0.0523     0.7930
   -0.3964    -0.0062     1.3418    -0.0397     0.7588
   -0.3884    -0.0059     1.3369    -0.0312     0.7319
   -0.3804    -0.0057     1.3323    -0.0251     0.7104
   -0.3724    -0.0056     1.3278    -0.0207     0.6927
   -0.3644    -0.0054     1.3234    -0.0174     0.6779
   -0.3564    -0.0052     1.3192    -0.0148     0.6653
   -0.3483    -0.0050     1.3151    -0.0128     0.6545
   -0.3403    -0.0048     1.3111    -0.0111     0.6451
   -0.3323    -0.0047     1.3073    -0.0098     0.6368
   -0.3243    -0.0045     1.3036    -0.0087     0.6295
   -0.3163    -0.0044     1.3001    -0.0078     0.6230
   -0.3083    -0.0042     1.2966    -0.0071     0.6170
   -0.3003    -0.0041     1.2933    -0.0065     0.6116
   -0.2923    -0.0039     1.2901    -0.0059     0.6067
   -0.2843    -0.0038     1.2870    -0.0055     0.6022
   -0.2763    -0.0037     1.2840    -0.0051     0.5979
   -0.2683    -0.0035     1.2811    -0.0048     0.5940
   -0.2603    -0.0034     1.2783    -0.0045     0.5903
   -0.2523    -0.0033     1.2756    -0.0043     0.5868
   -0.2442    -0.0032     1.2731    -0.0042     0.5834
   -0.2362    -0.0030     1.2706    -0.0040     0.5801
   -0.2282    -0.0029     1.2682    -0.0039     0.5770
   -0.2202    -0.0028     1.2659    -0.0039     0.5739
   -0.2122    -0.0027     1.2637    -0.0039     0.5708
   -0.2042    -0.0026     1.2616    -0.0039     0.5677
   -0.1962    -0.0025     1.2596    -0.0040     0.5646
   -0.1882    -0.0023     1.2577    -0.0041     0.5613
   -0.1802    -0.0022     1.2559    -0.0043     0.5580
   -0.1722    -0.0021     1.2541    -0.0046     0.5544
   -0.1642    -0.0020     1.2525    -0.0050     0.5507
   -0.1562    -0.0019     1.2509    -0.0055     0.5465
   -0.1481    -0.0018     1.2494    -0.0061     0.5420
   -0.1401    -0.0017     1.2480    -0.0069     0.5369
   -0.1321    -0.0016     1.2467    -0.0080     0.5311
   -0.1241    -0.0015     1.2455    -0.0094     0.5243
   -0.1161    -0.0014     1.2443    -0.0113     0.5163
   -0.1081    -0.0013     1.2432    -0.0139     0.5066
 -.1001     -.1200E-2   1.242     -.1748E-1  0.4946   
 -.9209E-1  -.1101E-2   1.241     -.2261E-1  0.4795   
 -.8408E-1  -.1003E-2   1.240     -.3019E-1  0.4600   
 -.7608E-1  -.9062E-3   1.240     -.4191E-1  0.4338   
 -.6807E-1  -.8095E-3   1.239     -.6105E-1  0.3977   
 -.6006E-1  -.7132E-3   1.238     -.9472E-1  0.3461   
 -.5205E-1  -.6174E-3   1.238     -.1601     0.2700   
 -.4404E-1  -.5218E-3   1.237     -.3046     0.1609   
 -.3604E-1  -.4266E-3   1.237     -.6667     0.6899E-1
 -.2803E-1  -.3315E-3   1.237     -1.336     0.5028   
 -.2002E-1  -.2367E-3   1.236     -1.044      1.500   
 -.1201E-1  -.1420E-3   1.236     -.4154      1.629   
 -.4004E-2  -.4731E-4   1.236     -.1080      1.569   
 0.4004E-2  0.4731E-4   1.236     0.1080      1.569   
 0.1201E-1  0.1420E-3   1.236     0.4154      1.629   
 0.2002E-1  0.2367E-3   1.236      1.044      1.500   
 0.2803E-1  0.3315E-3   1.237      1.336     0.5029   
 0.3604E-1  0.4266E-3   1.237     0.6667     0.6899E-1
 0.4404E-1  0.5218E-3   1.237     0.3046     0.1609   
 0.5205E-1  0.6174E-3   1.238     0.1601     0.2700   
 0.6006E-1  0.7132E-3   1.238     0.9472E-1  0.3461   
 0.6807E-1  0.8095E-3   1.239     0.6105E-1  0.3977   
 0.7608E-1  0.9062E-3   1.240     0.4191E-1  0.4338   
 0.8408E-1  0.1003E-2   1.240     0.3019E-1  0.4599   
 0.9209E-1  0.1101E-2   1.241     0.2261E-1  0.4795   
 0.1001     0.1200E-2   1.242     0.1748E-1  0.4946   
    0.1081     0.0013     1.2432     0.0139     0.5066
    0.1161     0.0014     1.2443     0.0113     0.5163
    0.1241     0.0015     1.2455     0.0094     0.5243
    0.1321     0.0016     1.2467     0.0080     0.5311
    0.1401     0.0017     1.2480     0.0069     0.5369
    0.1481     0.0018     1.2494     0.0061     0.5420
    0.1562     0.0019     1.2509     0.0055     0.5465
    0.1642     0.0020     1.2525     0.0050     0.5507
    0.1722     0.0021     1.2541     0.0046     0.5544
    0.1802     0.0022     1.2559     0.0043     0.5580
    0.1882     0.0023     1.2577     0.0041     0.5613
    0.1962     0.0025     1.2596     0.0040     0.5646
    0.2042     0.0026     1.2616     0.0039     0.5677
    0.2122     0.0027     1.2637     0.0039     0.5708
    0.2202     0.0028     1.2659     0.0039     0.5739
    0.2282     0.0029     1.2682     0.0039     0.5770
    0.2362     0.0030     1.2706     0.0040     0.5801
    0.2442     0.0032     1.2731     0.0042     0.5834
    0.2523     0.0033     1.2756     0.0043     0.5868
    0.2603     0.0034     1.2783     0.0045     0.5903
    0.2683     0.0035     1.2811     0.0048     0.5940
    0.2763     0.0037     1.2840     0.0051     0.5979
    0.2843     0.0038     1.2870     0.0055     0.6022
    0.2923     0.0039     1.2901     0.0059     0.6067
    0.3003     0.0041     1.2933     0.0065     0.6116
    0.3083     0.0042     1.2966     0.0071     0.6170
    0.3163     0.0044     1.3001     0.0078     0.6230
    0.3243     0.0045     1.3036     0.0087     0.6295
    0.3323     0.0047     1.3073     0.0098     0.6368
    0.3403     0.0048     1.3111     0.0111     0.6451
    0.3483     0.0050     1.3151     0.0128     0.6545
    0.3564     0.0052     1.3192     0.0148     0.6653
    0.3644     0.0054     1.3234     0.0174     0.6779
    0.3724     0.0056     1.3278     0.0207     0.6927
    0.3804     0.0057     1.3323     0.0251     0.7104
    0.3884     0.0059     1.3369     0.0312     0.7319
    0.3964     0.0062     1.3418     0.0397     0.7588
    0.4044     0.0064     1.3468     0.0523     0.7930
    0.4124     0.0066     1.3520     0.0718     0.8379
    0.4204     0.0068     1.3573     0.1046     0.8991
    0.4284     0.0071     1.3629     0.1648     0.9852
    0.4364     0.0073     1.3687     0.2909     1.1069
    0.4444     0.0076     1.3747     0.5953     1.2421
    0.4525     0.0079     1.3809     1.2554     1.0347
    0.4605     0.0082     1.3873     1.2672     0.0251
    0.4685     0.0085     1.3940     0.6033    -0.1962
    0.4765     0.0089     1.4010     0.2941    -0.0618
    0.4845     0.0093     1.4082     0.1662     0.0605
    0.4925     0.0097     1.4158     0.1053     0.1471
   0.50050    0.01013    1.42374    0.07224    0.20863
   0.50851    0.01061    1.43202    0.05251    0.25381
   0.51652    0.01114    1.44071    0.03986    0.28817
   0.52452    0.01173    1.44983    0.03128    0.31510
   0.53253    0.01237    1.45945    0.02521    0.33673
   0.54054    0.01310    1.46961    0.02075    0.35449
   0.54855    0.01392    1.48037    0.01739    0.36932
   0.55656    0.01485    1.49183    0.01480    0.38190
   0.56456    0.01592    1.50407    0.01276    0.39270
   0.57257    0.01717    1.51722    0.01112    0.40209
    0.5806     0.0186     1.5314     0.0098     0.4103
    0.5886     0.0204     1.5469     0.0087     0.4176
    0.5966     0.0225     1.5639     0.0078     0.4241
    0.6046     0.0252     1.5827     0.0070     0.4300
    0.6126     0.0285     1.6038     0.0063     0.4353
    0.6206     0.0328     1.6278     0.0058     0.4401
    0.6286     0.0386     1.6555     0.0053     0.4445
    0.6366     0.0466     1.6883     0.0049     0.4485
    0.6446     0.0581     1.7279     0.0045     0.4522
    0.6527     0.0755     1.7775     0.0042     0.4557
    0.6607     0.1040     1.8416     0.0039     0.4589
    0.6687     0.1546     1.9281     0.0036     0.4619
    0.6767     0.2562     2.0479     0.0034     0.4647
    0.6847     0.4923     2.1981     0.0032     0.4674
    0.6927     1.0605     2.1796     0.0030     0.4699
    0.7007     1.4334     1.2854     0.0029     0.4722
    0.7087     0.7644     0.8083     0.0027     0.4744
    0.7167     0.3658     0.9238     0.0026     0.4766
    0.7247     0.2051     1.0664     0.0025     0.4786
    0.7327     0.1317     1.1725     0.0024     0.4805
    0.7407     0.0933     1.2506     0.0023     0.4824
    0.7487     0.0712     1.3108     0.0022     0.4841
    0.7568     0.0574     1.3592     0.0021     0.4858
    0.7648     0.0483     1.3997     0.0020     0.4875
    0.7728     0.0421     1.4347     0.0019     0.4890
    0.7808     0.0377     1.4659     0.0019     0.4906
    0.7888     0.0345     1.4943     0.0018     0.4920
    0.7968     0.0323     1.5207     0.0018     0.4935
    0.8048     0.0306     1.5457     0.0017     0.4949
    0.8128     0.0294     1.5695     0.0017     0.4962
    0.8208     0.0286     1.5926     0.0016     0.4975
 0.8288     0.2804E-1   1.615     0.1582E-2  0.4988   
 0.8368     0.2771E-1   1.637     0.1545E-2  0.5001   
 0.8448     0.2756E-1   1.659     0.1511E-2  0.5013   
 0.8529     0.2757E-1   1.681     0.1479E-2  0.5025   
 0.8609     0.2772E-1   1.704     0.1450E-2  0.5037   
 0.8689     0.2799E-1   1.726     0.1423E-2  0.5048   
 0.8769     0.2836E-1   1.748     0.1398E-2  0.5059   
 0.8849     0.2884E-1   1.771     0.1374E-2  0.5070   
 0.8929     0.2942E-1   1.794     0.1353E-2  0.5081   
 0.9009     0.3008E-1   1.818     0.1333E-2  0.5092   
 0.9089     0.3084E-1   1.843     0.1314E-2  0.5103   
 0.9169     0.3170E-1   1.868     0.1297E-2  0.5113   
 0.9249     0.3265E-1   1.893     0.1281E-2  0.5123   
 0.9329     0.3369E-1   1.920     0.1266E-2  0.5134   
 0.9409     0.3485E-1   1.947     0.1253E-2  0.5144   
 0.9489     0.3611E-1   1.976     0.1240E-2  0.5154   
 0.9570     0.3749E-1   2.005     0.1229E-2  0.5164   
 0.9650     0.3900E-1   2.035     0.1218E-2  0.5173   
 0.9730     0.4064E-1   2.067     0.1209E-2  0.5183   
 0.9810     0.4245E-1   2.100     0.1200E-2  0.5193   
 0.9890     0.4443E-1   2.135     0.1192E-2  0.5202   
 0.9970     0.4660E-1   2.172     0.1185E-2  0.5212   
  1.005     0.4898E-1   2.210     0.1178E-2  0.5221   
  1.013     0.5162E-1   2.250     0.1172E-2  0.5231   
  1.021     0.5454E-1   2.292     0.1167E-2  0.5240   
  1.029     0.5780E-1   2.337     0.1162E-2  0.5249   
  1.037     0.6143E-1   2.385     0.1158E-2  0.5259   
  1.045     0.6552E-1   2.435     0.1154E-2  0.5268   
  1.053     0.7016E-1   2.489     0.1151E-2  0.5277   
  1.061     0.7545E-1   2.547     0.1148E-2  0.5286   
  1.069     0.8154E-1   2.610     0.1146E-2  0.5295   
  1.077     0.8862E-1   2.677     0.1145E-2  0.5305   
  1.085     0.9698E-1   2.751     0.1143E-2  0.5314   
  1.093     0.1070      2.831     0.1142E-2  0.5323   
  1.101     0.1191      2.921     0.1142E-2  0.5332   
  1.109     0.1343      3.021     0.1142E-2  0.5341   
  1.117     0.1537      3.133     0.1142E-2  0.5350   
  1.125     0.1795      3.263     0.1143E-2  0.5360   
  1.133     0.2153      3.414     0.1144E-2  0.5369   
  1.141     0.2686      3.596     0.1145E-2  0.5378   
  1.149     0.3550      3.821     0.1146E-2  0.5387   
  1.157     0.5140      4.106     0.1148E-2  0.5396   
  1.165     0.8573      4.447     0.1150E-2  0.5405   
  1.173      1.597      4.558     0.1153E-2  0.5415   
  1.181      1.927      3.882     0.1155E-2  0.5424   
  1.189      1.683      3.951     0.1158E-2  0.5433   
  1.197      2.209      4.072     0.1161E-2  0.5442   
  1.205      2.318      3.523     0.1165E-2  0.5452   
  1.213      2.243      3.464     0.1169E-2  0.5461   
  1.221      2.358      3.395     0.1172E-2  0.5470   
  1.229      2.195      2.886     0.1176E-2  0.5480   
  1.237      1.540      3.178     0.1181E-2  0.5489   
  1.245      1.501      3.931     0.1185E-2  0.5499   
  1.253      2.103      4.580     0.1190E-2  0.5508   
  1.261      3.037      4.663     0.1195E-2  0.5518   
  1.269      3.876      3.892     0.1200E-2  0.5527   
  1.277      3.322      3.170     0.1205E-2  0.5537   
  1.285      3.112      3.770     0.1211E-2  0.5547   
  1.293      3.855      3.719     0.1216E-2  0.5556   
  1.301      3.595      3.657     0.1222E-2  0.5566   
  1.309      4.464      4.503     0.1228E-2  0.5576   
  1.317      6.254      3.593     0.1234E-2  0.5586   
  1.325      6.487      1.732     0.1241E-2  0.5596   
  1.333      5.404     0.7702     0.1247E-2  0.5606   
  1.341      5.155     0.5127     0.1254E-2  0.5616   
  1.349      4.271     0.1769     0.1261E-2  0.5626   
  1.357      4.221     0.9195     0.1268E-2  0.5636   
  1.365      5.203     0.2027     0.1275E-2  0.5646   
  1.373      4.388     -1.087     0.1282E-2  0.5656   
  1.381      3.418     -1.194     0.1289E-2  0.5667   
  1.389      2.704     -1.203     0.1297E-2  0.5677   
  1.397      1.902     -.7946     0.1304E-2  0.5687   
  1.405      1.746     -.5875E-1  0.1312E-2  0.5698   
  1.413      2.164     0.2564E-1  0.1320E-2  0.5708   
  1.421      1.669     -.3762     0.1328E-2  0.5719   
  1.429      1.061     0.5157E-1  0.1337E-2  0.5730   
  1.437     0.8430     0.6344     0.1345E-2  0.5740   
  1.445     0.8338      1.209     0.1353E-2  0.5751   
  1.453      1.022      1.800     0.1362E-2  0.5762   
  1.461      1.589      2.335     0.1371E-2  0.5773   
  1.469      2.489      2.144     0.1380E-2  0.5784   
  1.477      2.633      1.569     0.1389E-2  0.5795   
  1.485      2.267     0.9982     0.1398E-2  0.5806   
  1.493      1.520      1.340     0.1407E-2  0.5818   
  1.502      1.346      2.129     0.1417E-2  0.5829   
  1.510      1.653      3.015     0.1426E-2  0.5840   
  1.518      2.665      3.839     0.1436E-2  0.5852   
  1.526      4.323      3.548     0.1446E-2  0.5863   
  1.534      4.884      2.526     0.1455E-2  0.5875   
  1.542      5.205      1.721     0.1465E-2  0.5887   
  1.550      5.409      1.121     0.1476E-2  0.5898   
  1.558      5.530     0.2340E-1  0.1486E-2  0.5910   
  1.566      4.608     -1.266     0.1496E-2  0.5922   
  1.574      3.413     -1.121     0.1507E-2  0.5934   
  1.582      2.866     -.8070     0.1517E-2  0.5946   
  1.590      2.423     -.3211     0.1528E-2  0.5958   
  1.598      2.737     0.3479     0.1539E-2  0.5971   
  1.606      3.273     -.1335     0.1550E-2  0.5983   
  1.614      2.698     -.3369     0.1561E-2  0.5996   
  1.622      2.734     -.2191     0.1572E-2  0.6008   
  1.630      2.197     -.3265     0.1583E-2  0.6021   
  1.638      1.904     0.4609     0.1594E-2  0.6033   
  1.646      2.572      1.359     0.1606E-2  0.6046   
  1.654      4.347      1.132     0.1617E-2  0.6059   
  1.662      4.807     -1.144     0.1629E-2  0.6072   
  1.670      2.997     -2.363     0.1641E-2  0.6085   
  1.678      1.616     -1.838     0.1653E-2  0.6098   
  1.686      1.051     -1.108     0.1665E-2  0.6112   
  1.694     0.8289     -.4781     0.1677E-2  0.6125   
  1.702     0.7822     0.8306E-1  0.1689E-2  0.6139   
  1.710     0.9102     0.6055     0.1701E-2  0.6152   
  1.718      1.284     0.9269     0.1714E-2  0.6166   
    1.7257     1.3963     0.8978     0.0017     0.6180
    1.7337     1.4754     1.2641     0.0017     0.6193
  1.742      2.039      1.230     0.1751E-2  0.6207   
    1.7497     1.6978     0.7665     0.0018     0.6221
    1.7578     1.2118     1.2230     0.0018     0.6236
  1.766      1.180      1.933     0.1790E-2  0.6250   
  1.774      1.544      2.685     0.1803E-2  0.6264   
  1.782      2.403      3.087     0.1816E-2  0.6279   
  1.790      2.681      2.940     0.1829E-2  0.6293   
  1.798      2.974      3.836     0.1842E-2  0.6308   
  1.806      4.859      4.685     0.1855E-2  0.6323   
  1.814      7.150      2.892     0.1868E-2  0.6338   
  1.822      6.670      1.234     0.1882E-2  0.6353   
  1.830      6.583     0.5177     0.1895E-2  0.6368   
  1.838      6.411     -.1712     0.1908E-2  0.6383   
  1.846      6.222     -.9073     0.1922E-2  0.6399   
  1.854      5.038     -1.406     0.1935E-2  0.6414   
  1.862      4.956     -.1085     0.1949E-2  0.6430   
  1.870      7.150     -.4011     0.1962E-2  0.6445   
  1.878      6.845     -3.661     0.1976E-2  0.6461   
  1.886      4.409     -4.179     0.1989E-2  0.6477   
  1.894      3.082     -3.476     0.2002E-2  0.6493   
  1.902      2.624     -2.385     0.2016E-2  0.6509   
  1.910      3.029     -1.706     0.2029E-2  0.6525   
  1.918      3.818     -1.693     0.2043E-2  0.6541   
  1.926      3.791     -2.885     0.2056E-2  0.6558   
  1.934      2.877     -2.918     0.2069E-2  0.6574   
  1.942      2.617     -3.049     0.2082E-2  0.6591   
  1.950      1.676     -2.975     0.2095E-2  0.6608   
  1.958      1.114     -2.308     0.2108E-2  0.6624   
    1.9660     0.8991    -1.6337     0.0021     0.6641
    1.9740     0.8426    -0.9974     0.0021     0.6658
    1.9820     0.8869    -0.3529     0.0021     0.6676
    1.9900     1.0347     0.3557     0.0022     0.6693
    1.9980     1.3389     1.1982     0.0022     0.6710
  2.006      1.949      2.269     0.2180E-2  0.6728   
  2.014      3.284      3.642     0.2191E-2  0.6745   
  2.022      6.369      4.757     0.2202E-2  0.6763   
  2.030      11.07      2.827     0.2212E-2  0.6780   
  2.038      13.08     -3.047     0.2222E-2  0.6798   
  2.046      9.650     -7.986     0.2232E-2  0.6816   
  2.054      5.721     -8.665     0.2240E-2  0.6834   
  2.062      3.269     -7.706     0.2249E-2  0.6852   
  2.070      2.354     -6.642     0.2256E-2  0.6870   
  2.078      1.737     -6.237     0.2263E-2  0.6888   
  2.086      1.084     -5.663     0.2269E-2  0.6906   
  2.094     0.7377     -5.086     0.2274E-2  0.6924   
  2.102     0.5469     -4.626     0.2278E-2  0.6943   
  2.110     0.4279     -4.262     0.2281E-2  0.6961   
  2.118     0.3470     -3.966     0.2283E-2  0.6979   
  2.126     0.2887     -3.720     0.2283E-2  0.6997   
  2.134     0.2448     -3.512     0.2282E-2  0.7016   
  2.142     0.2107     -3.334     0.2279E-2  0.7034   
  2.150     0.1834     -3.179     0.2275E-2  0.7052   
  2.158     0.1610     -3.043     0.2268E-2  0.7070   
  2.166     0.1423     -2.923     0.2260E-2  0.7088   
  2.174     0.1262     -2.817     0.2249E-2  0.7107   
  2.182     0.1122     -2.722     0.2235E-2  0.7125   
  2.190     0.9952E-1  -2.638     0.2218E-2  0.7142   
  2.198     0.8783E-1  -2.563     0.2198E-2  0.7160   
  2.206     0.7661E-1  -2.498     0.2174E-2  0.7178   
  2.214     0.6534E-1  -2.441     0.2146E-2  0.7195   
  2.222     0.5339E-1  -2.393     0.2113E-2  0.7212   
  2.230     0.3982E-1  -2.354     0.2075E-2  0.7229   
  2.238     0.2310E-1  -2.327     0.2032E-2  0.7245   
  2.246     0.4774E-3  -2.313     0.1982E-2  0.7261   
  2.254     -.3358E-1  -2.318     0.1924E-2  0.7277   
  2.262     -.9163E-1  -2.350     0.1858E-2  0.7292   
  2.270     -.2063     -2.418     0.1783E-2  0.7307   
  2.278     -.4732     -2.514     0.1698E-2  0.7321   
  2.286     -1.090     -2.374     0.1600E-2  0.7334   
  2.294     -1.315     -1.360     0.1489E-2  0.7347   
  2.302     -.6348     -.9599     0.1361E-2  0.7358   
  2.310     -.2803     -1.045     0.1216E-2  0.7368   
  2.318     -.1370     -1.138     0.1049E-2  0.7378   
  2.326     -.7114E-1  -1.196     0.8583E-3  0.7385   
  2.334     -.3679E-1  -1.228     0.6388E-3  0.7392   
  2.342     -.1715E-1  -1.245     0.3858E-3  0.7396   
  2.350     -.5144E-2  -1.251     0.9333E-4  0.7398   
  2.358     0.2538E-2  -1.250     -.2462E-3  0.7398   
  2.366     0.7617E-2  -1.245     -.6419E-3  0.7394   
  2.374     0.1105E-1  -1.237     -.1106E-2  0.7388   
  2.382     0.1339E-1  -1.227     -.1652E-2  0.7377   
  2.390     0.1499E-1  -1.215     -.2299E-2  0.7362   
    2.3984     0.0161    -1.2025    -0.0031     0.7341
    2.4064     0.0168    -1.1892    -0.0040     0.7313
    2.4144     0.0173    -1.1755    -0.0051     0.7278
    2.4224     0.0175    -1.1614    -0.0065     0.7233
    2.4304     0.0176    -1.1473    -0.0083     0.7175
   2.43844    0.01764   -1.13314   -0.01046    0.71030
   2.44645    0.01757   -1.11900   -0.01329    0.70115
   2.45445    0.01744   -1.10496   -0.01700    0.68954
   2.46246    0.01726   -1.09105   -0.02200    0.67469
   2.47047    0.01705   -1.07730   -0.02894    0.65548
   2.47848    0.01681   -1.06373   -0.03894    0.63023
   2.48649    0.01655   -1.05037   -0.05406    0.59635
   2.49449    0.01628   -1.03722   -0.07835    0.54968
   2.50250    0.01601   -1.02429   -0.12068    0.48345
   2.51051    0.01572   -1.01158   -0.20289    0.38737
   2.51852    0.01544   -0.99910   -0.38676    0.25530
   2.52653    0.01515   -0.98685   -0.84306    0.18618
   2.53453    0.01487   -0.97483   -1.45362    0.84038
   2.54254    0.01458   -0.96304   -0.92949    1.62060
   2.55055    0.01430   -0.95148   -0.42315    1.58917
   2.55856    0.01403   -0.94014   -0.21762    1.45471
   2.56657    0.01376   -0.92901   -0.12730    1.35463
   2.57457    0.01349   -0.91811   -0.08145    1.28598
   2.58258    0.01323   -0.90741   -0.05536    1.23812
   2.59059    0.01297   -0.89693   -0.03919    1.20388
   2.59860    0.01272   -0.88664   -0.02849    1.17884
   2.60661    0.01247   -0.87656   -0.02105    1.16026
   2.61461    0.01223   -0.86667   -0.01566    1.14637
   2.62262    0.01200   -0.85697   -0.01161    1.13600
    2.6306     0.0118    -0.8475    -0.0085     1.1283
    2.6386     0.0115    -0.8381    -0.0060     1.1228
    2.6466     0.0113    -0.8290    -0.0040     1.1189
  2.655     0.1111E-1  -.8200     -.2389E-2   1.117   
  2.663     0.1090E-1  -.8112     -.1012E-2   1.115   
  2.671     0.1070E-1  -.8025     0.1621E-3   1.115   
  2.679     0.1050E-1  -.7940     0.1178E-2   1.116   
  2.687     0.1031E-1  -.7857     0.2070E-2   1.117   
    2.6947     0.0101    -0.7775     0.0029     1.1190
    2.7027     0.0099    -0.7695     0.0036     1.1216
    2.7107     0.0098    -0.7616     0.0042     1.1248
    2.7187     0.0096    -0.7539     0.0048     1.1284
    2.7267     0.0094    -0.7463     0.0054     1.1325
    2.7347     0.0093    -0.7388     0.0059     1.1371
    2.7427     0.0091    -0.7314     0.0064     1.1421
    2.7508     0.0089    -0.7242     0.0069     1.1474
    2.7588     0.0088    -0.7171     0.0074     1.1532
    2.7668     0.0086    -0.7102     0.0079     1.1593
    2.7748     0.0085    -0.7033     0.0084     1.1658
    2.7828     0.0083    -0.6966     0.0088     1.1727
    2.7908     0.0082    -0.6900     0.0093     1.1800
    2.7988     0.0081    -0.6835     0.0098     1.1877
    2.8068     0.0079    -0.6771     0.0103     1.1957
    2.8148     0.0078    -0.6708     0.0109     1.2042
    2.8228     0.0077    -0.6646     0.0114     1.2131
    2.8308     0.0076    -0.6585     0.0120     1.2225
    2.8388     0.0074    -0.6525     0.0127     1.2324
    2.8468     0.0073    -0.6466     0.0134     1.2428
    2.8549     0.0072    -0.6408     0.0141     1.2538
    2.8629     0.0071    -0.6350     0.0150     1.2654
    2.8709     0.0070    -0.6294     0.0159     1.2777
    2.8789     0.0069    -0.6239     0.0170     1.2909
    2.8869     0.0068    -0.6184     0.0182     1.3049
    2.8949     0.0067    -0.6131     0.0196     1.3199
    2.9029     0.0066    -0.6078     0.0213     1.3362
    2.9109     0.0065    -0.6026     0.0233     1.3539
    2.9189     0.0064    -0.5974     0.0257     1.3732
    2.9269     0.0063    -0.5924     0.0287     1.3947
    2.9349     0.0062    -0.5874     0.0326     1.4188
    2.9429     0.0061    -0.5825     0.0376     1.4462
    2.9510     0.0060    -0.5777     0.0445     1.4780
    2.9590     0.0059    -0.5729     0.0541     1.5157
    2.9670     0.0058    -0.5682     0.0683     1.5617
    2.9750     0.0057    -0.5636     0.0905     1.6198
    2.9830     0.0057    -0.5590     0.1283     1.6960
    2.9910     0.0056    -0.5545     0.1994     1.8000
    2.9990     0.0055    -0.5501     0.3530     1.9411
    3.0070     0.0054    -0.5457     0.7314     2.0664
    3.0150     0.0053    -0.5414     1.4108     1.6524
    3.0230     0.0053    -0.5372     1.1083     0.7223
    3.0310     0.0052    -0.5330     0.5180     0.6755
    3.0390     0.0051    -0.5288     0.2695     0.8288
    3.0470     0.0051    -0.5248     0.1639     0.9547
    3.0551     0.0050    -0.5208     0.1121     1.0473
    3.0631     0.0049    -0.5168     0.0835     1.1176
    3.0711     0.0049    -0.5129     0.0663     1.1734
    3.0791     0.0048    -0.5090     0.0553     1.2198
    3.0871     0.0047    -0.5052     0.0479     1.2597
    3.0951     0.0047    -0.5014     0.0428     1.2952
    3.1031     0.0046    -0.4977     0.0392     1.3274
    3.1111     0.0045    -0.4941     0.0366     1.3574
    3.1191     0.0045    -0.4904     0.0348     1.3857
    3.1271     0.0044    -0.4869     0.0335     1.4128
    3.1351     0.0044    -0.4833     0.0326     1.4391
    3.1431     0.0043    -0.4799     0.0320     1.4648
    3.1512     0.0043    -0.4764     0.0317     1.4902
    3.1592     0.0042    -0.4730     0.0316     1.5155
    3.1672     0.0042    -0.4697     0.0316     1.5407
    3.1752     0.0041    -0.4664     0.0319     1.5661
    3.1832     0.0041    -0.4631     0.0322     1.5917
    3.1912     0.0040    -0.4599     0.0327     1.6176
    3.1992     0.0040    -0.4567     0.0333     1.6440
    3.2072     0.0039    -0.4536     0.0340     1.6709
    3.2152     0.0039    -0.4505     0.0348     1.6983
    3.2232     0.0038    -0.4474     0.0357     1.7265
    3.2312     0.0038    -0.4443     0.0367     1.7555
    3.2392     0.0037    -0.4414     0.0379     1.7853
    3.2472     0.0037    -0.4384     0.0391     1.8161
    3.2553     0.0036    -0.4355     0.0405     1.8479
    3.2633     0.0036    -0.4326     0.0420     1.8808
    3.2713     0.0035    -0.4297     0.0436     1.9150
    3.2793     0.0035    -0.4269     0.0454     1.9506
    3.2873     0.0035    -0.4241     0.0474     1.9877
    3.2953     0.0034    -0.4213     0.0495     2.0263
    3.3033     0.0034    -0.4186     0.0518     2.0668
    3.3113     0.0033    -0.4159     0.0544     2.1092
  3.319     0.3307E-2  -.4133     0.5716E-1   2.154   
  3.327     0.3270E-2  -.4106     0.6023E-1   2.201   
  3.335     0.3232E-2  -.4080     0.6363E-1   2.250   
  3.343     0.3196E-2  -.4054     0.6738E-1   2.302   
  3.351     0.3159E-2  -.4029     0.7154E-1   2.358   
  3.359     0.3124E-2  -.4004     0.7618E-1   2.417   
  3.367     0.3089E-2  -.3979     0.8137E-1   2.479   
  3.375     0.3054E-2  -.3954     0.8721E-1   2.547   
  3.383     0.3020E-2  -.3930     0.9381E-1   2.619   
  3.391     0.2987E-2  -.3906     0.1013      2.696   
  3.399     0.2954E-2  -.3882     0.1099      2.780   
  3.407     0.2921E-2  -.3859     0.1198      2.872   
  3.415     0.2889E-2  -.3835     0.1313      2.971   
  3.423     0.2857E-2  -.3812     0.1448      3.081   
  3.431     0.2826E-2  -.3790     0.1609      3.202   
  3.439     0.2795E-2  -.3767     0.1801      3.337   
  3.447     0.2765E-2  -.3745     0.2034      3.488   
  3.455     0.2735E-2  -.3723     0.2322      3.659   
  3.463     0.2705E-2  -.3701     0.2683      3.855   
  3.471     0.2676E-2  -.3680     0.3146      4.083   
  3.479     0.2648E-2  -.3658     0.3755      4.351   
  3.487     0.2619E-2  -.3637     0.4580      4.671   
  3.495     0.2591E-2  -.3616     0.5737      5.064   
  3.504     0.2564E-2  -.3596     0.7438      5.556   
  3.512     0.2536E-2  -.3575      1.009      6.193   
  3.520     0.2510E-2  -.3555      1.454      7.048   
  3.528     0.2483E-2  -.3535      2.284      8.235   
  3.536     0.2457E-2  -.3515      4.053      9.874   
  3.544     0.2431E-2  -.3496      8.379      11.44   
  3.552     0.2405E-2  -.3476      16.60      7.174   
  3.560     0.2380E-2  -.3457      13.89     -4.321   
  3.568     0.2355E-2  -.3438      6.610     -5.236   
  3.576     0.2331E-2  -.3420      3.568     -3.295   
  3.584     0.2307E-2  -.3401      2.431     -1.570   
  3.592     0.2283E-2  -.3383      2.181     -.1502   
  3.600     0.2259E-2  -.3364      2.764     0.9589   
  3.608     0.2235E-2  -.3346      4.020     0.6603   
  3.616     0.2212E-2  -.3329      3.344     -.2431   
  3.624     0.2189E-2  -.3311      2.999     0.5502   
  3.632     0.2167E-2  -.3294      4.384     0.7610   
  3.640     0.2144E-2  -.3276      4.620     -1.721   
  3.648     0.2122E-2  -.3259      2.454     -2.263   
  3.656     0.2100E-2  -.3242      1.358     -1.542   
  3.664     0.2079E-2  -.3226     0.8950     -.8614   
  3.672     0.2057E-2  -.3209     0.6730     -.3144   
  3.680     0.2036E-2  -.3193     0.5559     0.1404   
  3.688     0.2015E-2  -.3176     0.4932     0.5397   
  3.696     0.1995E-2  -.3160     0.4643     0.9091   
  3.704     0.1974E-2  -.3144     0.4610      1.268   
  3.712     0.1954E-2  -.3129     0.4816      1.633   
  3.720     0.1934E-2  -.3113     0.5303      2.022   
  3.728     0.1914E-2  -.3098     0.6186      2.457   
  3.736     0.1894E-2  -.3082     0.7722      2.970   
  3.744     0.1875E-2  -.3067      1.050      3.607   
  3.752     0.1855E-2  -.3052      1.600      4.437   
  3.760     0.1836E-2  -.3038      2.848      5.483   
  3.768     0.1817E-2  -.3023      5.907      5.927   
  3.776     0.1798E-2  -.3009      9.093      1.527   
  3.784     0.1780E-2  -.2994      5.485     -2.097   
  3.792     0.1761E-2  -.2980      2.824     -1.330   
  3.800     0.1743E-2  -.2966      1.845     -.1167   
  3.808     0.1725E-2  -.2952      1.562     0.9825   
  3.816     0.1707E-2  -.2938      1.708      2.051   
  3.824     0.1689E-2  -.2925      2.434      3.159   
  3.832     0.1671E-2  -.2911      4.329      3.711   
  3.840     0.1653E-2  -.2898      5.623      1.730   
  3.848     0.1636E-2  -.2885      4.433      1.448   
  3.856     0.1619E-2  -.2872      5.427      2.749   
  3.864     0.1601E-2  -.2859      9.055      1.164   
  3.872     0.1584E-2  -.2846      7.475     -4.154   
  3.880     0.1567E-2  -.2834      3.721     -4.268   
  3.888     0.1550E-2  -.2821      2.139     -3.009   
  3.896     0.1533E-2  -.2809      1.541     -1.885   
  3.904     0.1517E-2  -.2797      1.403     -.9104   
  3.912     0.1500E-2  -.2784      1.680     0.1553E-1
  3.920     0.1484E-2  -.2773      2.738     0.7645   
  3.928     0.1467E-2  -.2761      4.675     -.2975   
  3.936     0.1451E-2  -.2749      3.548     -2.727   
  3.944     0.1434E-2  -.2737      1.792     -2.554   
  3.952     0.1418E-2  -.2726      1.052     -1.877   
  3.960     0.1402E-2  -.2715     0.7292     -1.303   
  3.968     0.1386E-2  -.2704     0.5685     -.8384   
  3.976     0.1370E-2  -.2693     0.4812     -.4444   
  3.984     0.1354E-2  -.2682     0.4328     -.9326E-1
  3.992     0.1338E-2  -.2671     0.4083     0.2338   
  4.000     0.1322E-2  -.2660     0.4010     0.5504   
# 
# 02/16/2017 at 17:16 YAMBO_PL @ aiken [start]
# 02/16/2017 at 17:17                  [end]
#  
# Timing   [Min/Max/Average]: 33s/33s/33s
#
# .-Input file : INPUTS/04_bse_pl_causal_111
# | optics                       # [R OPT] Optics
# | bse                          # [R BSE] Bethe Salpeter Equation.
# | bsk                          # [R BSK] Bethe Salpeter Equation kernel
# | bss                          # [R BSS] Bethe Salpeter Equation solver
# | em1s                         # [R Xs] Static Inverse Dielectric Matrix
# | rim_cut                      # [R RIM CUT] Coulomb potential
# | photolum                     # [R] Photo-Luminescence
# | BoseTemp= 0.000000     eV    # Bosonic Temperature
# | DBsIOoff= "DIP"              # [IO] Space-separated list of DB with NO I/O. DB=(DIP,X,HF,COLLs,J,GF,CARRIERs,W,SC,BS,ALL)
# | FFTGvecs= 10           Ha    # [FFT] Plane-waves
# | RandQpts= 1000000            # [RIM] Number of random q-points in the BZ
# | RandGvec= 1            RL    # [RIM] Coulomb interaction RS components
# | CUTGeo= "box z"              # [CUT] Coulomb Cutoff geometry: box/cylinder/sphere X/Y/Z/XY..
# | % CUTBox
# |   0.00000 |  0.00000 | 38.00000 |        # [CUT] [au] Box sides
# | %
# | CUTRadius= 0.000000          # [CUT] [au] Sphere/Cylinder radius
# | CUTCylLen= 0.000000          # [CUT] [au] Cylinder length
# | Chimod= "hartree"            # [X] IP/Hartree/ALDA/LRC/BSfxc
# | BSEmod= "retarded"           # [BSE] resonant/retarded/coupling
# | BSKmod= "SEX"                # [BSE] IP/Hartree/HF/ALDA/SEX/BSfxc
# | BSSmod= "d"                  # [BSS] (h)aydock/(d)iagonalization/(i)nversion/(t)ddft`
# | BSENGexx= 10           Ha    # [BSK] Exchange components
# | BSENGBlk= 1010         mHa   # [BSK] Screened interaction block size
# | #WehCpl                      # [BSK] eh interaction included also in coupling
# | % PL_weights
# |  1.000000 | 1.000000 | 1.000000 |        # [PL] [cc] Weights of the carthesian components of the emitted radiation
# | %
# | % KfnQP_E
# |  1.038620 | 1.000000 | 1.000000 |        # [EXTQP BSK BSS] E parameters  (c/v) eV|adim|adim
# | %
# | KfnRTdb= "f @ 0 fs < ./03_ypp_carriers/ndb.RT_carriers" # [EXTRT BSK BSS] Database
# | RfnRTdb= "f @ 0 fs < ./03_ypp_carriers/ndb.RT_carriers" # [EXTRT R] Database
# | % BEnRange
# | -4.000000 | 4.000000 | eV    # [BSS] Energy range
# | %
# | % BDmRange
# |    0.0100 |   0.0100 | eV    # [BSS] Damping range
# | %
# | BEnSteps= 1000               # [BSS] Energy steps
# | % BLongDir
# | 0.1000E-4 | 0.000    | 0.000    |        # [BSS] [cc] Electric Field
# | %
# | % BSEBands
# |  25 | 28 |                   # [BSK] Bands range
# | %
# | % BndsRnXs
# |    1 |  60 |                 # [Xs] Polarization function bands
# | %
# | NGsBlkXs= 1010         mHa   # [Xs] Response block size
# | GrFnTpXs= "R"                # [Xs] Green`s function (T)ordered,(R)etarded,(r)senant,(a)ntiresonant [T, R, r, Ta, Ra]
# | % DmRngeXs
# |   0.10000 |  0.10000 | eV    # [Xs] Damping range
# | %
# | % LongDrXs
# | 0.1000E-4 | 0.000    | 0.000    |        # [Xs] [cc] Electric Field
# | %
