#                                                           
#                                                           
# Y88b    /   e           e    e      888~~\    ,88~-_      
#  Y88b  /   d8b         d8b  d8b     888   |  d888   \     
#   Y88b/   /Y88b       d888bdY88b    888 _/  88888    |    
#    Y8Y   /  Y88b     / Y88Y Y888b   888  \  88888    |    
#     Y   /____Y88b   /   YY   Y888b  888   |  Y888   /     
#    /   /      Y88b /          Y888b 888__/    `88_-~      
#                                                           
#                                                           
#       Version 4.1.2 Revision 14030 Hash 116e4f9           
#                       MPI Build                           
#               http://www.yambo-code.org                   
#
# Absorption @ Q(1) [q->0 direction] :0.1000E-4  0.000     0.000   
#
#
# - Energies      are Slater exchange(X)+Perdew & Zunger(C)+Scissor
# - Wavefunctions are Slater exchange(X)+Perdew & Zunger(C)
#
# - The Green`s function is Retarded -
# - Using the Length Gauge -
# - [r,Vnl] *is* included -
#
#   BSK|Identifier              :2327
#      |Dimension               :144
#      |Bands                   :25 - 28
#      |Exchange           [res]: yes
#      |Correlation        [res]: yes
#      |Kernel`s coupling       : no
#      |Exchange           [cpl]: no
#      |Correlation        [cpl]: no
#      |W interaction is bare   : no
#      |ALDA kernel in R-space  : no
#      |RL vectors    [exchange]:2055
#      |RL vectors [correlation]:85
#      |E/h energy range    [ev]:-1.000000 - -1.000000
#      |Coupling range     [o/o]: 100.0000 -  100.0000
#    W |Interaction is diagonal : no
#      |Matrix size             :85
#      |Bands                   :1 - 60
#      |e/h energy range    [ev]:-1.000000 - -1.000000
#      |Poles              [o/o]: 100.0000
#      |RL vectors in the sum   :2055
#      |[r,Vnl] included        : yes
#      |Field direction         :0.1000E-4  0.000000  0.000000
#      |Coulomb Cutoff          :box z
#      |xc-Kernel               :none
#   RIM|RL components      [col]:1
#      |Random points      [col]:1000000
#
#  E/ev[1]    EPS-Im[2]  EPS-Re[3]  EPSo-Im[4] EPSo-Re[5]
#  E/ev[1]    PL[2]      PLo[3]
 -4.000     -.2899E-2  0.5267     -.8857      4.269   
 -3.992     -.2922E-2  0.5243     -.8298      3.594   
 -3.984     -.2945E-2  0.5220     -.7963      2.953   
 -3.976     -.2968E-2  0.5196     -.7829      2.330   
 -3.968     -.2992E-2  0.5172     -.7893      1.710   
 -3.960     -.3016E-2  0.5148     -.8168      1.078   
 -3.952     -.3040E-2  0.5124     -.8692     0.4168   
 -3.944     -.3065E-2  0.5100     -.9533     -.2951   
 -3.936     -.3089E-2  0.5075     -1.081     -1.084   
 -3.928     -.3114E-2  0.5050     -1.272     -1.987   
 -3.920     -.3140E-2  0.5025     -1.564     -3.060   
 -3.912     -.3165E-2  0.5000     -2.025     -4.384   
 -3.904     -.3191E-2  0.4974     -2.797     -6.094   
 -3.896     -.3217E-2  0.4949     -4.205     -8.403   
 -3.888     -.3244E-2  0.4923     -7.096     -11.60   
 -3.880     -.3271E-2  0.4897     -13.95     -15.44   
 -3.872     -.3298E-2  0.4871     -29.94     -13.19   
 -3.864     -.3325E-2  0.4844     -35.95      12.05   
 -3.856     -.3353E-2  0.4817     -18.11      21.49   
 -3.848     -.3381E-2  0.4790     -8.735      18.16   
 -3.840     -.3409E-2  0.4763     -4.918      14.65   
 -3.832     -.3438E-2  0.4736     -3.141      12.10   
 -3.824     -.3467E-2  0.4708     -2.197      10.24   
 -3.816     -.3497E-2  0.4680     -1.643      8.846   
 -3.808     -.3527E-2  0.4652     -1.295      7.745   
 -3.800     -.3557E-2  0.4624     -1.063      6.846   
 -3.792     -.3587E-2  0.4595     -.9043      6.087   
 -3.784     -.3618E-2  0.4566     -.7927      5.426   
 -3.776     -.3650E-2  0.4537     -.7140      4.837   
 -3.768     -.3681E-2  0.4508     -.6594      4.297   
 -3.760     -.3713E-2  0.4478     -.6235      3.792   
 -3.752     -.3746E-2  0.4448     -.6032      3.307   
   -3.7437    -0.0038     0.4418    -0.5970     2.8336
   -3.7357    -0.0038     0.4388    -0.6044     2.3594
   -3.7277    -0.0038     0.4357    -0.6265     1.8741
   -3.7197    -0.0039     0.4326    -0.6657     1.3660
   -3.7117    -0.0039     0.4295    -0.7267     0.8207
   -3.7037    -0.0039     0.4264    -0.8172     0.2198
   -3.6957    -0.0040     0.4232    -0.9511    -0.4619
   -3.6877    -0.0040     0.4200    -1.1530    -1.2611
   -3.6797    -0.0041     0.4167    -1.4705    -2.2340
   -3.6717    -0.0041     0.4135    -2.0037    -3.4697
 -3.664     -.4131E-2  0.4102     -2.988     -5.108   
 -3.656     -.4169E-2  0.4069     -5.062     -7.305   
 -3.648     -.4207E-2  0.4035     -10.09     -9.543   
 -3.640     -.4246E-2  0.4001     -20.08     -5.393   
 -3.632     -.4286E-2  0.3967     -17.88      8.572   
 -3.624     -.4325E-2  0.3933     -8.827      9.859   
 -3.616     -.4366E-2  0.3898     -4.995      7.120   
 -3.608     -.4407E-2  0.3863     -3.592      4.527   
   -3.5996    -0.0044     0.3827    -3.2171     2.1946
   -3.5916    -0.0045     0.3791    -3.5042    -0.1609
 -3.584     -.4533E-2  0.3755     -4.571     -2.863   
 -3.576     -.4576E-2  0.3719     -7.135     -6.260   
 -3.568     -.4620E-2  0.3682     -13.51     -10.16   
 -3.560     -.4664E-2  0.3645     -28.55     -8.222   
 -3.552     -.4709E-2  0.3607     -34.17      15.51   
 -3.544     -.4755E-2  0.3569     -17.25      24.34   
 -3.536     -.4801E-2  0.3531     -8.336      21.12   
 -3.528     -.4848E-2  0.3493     -4.695      17.75   
 -3.520     -.4895E-2  0.3453     -2.988      15.31   
 -3.512     -.4944E-2  0.3414     -2.072      13.56   
 -3.504     -.4992E-2  0.3374     -1.527      12.25   
 -3.495     -.5042E-2  0.3334     -1.177      11.24   
 -3.487     -.5092E-2  0.3294     -.9391      10.43   
 -3.479     -.5143E-2  0.3253     -.7695      9.776   
 -3.471     -.5195E-2  0.3211     -.6442      9.228   
 -3.463     -.5248E-2  0.3169     -.5489      8.762   
 -3.455     -.5301E-2  0.3127     -.4745      8.361   
 -3.447     -.5355E-2  0.3084     -.4152      8.011   
 -3.439     -.5410E-2  0.3041     -.3671      7.703   
 -3.431     -.5466E-2  0.2998     -.3276      7.428   
 -3.423     -.5522E-2  0.2954     -.2945      7.182   
 -3.415     -.5579E-2  0.2909     -.2667      6.959   
 -3.407     -.5638E-2  0.2865     -.2429      6.757   
 -3.399     -.5697E-2  0.2819     -.2224      6.572   
 -3.391     -.5757E-2  0.2773     -.2047      6.402   
 -3.383     -.5818E-2  0.2727     -.1892      6.246   
 -3.375     -.5879E-2  0.2680     -.1755      6.101   
 -3.367     -.5942E-2  0.2633     -.1634      5.966   
   -3.3594    -0.0060     0.2585    -0.1526     5.8397
   -3.3514    -0.0061     0.2537    -0.1430     5.7218
   -3.3433    -0.0061     0.2488    -0.1343     5.6112
   -3.3353    -0.0062     0.2438    -0.1265     5.5072
   -3.3273    -0.0063     0.2388    -0.1194     5.4091
   -3.3193    -0.0063     0.2338    -0.1129     5.3164
   -3.3113    -0.0064     0.2287    -0.1070     5.2286
   -3.3033    -0.0065     0.2235    -0.1016     5.1453
   -3.2953    -0.0066     0.2183    -0.0966     5.0661
   -3.2873    -0.0066     0.2130    -0.0921     4.9907
   -3.2793    -0.0067     0.2077    -0.0878     4.9189
   -3.2713    -0.0068     0.2023    -0.0839     4.8503
   -3.2633    -0.0069     0.1968    -0.0803     4.7846
   -3.2553    -0.0069     0.1913    -0.0769     4.7218
   -3.2472    -0.0070     0.1857    -0.0737     4.6616
   -3.2392    -0.0071     0.1801    -0.0708     4.6039
   -3.2312    -0.0072     0.1744    -0.0680     4.5484
   -3.2232    -0.0073     0.1686    -0.0654     4.4950
   -3.2152    -0.0073     0.1627    -0.0630     4.4437
   -3.2072    -0.0074     0.1568    -0.0607     4.3942
   -3.1992    -0.0075     0.1508    -0.0586     4.3465
   -3.1912    -0.0076     0.1448    -0.0566     4.3004
   -3.1832    -0.0077     0.1387    -0.0546     4.2559
   -3.1752    -0.0078     0.1324    -0.0528     4.2130
   -3.1672    -0.0079     0.1262    -0.0511     4.1714
   -3.1592    -0.0080     0.1198    -0.0495     4.1311
   -3.1512    -0.0081     0.1134    -0.0479     4.0922
   -3.1431    -0.0082     0.1069    -0.0465     4.0544
   -3.1351    -0.0083     0.1003    -0.0451     4.0178
   -3.1271    -0.0084     0.0936    -0.0437     3.9822
   -3.1191    -0.0085     0.0868    -0.0425     3.9477
   -3.1111    -0.0086     0.0800    -0.0413     3.9142
   -3.1031    -0.0087     0.0731    -0.0401     3.8817
   -3.0951    -0.0088     0.0660    -0.0390     3.8500
   -3.0871    -0.0089     0.0589    -0.0380     3.8192
   -3.0791    -0.0091     0.0517    -0.0370     3.7892
   -3.0711    -0.0092     0.0444    -0.0360     3.7601
   -3.0631    -0.0093     0.0370    -0.0351     3.7316
   -3.0551    -0.0094     0.0296    -0.0342     3.7039
   -3.0470    -0.0095     0.0220    -0.0333     3.6769
   -3.0390    -0.0097     0.0143    -0.0325     3.6506
   -3.0310    -0.0098     0.0065    -0.0317     3.6249
 -3.023     -.9926E-2  -.1394E-2  -.3095E-1   3.600   
   -3.0150    -0.0101    -0.0094    -0.0302     3.5754
  -3.00701   -0.01020   -0.01751   -0.02951    3.55146
  -2.99900   -0.01034   -0.02573   -0.02883    3.52811
  -2.99099   -0.01048   -0.03406   -0.02818    3.50530
  -2.98298   -0.01063   -0.04251   -0.02755    3.48299
  -2.97498   -0.01078   -0.05108   -0.02694    3.46118
  -2.96697   -0.01093   -0.05977   -0.02636    3.43985
  -2.95896   -0.01109   -0.06859   -0.02579    3.41898
  -2.95095   -0.01125   -0.07753   -0.02524    3.39856
  -2.94294   -0.01141   -0.08660   -0.02471    3.37857
  -2.93494   -0.01157   -0.09580   -0.02420    3.35900
  -2.92693   -0.01174   -0.10513   -0.02370    3.33983
  -2.91892   -0.01192   -0.11460   -0.02322    3.32105
  -2.91091   -0.01209   -0.12421   -0.02275    3.30265
  -2.90290   -0.01227   -0.13397   -0.02230    3.28462
  -2.89490   -0.01246   -0.14387   -0.02186    3.26694
  -2.88689   -0.01265   -0.15392   -0.02144    3.24960
  -2.87888   -0.01284   -0.16412   -0.02103    3.23261
  -2.87087   -0.01304   -0.17449   -0.02063    3.21593
  -2.86286   -0.01324   -0.18501   -0.02024    3.19957
  -2.85486   -0.01345   -0.19569   -0.01986    3.18352
  -2.84685   -0.01366   -0.20655   -0.01950    3.16776
  -2.83884   -0.01388   -0.21757   -0.01914    3.15230
  -2.83083   -0.01410   -0.22877   -0.01880    3.13711
  -2.82282   -0.01433   -0.24015   -0.01846    3.12220
  -2.81481   -0.01456   -0.25172   -0.01813    3.10755
  -2.80681   -0.01480   -0.26348   -0.01782    3.09316
  -2.79880   -0.01505   -0.27542   -0.01751    3.07902
  -2.79079   -0.01530   -0.28757   -0.01720    3.06512
  -2.78278   -0.01556   -0.29992   -0.01691    3.05147
  -2.77477   -0.01582   -0.31248   -0.01662    3.03804
  -2.76677   -0.01609   -0.32526   -0.01635    3.02485
  -2.75876   -0.01637   -0.33825   -0.01607    3.01187
  -2.75075   -0.01665   -0.35147   -0.01581    2.99910
  -2.74274   -0.01695   -0.36492   -0.01555    2.98655
  -2.73473   -0.01725   -0.37861   -0.01530    2.97420
  -2.72673   -0.01756   -0.39254   -0.01505    2.96205
  -2.71872   -0.01788   -0.40673   -0.01481    2.95010
  -2.71071   -0.01820   -0.42117   -0.01458    2.93833
  -2.70270   -0.01854   -0.43587   -0.01435    2.92675
  -2.69469   -0.01888   -0.45085   -0.01413    2.91535
  -2.68669   -0.01924   -0.46611   -0.01391    2.90412
  -2.67868   -0.01960   -0.48165   -0.01370    2.89307
  -2.67067   -0.01998   -0.49749   -0.01349    2.88219
  -2.66266   -0.02036   -0.51364   -0.01328    2.87147
  -2.65465   -0.02076   -0.53010   -0.01309    2.86092
  -2.64665   -0.02117   -0.54689   -0.01289    2.85052
  -2.63864   -0.02159   -0.56400   -0.01270    2.84027
  -2.63063   -0.02203   -0.58147   -0.01252    2.83018
  -2.62262   -0.02248   -0.59928   -0.01233    2.82023
  -2.61461   -0.02294   -0.61746   -0.01216    2.81043
  -2.60661   -0.02342   -0.63602   -0.01198    2.80076
  -2.59860   -0.02392   -0.65497   -0.01181    2.79124
  -2.59059   -0.02443   -0.67432   -0.01164    2.78185
  -2.58258   -0.02496   -0.69408   -0.01148    2.77259
  -2.57457   -0.02550   -0.71428   -0.01132    2.76347
  -2.56657   -0.02607   -0.73492   -0.01116    2.75447
  -2.55856   -0.02665   -0.75601   -0.01101    2.74559
  -2.55055   -0.02725   -0.77759   -0.01086    2.73684
  -2.54254   -0.02788   -0.79965   -0.01071    2.72820
  -2.53453   -0.02853   -0.82223   -0.01057    2.71969
  -2.52653   -0.02920   -0.84533   -0.01042    2.71128
  -2.51852   -0.02990   -0.86899   -0.01028    2.70299
  -2.51051   -0.03063   -0.89321   -0.01015    2.69481
  -2.50250   -0.03138   -0.91802   -0.01001    2.68674
   -2.4945    -0.0322    -0.9434    -0.0099     2.6788
   -2.4865    -0.0330    -0.9695    -0.0098     2.6709
   -2.4785    -0.0338    -0.9962    -0.0096     2.6632
   -2.4705    -0.0347    -1.0237    -0.0095     2.6555
   -2.4625    -0.0356    -1.0518    -0.0094     2.6479
   -2.4545    -0.0366    -1.0807    -0.0093     2.6405
   -2.4464    -0.0376    -1.1104    -0.0091     2.6331
   -2.4384    -0.0386    -1.1409    -0.0090     2.6258
   -2.4304    -0.0397    -1.1722    -0.0089     2.6186
   -2.4224    -0.0409    -1.2044    -0.0088     2.6115
   -2.4144    -0.0421    -1.2376    -0.0087     2.6045
   -2.4064    -0.0433    -1.2718    -0.0086     2.5976
   -2.3984    -0.0446    -1.3070    -0.0085     2.5908
   -2.3904    -0.0460    -1.3432    -0.0084     2.5840
   -2.3824    -0.0475    -1.3806    -0.0083     2.5774
   -2.3744    -0.0490    -1.4192    -0.0082     2.5708
   -2.3664    -0.0506    -1.4590    -0.0081     2.5643
   -2.3584    -0.0523    -1.5002    -0.0080     2.5578
   -2.3504    -0.0541    -1.5428    -0.0079     2.5515
   -2.3423    -0.0560    -1.5868    -0.0078     2.5452
   -2.3343    -0.0581    -1.6325    -0.0077     2.5390
   -2.3263    -0.0602    -1.6798    -0.0076     2.5329
   -2.3183    -0.0625    -1.7288    -0.0075     2.5268
   -2.3103    -0.0649    -1.7798    -0.0074     2.5208
   -2.3023    -0.0675    -1.8327    -0.0074     2.5149
   -2.2943    -0.0703    -1.8878    -0.0073     2.5090
   -2.2863    -0.0733    -1.9453    -0.0072     2.5032
   -2.2783    -0.0766    -2.0052    -0.0071     2.4975
   -2.2703    -0.0800    -2.0677    -0.0070     2.4919
   -2.2623    -0.0838    -2.1332    -0.0069     2.4863
   -2.2543    -0.0879    -2.2018    -0.0069     2.4807
   -2.2462    -0.0924    -2.2737    -0.0068     2.4753
   -2.2382    -0.0972    -2.3494    -0.0067     2.4699
   -2.2302    -0.1026    -2.4292    -0.0066     2.4645
   -2.2222    -0.1085    -2.5134    -0.0066     2.4592
   -2.2142    -0.1151    -2.6026    -0.0065     2.4540
   -2.2062    -0.1225    -2.6973    -0.0064     2.4489
   -2.1982    -0.1307    -2.7982    -0.0063     2.4437
   -2.1902    -0.1401    -2.9061    -0.0063     2.4387
   -2.1822    -0.1508    -3.0219    -0.0062     2.4337
   -2.1742    -0.1632    -3.1467    -0.0061     2.4287
   -2.1662    -0.1776    -3.2820    -0.0061     2.4238
   -2.1582    -0.1946    -3.4296    -0.0060     2.4190
   -2.1502    -0.2150    -3.5917    -0.0059     2.4142
   -2.1421    -0.2398    -3.7712    -0.0059     2.4095
   -2.1341    -0.2706    -3.9722    -0.0058     2.4048
   -2.1261    -0.3098    -4.1997    -0.0058     2.4001
   -2.1181    -0.3612    -4.4612    -0.0057     2.3956
   -2.1101    -0.4306    -4.7671    -0.0056     2.3910
   -2.1021    -0.5286    -5.1331    -0.0056     2.3865
 -2.094     -.6747     -5.583     -.5525E-2   2.382   
 -2.086     -.9082     -6.155     -.5467E-2   2.378   
 -2.078     -1.318     -6.910     -.5411E-2   2.373   
 -2.070     -2.136     -7.924     -.5355E-2   2.369   
 -2.062     -4.013     -9.087     -.5300E-2   2.365   
 -2.054     -7.764     -8.544     -.5245E-2   2.361   
 -2.046     -9.479     -5.115     -.5192E-2   2.356   
 -2.038     -10.06     -1.092     -.5139E-2   2.352   
 -2.030     -6.017      1.964     -.5086E-2   2.348   
   -2.0220    -3.0330     1.0309    -0.0050     2.3441
   -2.0140    -1.8004    -0.2250    -0.0050     2.3400
   -2.0060    -1.2449    -1.2188    -0.0049     2.3361
   -1.9980    -0.9645    -2.0090    -0.0049     2.3321
   -1.9900    -0.8144    -2.6742    -0.0048     2.3283
   -1.9820    -0.7353    -3.2676    -0.0048     2.3244
   -1.9740    -0.7003    -3.8245    -0.0047     2.3206
   -1.9660    -0.6967    -4.3702    -0.0047     2.3168
 -1.958     -.7192     -4.925     -.4646E-2   2.313   
 -1.950     -.7667     -5.507     -.4600E-2   2.309   
 -1.942     -.8420     -6.136     -.4554E-2   2.306   
 -1.934     -.9524     -6.835     -.4510E-2   2.302   
 -1.926     -1.111     -7.632     -.4465E-2   2.298   
 -1.918     -1.344     -8.569     -.4422E-2   2.295   
 -1.910     -1.698     -9.705     -.4379E-2   2.291   
 -1.902     -2.279     -11.13     -.4336E-2   2.288   
 -1.894     -3.335     -12.99     -.4294E-2   2.284   
 -1.886     -5.558     -15.32     -.4252E-2   2.281   
 -1.878     -10.52     -16.81     -.4211E-2   2.278   
 -1.870     -14.92     -12.79     -.4170E-2   2.274   
 -1.862     -14.61     -11.32     -.4130E-2   2.271   
 -1.854     -17.50     -11.09     -.4090E-2   2.268   
 -1.846     -20.15     -6.233     -.4051E-2   2.264   
 -1.838     -19.29     -5.167     -.4012E-2   2.261   
 -1.830     -23.80     0.2635     -.3974E-2   2.258   
 -1.822     -16.96      7.561     -.3936E-2   2.255   
 -1.814     -11.78      6.461     -.3899E-2   2.252   
 -1.806     -8.071      5.358     -.3862E-2   2.249   
 -1.798     -5.529      2.296     -.3825E-2   2.246   
 -1.790     -4.753     -1.046     -.3789E-2   2.242   
 -1.782     -5.034     -4.462     -.3753E-2   2.239   
 -1.774     -6.390     -8.335     -.3718E-2   2.236   
 -1.766     -9.673     -13.17     -.3683E-2   2.233   
 -1.758     -17.70     -19.00     -.3648E-2   2.231   
 -1.750     -37.55     -19.44     -.3614E-2   2.228   
 -1.742     -53.07      11.63     -.3580E-2   2.225   
 -1.734     -29.08      30.93     -.3546E-2   2.222   
 -1.726     -13.80      27.03     -.3513E-2   2.219   
 -1.718     -7.617      21.80     -.3480E-2   2.216   
 -1.710     -4.795      17.94     -.3448E-2   2.214   
 -1.702     -3.315      15.14     -.3416E-2   2.211   
 -1.694     -2.453      13.05     -.3384E-2   2.208   
 -1.686     -1.912      11.42     -.3353E-2   2.205   
 -1.678     -1.554      10.11     -.3321E-2   2.203   
 -1.670     -1.308      9.006     -.3291E-2   2.200   
 -1.662     -1.139      8.058     -.3260E-2   2.197   
 -1.654     -1.025      7.216     -.3230E-2   2.195   
 -1.646     -.9593      6.445     -.3200E-2   2.192   
 -1.638     -.9465      5.716     -.3171E-2   2.190   
 -1.630     -1.015      5.014     -.3141E-2   2.187   
 -1.622     -1.183      4.376     -.3112E-2   2.185   
 -1.614     -1.479      3.766     -.3084E-2   2.182   
 -1.606     -1.960      3.597     -.3055E-2   2.180   
 -1.598     -1.683      3.501     -.3027E-2   2.177   
   -1.5896    -1.5095     2.6978    -0.0030     2.1749
   -1.5816    -1.7923     1.6627    -0.0030     2.1725
   -1.5736    -2.7193     0.5181    -0.0029     2.1701
 -1.566     -4.771     0.9714E-1  -.2917E-2   2.168   
 -1.558     -5.727      1.331     -.2891E-2   2.165   
 -1.550     -6.681     0.6634     -.2864E-2   2.163   
 -1.542     -10.87      2.670     -.2838E-2   2.161   
 -1.534     -8.985      9.195     -.2812E-2   2.159   
 -1.526     -4.378      9.467     -.2786E-2   2.156   
 -1.518     -2.379      8.073     -.2760E-2   2.154   
 -1.510     -1.521      6.895     -.2735E-2   2.152   
 -1.502     -1.098      5.992     -.2710E-2   2.150   
 -1.493     -.8642      5.273     -.2685E-2   2.148   
 -1.485     -.7261      4.671     -.2661E-2   2.145   
 -1.477     -.6423      4.144     -.2636E-2   2.143   
 -1.469     -.5930      3.664     -.2612E-2   2.141   
 -1.461     -.5681      3.209     -.2588E-2   2.139   
 -1.453     -.5631      2.766     -.2564E-2   2.137   
   -1.4454    -0.5768     2.3185    -0.0025     2.1350
   -1.4374    -0.6109     1.8538    -0.0025     2.1330
   -1.4294    -0.6706     1.3553    -0.0025     2.1310
   -1.4214    -0.7664     0.8020    -0.0025     2.1290
   -1.4134    -0.9192     0.1639    -0.0024     2.1270
   -1.4054    -1.1717    -0.6042    -0.0024     2.1251
   -1.3974    -1.6205    -1.5734    -0.0024     2.1231
 -1.389     -2.512     -2.843     -.2382E-2   2.121   
 -1.381     -4.558     -4.395     -.2360E-2   2.119   
 -1.373     -9.432     -4.553     -.2338E-2   2.117   
 -1.365     -12.70      2.601     -.2317E-2   2.116   
 -1.357     -7.253      6.275     -.2295E-2   2.114   
 -1.349     -4.078      4.784     -.2274E-2   2.112   
 -1.341     -3.199      2.877     -.2253E-2   2.110   
 -1.333     -3.717      1.369     -.2232E-2   2.108   
 -1.325     -4.729      1.544     -.2212E-2   2.107   
 -1.317     -3.799      1.522     -.2191E-2   2.105   
 -1.309     -3.622     -.1529     -.2171E-2   2.103   
 -1.301     -5.105     -1.969     -.2150E-2   2.101   
 -1.293     -7.911     -1.733     -.2130E-2   2.100   
 -1.285     -8.042     -1.070     -.2111E-2   2.098   
 -1.277     -10.69     -3.093     -.2091E-2   2.096   
 -1.269     -18.24     0.6524     -.2071E-2   2.095   
 -1.261     -14.80      11.30     -.2052E-2   2.093   
 -1.253     -7.500      11.30     -.2033E-2   2.091   
 -1.245     -4.564      8.611     -.2013E-2   2.090   
 -1.237     -3.632      6.067     -.1994E-2   2.088   
 -1.229     -3.762      3.624     -.1976E-2   2.086   
 -1.221     -5.051     0.9649     -.1957E-2   2.085   
 -1.213     -8.777     -1.895     -.1938E-2   2.083   
 -1.205     -17.96     -1.240     -.1920E-2   2.082   
 -1.197     -21.93      13.20     -.1902E-2   2.080   
 -1.189     -11.28      18.94     -.1884E-2   2.079   
 -1.181     -5.517      16.80     -.1866E-2   2.077   
 -1.173     -3.153      14.53     -.1848E-2   2.076   
 -1.165     -2.040      12.86     -.1830E-2   2.074   
 -1.157     -1.438      11.64     -.1812E-2   2.073   
 -1.149     -1.077      10.72     -.1795E-2   2.071   
 -1.141     -.8432      10.00     -.1777E-2   2.070   
 -1.133     -.6822      9.419     -.1760E-2   2.068   
 -1.125     -.5663      8.936     -.1743E-2   2.067   
 -1.117     -.4798      8.529     -.1726E-2   2.066   
 -1.109     -.4132      8.180     -.1709E-2   2.064   
 -1.101     -.3607      7.876     -.1692E-2   2.063   
 -1.093     -.3185      7.608     -.1676E-2   2.062   
 -1.085     -.2839      7.370     -.1659E-2   2.060   
 -1.077     -.2552      7.157     -.1643E-2   2.059   
 -1.069     -.2310      6.964     -.1626E-2   2.058   
 -1.061     -.2105      6.789     -.1610E-2   2.056   
 -1.053     -.1928      6.628     -.1594E-2   2.055   
 -1.045     -.1774      6.481     -.1578E-2   2.054   
 -1.037     -.1640      6.345     -.1562E-2   2.053   
 -1.029     -.1522      6.219     -.1546E-2   2.051   
 -1.021     -.1418      6.102     -.1531E-2   2.050   
 -1.013     -.1325      5.993     -.1515E-2   2.049   
 -1.005     -.1241      5.891     -.1500E-2   2.048   
 -.9970     -.1166      5.795     -.1484E-2   2.046   
 -.9890     -.1098      5.704     -.1469E-2   2.045   
 -.9810     -.1036      5.619     -.1454E-2   2.044   
 -.9730     -.9803E-1   5.539     -.1438E-2   2.043   
 -.9650     -.9289E-1   5.462     -.1423E-2   2.042   
 -.9570     -.8817E-1   5.390     -.1409E-2   2.041   
 -.9489     -.8383E-1   5.321     -.1394E-2   2.040   
 -.9409     -.7983E-1   5.256     -.1379E-2   2.038   
 -.9329     -.7612E-1   5.194     -.1364E-2   2.037   
 -.9249     -.7269E-1   5.134     -.1350E-2   2.036   
 -.9169     -.6949E-1   5.077     -.1335E-2   2.035   
 -.9089     -.6651E-1   5.023     -.1321E-2   2.034   
 -.9009     -.6373E-1   4.971     -.1306E-2   2.033   
 -.8929     -.6113E-1   4.921     -.1292E-2   2.032   
 -.8849     -.5869E-1   4.873     -.1278E-2   2.031   
 -.8769     -.5640E-1   4.827     -.1264E-2   2.030   
 -.8689     -.5424E-1   4.783     -.1250E-2   2.029   
 -.8609     -.5221E-1   4.740     -.1236E-2   2.028   
 -.8529     -.5030E-1   4.699     -.1222E-2   2.027   
 -.8448     -.4848E-1   4.660     -.1208E-2   2.026   
 -.8368     -.4677E-1   4.622     -.1194E-2   2.025   
 -.8288     -.4515E-1   4.585     -.1181E-2   2.024   
 -.8208     -.4361E-1   4.550     -.1167E-2   2.023   
 -.8128     -.4214E-1   4.515     -.1153E-2   2.022   
 -.8048     -.4075E-1   4.482     -.1140E-2   2.021   
 -.7968     -.3943E-1   4.450     -.1127E-2   2.020   
 -.7888     -.3816E-1   4.419     -.1113E-2   2.019   
 -.7808     -.3696E-1   4.389     -.1100E-2   2.019   
 -.7728     -.3581E-1   4.360     -.1087E-2   2.018   
 -.7648     -.3471E-1   4.332     -.1074E-2   2.017   
 -.7568     -.3366E-1   4.304     -.1061E-2   2.016   
 -.7487     -.3265E-1   4.278     -.1048E-2   2.015   
 -.7407     -.3168E-1   4.252     -.1035E-2   2.014   
 -.7327     -.3076E-1   4.227     -.1022E-2   2.014   
 -.7247     -.2986E-1   4.203     -.1009E-2   2.013   
 -.7167     -.2901E-1   4.179     -.9963E-3   2.012   
 -.7087     -.2819E-1   4.156     -.9836E-3   2.011   
 -.7007     -.2740E-1   4.134     -.9709E-3   2.010   
 -.6927     -.2663E-1   4.112     -.9583E-3   2.010   
 -.6847     -.2590E-1   4.091     -.9458E-3   2.009   
 -.6767     -.2519E-1   4.071     -.9333E-3   2.008   
 -.6687     -.2451E-1   4.051     -.9209E-3   2.007   
 -.6607     -.2385E-1   4.032     -.9085E-3   2.007   
 -.6527     -.2321E-1   4.013     -.8962E-3   2.006   
 -.6446     -.2259E-1   3.995     -.8839E-3   2.005   
 -.6366     -.2200E-1   3.977     -.8717E-3   2.004   
 -.6286     -.2142E-1   3.959     -.8595E-3   2.004   
 -.6206     -.2086E-1   3.942     -.8474E-3   2.003   
 -.6126     -.2032E-1   3.926     -.8353E-3   2.002   
 -.6046     -.1979E-1   3.910     -.8233E-3   2.002   
 -.5966     -.1928E-1   3.894     -.8113E-3   2.001   
 -.5886     -.1879E-1   3.879     -.7993E-3   2.000   
 -.5806     -.1831E-1   3.864     -.7874E-3   2.000   
 -.5726     -.1784E-1   3.850     -.7756E-3   1.999   
 -.5646     -.1739E-1   3.836     -.7638E-3   1.999   
 -.5566     -.1695E-1   3.822     -.7520E-3   1.998   
 -.5485     -.1652E-1   3.809     -.7403E-3   1.997   
 -.5405     -.1610E-1   3.795     -.7286E-3   1.997   
 -.5325     -.1569E-1   3.783     -.7170E-3   1.996   
 -.5245     -.1530E-1   3.770     -.7054E-3   1.996   
 -.5165     -.1491E-1   3.758     -.6938E-3   1.995   
 -.5085     -.1453E-1   3.746     -.6823E-3   1.994   
 -.5005     -.1416E-1   3.735     -.6708E-3   1.994   
 -.4925     -.1381E-1   3.724     -.6593E-3   1.993   
 -.4845     -.1346E-1   3.713     -.6479E-3   1.993   
 -.4765     -.1311E-1   3.702     -.6365E-3   1.992   
 -.4685     -.1278E-1   3.692     -.6252E-3   1.992   
 -.4605     -.1245E-1   3.682     -.6139E-3   1.991   
 -.4525     -.1213E-1   3.672     -.6026E-3   1.991   
 -.4444     -.1182E-1   3.662     -.5913E-3   1.990   
 -.4364     -.1151E-1   3.653     -.5801E-3   1.990   
 -.4284     -.1121E-1   3.644     -.5689E-3   1.989   
 -.4204     -.1092E-1   3.635     -.5578E-3   1.989   
 -.4124     -.1063E-1   3.626     -.5467E-3   1.989   
 -.4044     -.1034E-1   3.618     -.5356E-3   1.988   
 -.3964     -.1007E-1   3.610     -.5245E-3   1.988   
 -.3884     -.9794E-2   3.602     -.5135E-3   1.987   
 -.3804     -.9527E-2   3.594     -.5025E-3   1.987   
 -.3724     -.9264E-2   3.587     -.4915E-3   1.986   
 -.3644     -.9006E-2   3.579     -.4805E-3   1.986   
 -.3564     -.8753E-2   3.572     -.4696E-3   1.986   
 -.3483     -.8503E-2   3.565     -.4587E-3   1.985   
 -.3403     -.8258E-2   3.559     -.4478E-3   1.985   
 -.3323     -.8017E-2   3.552     -.4369E-3   1.985   
 -.3243     -.7779E-2   3.546     -.4261E-3   1.984   
 -.3163     -.7546E-2   3.540     -.4153E-3   1.984   
 -.3083     -.7315E-2   3.534     -.4045E-3   1.984   
 -.3003     -.7088E-2   3.528     -.3937E-3   1.983   
 -.2923     -.6864E-2   3.522     -.3830E-3   1.983   
 -.2843     -.6644E-2   3.517     -.3723E-3   1.983   
 -.2763     -.6426E-2   3.512     -.3616E-3   1.982   
 -.2683     -.6211E-2   3.507     -.3509E-3   1.982   
 -.2603     -.5999E-2   3.502     -.3402E-3   1.982   
 -.2523     -.5790E-2   3.497     -.3296E-3   1.982   
 -.2442     -.5583E-2   3.492     -.3189E-3   1.981   
 -.2362     -.5378E-2   3.488     -.3083E-3   1.981   
 -.2282     -.5176E-2   3.484     -.2977E-3   1.981   
 -.2202     -.4975E-2   3.480     -.2871E-3   1.981   
 -.2122     -.4777E-2   3.476     -.2765E-3   1.980   
 -.2042     -.4581E-2   3.472     -.2660E-3   1.980   
 -.1962     -.4387E-2   3.469     -.2555E-3   1.980   
 -.1882     -.4195E-2   3.465     -.2449E-3   1.980   
 -.1802     -.4004E-2   3.462     -.2344E-3   1.980   
 -.1722     -.3815E-2   3.459     -.2239E-3   1.979   
 -.1642     -.3628E-2   3.456     -.2134E-3   1.979   
 -.1562     -.3442E-2   3.453     -.2029E-3   1.979   
 -.1481     -.3257E-2   3.450     -.1925E-3   1.979   
 -.1401     -.3074E-2   3.448     -.1820E-3   1.979   
 -.1321     -.2892E-2   3.445     -.1715E-3   1.979   
 -.1241     -.2711E-2   3.443     -.1611E-3   1.978   
 -.1161     -.2531E-2   3.441     -.1507E-3   1.978   
 -.1081     -.2352E-2   3.439     -.1402E-3   1.978   
 -.1001     -.2174E-2   3.437     -.1298E-3   1.978   
 -.9209E-1  -.1997E-2   3.436     -.1194E-3   1.978   
 -.8408E-1  -.1821E-2   3.434     -.1090E-3   1.978   
 -.7608E-1  -.1645E-2   3.433     -.9862E-4   1.978   
 -.6807E-1  -.1471E-2   3.431     -.8822E-4   1.978   
 -.6006E-1  -.1296E-2   3.430     -.7783E-4   1.978   
 -.5205E-1  -.1122E-2   3.429     -.6745E-4   1.978   
 -.4404E-1  -.9490E-3   3.428     -.5706E-4   1.978   
 -.3604E-1  -.7759E-3   3.428     -.4668E-4   1.978   
 -.2803E-1  -.6032E-3   3.427     -.3631E-4   1.977   
 -.2002E-1  -.4307E-3   3.427     -.2593E-4   1.977   
 -.1201E-1  -.2583E-3   3.427     -.1556E-4   1.977   
 -.4004E-2  -.8611E-4   3.426     -.5186E-5   1.977   
 0.4004E-2  0.8610E-4   3.426     0.5186E-5   1.977   
 0.1201E-1  0.2583E-3   3.427     0.1556E-4   1.977   
 0.2002E-1  0.4307E-3   3.427     0.2593E-4   1.977   
 0.2803E-1  0.6032E-3   3.427     0.3631E-4   1.977   
 0.3604E-1  0.7759E-3   3.428     0.4668E-4   1.978   
 0.4404E-1  0.9490E-3   3.428     0.5706E-4   1.978   
 0.5205E-1  0.1122E-2   3.429     0.6745E-4   1.978   
 0.6006E-1  0.1296E-2   3.430     0.7783E-4   1.978   
 0.6807E-1  0.1471E-2   3.431     0.8822E-4   1.978   
 0.7608E-1  0.1645E-2   3.433     0.9862E-4   1.978   
 0.8408E-1  0.1821E-2   3.434     0.1090E-3   1.978   
 0.9209E-1  0.1997E-2   3.436     0.1194E-3   1.978   
 0.1001     0.2174E-2   3.437     0.1298E-3   1.978   
 0.1081     0.2352E-2   3.439     0.1402E-3   1.978   
 0.1161     0.2531E-2   3.441     0.1507E-3   1.978   
 0.1241     0.2711E-2   3.443     0.1611E-3   1.978   
 0.1321     0.2892E-2   3.445     0.1715E-3   1.979   
 0.1401     0.3074E-2   3.448     0.1820E-3   1.979   
 0.1481     0.3257E-2   3.450     0.1925E-3   1.979   
 0.1562     0.3442E-2   3.453     0.2029E-3   1.979   
 0.1642     0.3628E-2   3.456     0.2134E-3   1.979   
 0.1722     0.3815E-2   3.459     0.2239E-3   1.979   
 0.1802     0.4004E-2   3.462     0.2344E-3   1.980   
 0.1882     0.4195E-2   3.465     0.2449E-3   1.980   
 0.1962     0.4387E-2   3.469     0.2555E-3   1.980   
 0.2042     0.4581E-2   3.472     0.2660E-3   1.980   
 0.2122     0.4777E-2   3.476     0.2765E-3   1.980   
 0.2202     0.4975E-2   3.480     0.2871E-3   1.981   
 0.2282     0.5176E-2   3.484     0.2977E-3   1.981   
 0.2362     0.5378E-2   3.488     0.3083E-3   1.981   
 0.2442     0.5583E-2   3.492     0.3189E-3   1.981   
 0.2523     0.5790E-2   3.497     0.3296E-3   1.982   
 0.2603     0.5999E-2   3.502     0.3402E-3   1.982   
 0.2683     0.6211E-2   3.507     0.3509E-3   1.982   
 0.2763     0.6426E-2   3.512     0.3616E-3   1.982   
 0.2843     0.6644E-2   3.517     0.3723E-3   1.983   
 0.2923     0.6864E-2   3.522     0.3830E-3   1.983   
 0.3003     0.7088E-2   3.528     0.3937E-3   1.983   
 0.3083     0.7315E-2   3.534     0.4045E-3   1.984   
 0.3163     0.7546E-2   3.540     0.4153E-3   1.984   
 0.3243     0.7779E-2   3.546     0.4261E-3   1.984   
 0.3323     0.8017E-2   3.552     0.4369E-3   1.985   
 0.3403     0.8258E-2   3.559     0.4478E-3   1.985   
 0.3483     0.8503E-2   3.565     0.4587E-3   1.985   
 0.3564     0.8753E-2   3.572     0.4696E-3   1.986   
 0.3644     0.9006E-2   3.579     0.4805E-3   1.986   
 0.3724     0.9264E-2   3.587     0.4915E-3   1.986   
 0.3804     0.9527E-2   3.594     0.5025E-3   1.987   
 0.3884     0.9794E-2   3.602     0.5135E-3   1.987   
 0.3964     0.1007E-1   3.610     0.5245E-3   1.988   
 0.4044     0.1034E-1   3.618     0.5356E-3   1.988   
 0.4124     0.1063E-1   3.626     0.5467E-3   1.989   
 0.4204     0.1092E-1   3.635     0.5578E-3   1.989   
 0.4284     0.1121E-1   3.644     0.5689E-3   1.989   
 0.4364     0.1151E-1   3.653     0.5801E-3   1.990   
 0.4444     0.1182E-1   3.662     0.5913E-3   1.990   
 0.4525     0.1213E-1   3.672     0.6026E-3   1.991   
 0.4605     0.1245E-1   3.682     0.6139E-3   1.991   
 0.4685     0.1278E-1   3.692     0.6252E-3   1.992   
 0.4765     0.1311E-1   3.702     0.6365E-3   1.992   
 0.4845     0.1346E-1   3.713     0.6479E-3   1.993   
 0.4925     0.1381E-1   3.724     0.6593E-3   1.993   
 0.5005     0.1416E-1   3.735     0.6708E-3   1.994   
 0.5085     0.1453E-1   3.746     0.6823E-3   1.994   
 0.5165     0.1491E-1   3.758     0.6938E-3   1.995   
 0.5245     0.1530E-1   3.770     0.7054E-3   1.996   
 0.5325     0.1569E-1   3.783     0.7170E-3   1.996   
 0.5405     0.1610E-1   3.795     0.7286E-3   1.997   
 0.5485     0.1652E-1   3.809     0.7403E-3   1.997   
 0.5566     0.1695E-1   3.822     0.7520E-3   1.998   
 0.5646     0.1739E-1   3.836     0.7638E-3   1.999   
 0.5726     0.1784E-1   3.850     0.7756E-3   1.999   
 0.5806     0.1831E-1   3.864     0.7874E-3   2.000   
 0.5886     0.1879E-1   3.879     0.7993E-3   2.000   
 0.5966     0.1928E-1   3.894     0.8113E-3   2.001   
 0.6046     0.1979E-1   3.910     0.8233E-3   2.002   
 0.6126     0.2032E-1   3.926     0.8353E-3   2.002   
 0.6206     0.2086E-1   3.942     0.8474E-3   2.003   
 0.6286     0.2142E-1   3.959     0.8595E-3   2.004   
 0.6366     0.2200E-1   3.977     0.8717E-3   2.004   
 0.6446     0.2259E-1   3.995     0.8839E-3   2.005   
 0.6527     0.2321E-1   4.013     0.8962E-3   2.006   
 0.6607     0.2385E-1   4.032     0.9085E-3   2.007   
 0.6687     0.2451E-1   4.051     0.9209E-3   2.007   
 0.6767     0.2519E-1   4.071     0.9333E-3   2.008   
 0.6847     0.2590E-1   4.091     0.9458E-3   2.009   
 0.6927     0.2663E-1   4.112     0.9583E-3   2.010   
 0.7007     0.2740E-1   4.134     0.9709E-3   2.010   
 0.7087     0.2819E-1   4.156     0.9836E-3   2.011   
 0.7167     0.2901E-1   4.179     0.9963E-3   2.012   
 0.7247     0.2986E-1   4.203     0.1009E-2   2.013   
 0.7327     0.3076E-1   4.227     0.1022E-2   2.014   
 0.7407     0.3168E-1   4.252     0.1035E-2   2.014   
 0.7487     0.3265E-1   4.278     0.1048E-2   2.015   
 0.7568     0.3366E-1   4.304     0.1061E-2   2.016   
 0.7648     0.3471E-1   4.332     0.1074E-2   2.017   
 0.7728     0.3581E-1   4.360     0.1087E-2   2.018   
 0.7808     0.3696E-1   4.389     0.1100E-2   2.019   
 0.7888     0.3816E-1   4.419     0.1113E-2   2.019   
 0.7968     0.3943E-1   4.450     0.1127E-2   2.020   
 0.8048     0.4075E-1   4.482     0.1140E-2   2.021   
 0.8128     0.4214E-1   4.515     0.1153E-2   2.022   
 0.8208     0.4361E-1   4.550     0.1167E-2   2.023   
 0.8288     0.4515E-1   4.585     0.1181E-2   2.024   
 0.8368     0.4677E-1   4.622     0.1194E-2   2.025   
 0.8448     0.4848E-1   4.660     0.1208E-2   2.026   
 0.8529     0.5030E-1   4.699     0.1222E-2   2.027   
 0.8609     0.5221E-1   4.740     0.1236E-2   2.028   
 0.8689     0.5424E-1   4.783     0.1250E-2   2.029   
 0.8769     0.5640E-1   4.827     0.1264E-2   2.030   
 0.8849     0.5869E-1   4.873     0.1278E-2   2.031   
 0.8929     0.6113E-1   4.921     0.1292E-2   2.032   
 0.9009     0.6373E-1   4.971     0.1306E-2   2.033   
 0.9089     0.6651E-1   5.023     0.1321E-2   2.034   
 0.9169     0.6949E-1   5.077     0.1335E-2   2.035   
 0.9249     0.7269E-1   5.134     0.1350E-2   2.036   
 0.9329     0.7612E-1   5.194     0.1364E-2   2.037   
 0.9409     0.7983E-1   5.256     0.1379E-2   2.038   
 0.9489     0.8383E-1   5.321     0.1394E-2   2.040   
 0.9570     0.8817E-1   5.390     0.1409E-2   2.041   
 0.9650     0.9289E-1   5.462     0.1423E-2   2.042   
 0.9730     0.9803E-1   5.539     0.1438E-2   2.043   
 0.9810     0.1036      5.619     0.1454E-2   2.044   
 0.9890     0.1098      5.704     0.1469E-2   2.045   
 0.9970     0.1166      5.795     0.1484E-2   2.046   
  1.005     0.1241      5.891     0.1500E-2   2.048   
  1.013     0.1325      5.993     0.1515E-2   2.049   
  1.021     0.1418      6.102     0.1531E-2   2.050   
  1.029     0.1522      6.219     0.1546E-2   2.051   
  1.037     0.1640      6.345     0.1562E-2   2.053   
  1.045     0.1774      6.481     0.1578E-2   2.054   
  1.053     0.1928      6.628     0.1594E-2   2.055   
  1.061     0.2105      6.789     0.1610E-2   2.056   
  1.069     0.2310      6.964     0.1626E-2   2.058   
  1.077     0.2552      7.157     0.1643E-2   2.059   
  1.085     0.2839      7.370     0.1659E-2   2.060   
  1.093     0.3185      7.608     0.1676E-2   2.062   
  1.101     0.3607      7.876     0.1692E-2   2.063   
  1.109     0.4132      8.180     0.1709E-2   2.064   
  1.117     0.4798      8.529     0.1726E-2   2.066   
  1.125     0.5663      8.936     0.1743E-2   2.067   
  1.133     0.6822      9.419     0.1760E-2   2.068   
  1.141     0.8432      10.00     0.1777E-2   2.070   
  1.149      1.077      10.72     0.1795E-2   2.071   
  1.157      1.438      11.64     0.1812E-2   2.073   
  1.165      2.040      12.86     0.1830E-2   2.074   
  1.173      3.153      14.53     0.1848E-2   2.076   
  1.181      5.517      16.80     0.1866E-2   2.077   
  1.189      11.28      18.94     0.1884E-2   2.079   
  1.197      21.93      13.20     0.1902E-2   2.080   
  1.205      17.96     -1.240     0.1920E-2   2.082   
  1.213      8.778     -1.895     0.1938E-2   2.083   
  1.221      5.051     0.9648     0.1957E-2   2.085   
  1.229      3.762      3.624     0.1976E-2   2.086   
  1.237      3.632      6.067     0.1994E-2   2.088   
  1.245      4.564      8.610     0.2013E-2   2.090   
  1.253      7.500      11.30     0.2033E-2   2.091   
  1.261      14.80      11.30     0.2052E-2   2.093   
  1.269      18.24     0.6530     0.2071E-2   2.095   
  1.277      10.69     -3.093     0.2091E-2   2.096   
  1.285      8.042     -1.070     0.2111E-2   2.098   
  1.293      7.912     -1.733     0.2130E-2   2.100   
  1.301      5.105     -1.969     0.2150E-2   2.101   
  1.309      3.622     -.1530     0.2171E-2   2.103   
  1.317      3.799      1.522     0.2191E-2   2.105   
  1.325      4.729      1.544     0.2212E-2   2.107   
  1.333      3.717      1.369     0.2232E-2   2.108   
  1.341      3.199      2.877     0.2253E-2   2.110   
  1.349      4.078      4.784     0.2274E-2   2.112   
  1.357      7.253      6.275     0.2295E-2   2.114   
  1.365      12.70      2.601     0.2317E-2   2.116   
  1.373      9.432     -4.553     0.2338E-2   2.117   
  1.381      4.558     -4.395     0.2360E-2   2.119   
  1.389      2.512     -2.843     0.2382E-2   2.121   
    1.3974     1.6205    -1.5734     0.0024     2.1231
    1.4054     1.1717    -0.6043     0.0024     2.1251
    1.4134     0.9192     0.1638     0.0024     2.1270
    1.4214     0.7664     0.8019     0.0025     2.1290
    1.4294     0.6706     1.3553     0.0025     2.1310
    1.4374     0.6109     1.8538     0.0025     2.1330
    1.4454     0.5768     2.3184     0.0025     2.1350
  1.453     0.5631      2.766     0.2564E-2   2.137   
  1.461     0.5681      3.209     0.2588E-2   2.139   
  1.469     0.5930      3.664     0.2612E-2   2.141   
  1.477     0.6423      4.144     0.2636E-2   2.143   
  1.485     0.7261      4.671     0.2661E-2   2.145   
  1.493     0.8642      5.273     0.2685E-2   2.148   
  1.502      1.098      5.992     0.2710E-2   2.150   
  1.510      1.521      6.895     0.2735E-2   2.152   
  1.518      2.378      8.073     0.2760E-2   2.154   
  1.526      4.378      9.467     0.2786E-2   2.156   
  1.534      8.985      9.195     0.2812E-2   2.159   
  1.542      10.87      2.670     0.2838E-2   2.161   
  1.550      6.682     0.6634     0.2864E-2   2.163   
  1.558      5.727      1.331     0.2891E-2   2.165   
  1.566      4.771     0.9716E-1  0.2917E-2   2.168   
    1.5736     2.7194     0.5180     0.0029     2.1701
    1.5816     1.7923     1.6627     0.0030     2.1725
    1.5896     1.5096     2.6977     0.0030     2.1749
  1.598      1.683      3.501     0.3027E-2   2.177   
  1.606      1.960      3.597     0.3055E-2   2.180   
  1.614      1.479      3.766     0.3084E-2   2.182   
  1.622      1.183      4.376     0.3112E-2   2.185   
  1.630      1.015      5.014     0.3141E-2   2.187   
  1.638     0.9465      5.716     0.3171E-2   2.190   
  1.646     0.9593      6.445     0.3200E-2   2.192   
  1.654      1.025      7.216     0.3230E-2   2.195   
  1.662      1.139      8.058     0.3260E-2   2.197   
  1.670      1.308      9.006     0.3291E-2   2.200   
  1.678      1.553      10.11     0.3321E-2   2.203   
  1.686      1.912      11.42     0.3353E-2   2.205   
  1.694      2.453      13.05     0.3384E-2   2.208   
  1.702      3.315      15.14     0.3416E-2   2.211   
  1.710      4.795      17.94     0.3448E-2   2.214   
  1.718      7.616      21.80     0.3480E-2   2.216   
  1.726      13.80      27.03     0.3513E-2   2.219   
  1.734      29.08      30.93     0.3546E-2   2.222   
  1.742      53.07      11.63     0.3580E-2   2.225   
  1.750      37.55     -19.44     0.3614E-2   2.228   
  1.758      17.70     -19.00     0.3648E-2   2.231   
  1.766      9.673     -13.17     0.3683E-2   2.233   
  1.774      6.390     -8.336     0.3718E-2   2.236   
  1.782      5.034     -4.462     0.3753E-2   2.239   
  1.790      4.753     -1.046     0.3789E-2   2.242   
  1.798      5.529      2.296     0.3825E-2   2.246   
  1.806      8.071      5.358     0.3862E-2   2.249   
  1.814      11.78      6.461     0.3899E-2   2.252   
  1.822      16.96      7.561     0.3936E-2   2.255   
  1.830      23.80     0.2638     0.3974E-2   2.258   
  1.838      19.29     -5.167     0.4012E-2   2.261   
  1.846      20.15     -6.233     0.4051E-2   2.264   
  1.854      17.50     -11.09     0.4090E-2   2.268   
  1.862      14.61     -11.32     0.4130E-2   2.271   
  1.870      14.92     -12.79     0.4170E-2   2.274   
  1.878      10.52     -16.81     0.4211E-2   2.278   
  1.886      5.558     -15.32     0.4252E-2   2.281   
  1.894      3.336     -12.99     0.4294E-2   2.284   
  1.902      2.279     -11.13     0.4336E-2   2.288   
  1.910      1.698     -9.706     0.4379E-2   2.291   
  1.918      1.344     -8.569     0.4422E-2   2.295   
  1.926      1.111     -7.632     0.4465E-2   2.298   
  1.934     0.9524     -6.835     0.4510E-2   2.302   
  1.942     0.8420     -6.136     0.4554E-2   2.306   
  1.950     0.7667     -5.507     0.4600E-2   2.309   
  1.958     0.7192     -4.925     0.4646E-2   2.313   
    1.9660     0.6967    -4.3702     0.0047     2.3168
    1.9740     0.7003    -3.8245     0.0047     2.3206
    1.9820     0.7353    -3.2676     0.0048     2.3244
    1.9900     0.8144    -2.6742     0.0048     2.3283
    1.9980     0.9645    -2.0090     0.0049     2.3321
    2.0060     1.2448    -1.2189     0.0049     2.3361
    2.0140     1.8004    -0.2250     0.0050     2.3400
    2.0220     3.0329     1.0309     0.0050     2.3441
  2.030      6.017      1.964     0.5086E-2   2.348   
  2.038      10.06     -1.092     0.5139E-2   2.352   
  2.046      9.479     -5.115     0.5192E-2   2.356   
  2.054      7.764     -8.544     0.5245E-2   2.361   
  2.062      4.013     -9.087     0.5300E-2   2.365   
  2.070      2.136     -7.924     0.5355E-2   2.369   
  2.078      1.318     -6.910     0.5411E-2   2.373   
  2.086     0.9082     -6.155     0.5467E-2   2.378   
  2.094     0.6747     -5.583     0.5525E-2   2.382   
    2.1021     0.5286    -5.1331     0.0056     2.3865
    2.1101     0.4306    -4.7671     0.0056     2.3910
    2.1181     0.3612    -4.4612     0.0057     2.3956
    2.1261     0.3099    -4.1997     0.0058     2.4001
    2.1341     0.2706    -3.9722     0.0058     2.4048
    2.1421     0.2398    -3.7712     0.0059     2.4095
    2.1502     0.2150    -3.5917     0.0059     2.4142
    2.1582     0.1946    -3.4296     0.0060     2.4190
    2.1662     0.1776    -3.2820     0.0061     2.4238
    2.1742     0.1632    -3.1467     0.0061     2.4287
    2.1822     0.1508    -3.0219     0.0062     2.4337
    2.1902     0.1401    -2.9061     0.0063     2.4387
    2.1982     0.1307    -2.7982     0.0063     2.4437
    2.2062     0.1225    -2.6974     0.0064     2.4489
    2.2142     0.1151    -2.6026     0.0065     2.4540
    2.2222     0.1085    -2.5134     0.0066     2.4592
    2.2302     0.1026    -2.4292     0.0066     2.4645
    2.2382     0.0972    -2.3494     0.0067     2.4699
    2.2462     0.0924    -2.2737     0.0068     2.4753
    2.2543     0.0879    -2.2018     0.0069     2.4807
    2.2623     0.0838    -2.1332     0.0069     2.4863
    2.2703     0.0800    -2.0677     0.0070     2.4919
    2.2783     0.0766    -2.0052     0.0071     2.4975
    2.2863     0.0733    -1.9453     0.0072     2.5032
    2.2943     0.0703    -1.8878     0.0073     2.5090
    2.3023     0.0675    -1.8327     0.0074     2.5149
    2.3103     0.0649    -1.7798     0.0074     2.5208
    2.3183     0.0625    -1.7288     0.0075     2.5268
    2.3263     0.0602    -1.6798     0.0076     2.5329
    2.3343     0.0581    -1.6325     0.0077     2.5390
    2.3423     0.0560    -1.5868     0.0078     2.5452
    2.3503     0.0541    -1.5428     0.0079     2.5515
    2.3584     0.0523    -1.5002     0.0080     2.5578
    2.3664     0.0506    -1.4591     0.0081     2.5643
    2.3744     0.0490    -1.4192     0.0082     2.5708
    2.3824     0.0475    -1.3806     0.0083     2.5774
    2.3904     0.0460    -1.3432     0.0084     2.5840
    2.3984     0.0446    -1.3070     0.0085     2.5908
    2.4064     0.0433    -1.2718     0.0086     2.5976
    2.4144     0.0421    -1.2376     0.0087     2.6045
    2.4224     0.0409    -1.2044     0.0088     2.6115
    2.4304     0.0397    -1.1722     0.0089     2.6186
    2.4384     0.0386    -1.1409     0.0090     2.6258
    2.4464     0.0376    -1.1104     0.0091     2.6331
    2.4545     0.0366    -1.0807     0.0093     2.6405
    2.4625     0.0356    -1.0518     0.0094     2.6479
    2.4705     0.0347    -1.0237     0.0095     2.6555
    2.4785     0.0338    -0.9962     0.0096     2.6632
    2.4865     0.0330    -0.9695     0.0098     2.6709
    2.4945     0.0322    -0.9434     0.0099     2.6788
   2.50250    0.03138   -0.91802    0.01001    2.68674
   2.51051    0.03063   -0.89321    0.01015    2.69481
   2.51852    0.02990   -0.86899    0.01028    2.70299
   2.52653    0.02920   -0.84533    0.01042    2.71128
   2.53453    0.02853   -0.82223    0.01057    2.71969
   2.54254    0.02788   -0.79965    0.01071    2.72820
   2.55055    0.02725   -0.77759    0.01086    2.73684
   2.55856    0.02665   -0.75601    0.01101    2.74559
   2.56657    0.02607   -0.73492    0.01116    2.75447
   2.57457    0.02550   -0.71428    0.01132    2.76347
   2.58258    0.02496   -0.69408    0.01148    2.77259
   2.59059    0.02443   -0.67432    0.01164    2.78185
   2.59860    0.02392   -0.65497    0.01181    2.79124
   2.60661    0.02342   -0.63602    0.01198    2.80076
   2.61461    0.02294   -0.61746    0.01216    2.81043
   2.62262    0.02248   -0.59928    0.01233    2.82023
   2.63063    0.02203   -0.58147    0.01252    2.83018
   2.63864    0.02159   -0.56400    0.01270    2.84027
   2.64665    0.02117   -0.54689    0.01289    2.85052
   2.65465    0.02076   -0.53010    0.01309    2.86092
   2.66266    0.02036   -0.51364    0.01328    2.87147
   2.67067    0.01998   -0.49749    0.01349    2.88219
   2.67868    0.01960   -0.48165    0.01370    2.89307
   2.68669    0.01924   -0.46611    0.01391    2.90412
   2.69469    0.01888   -0.45085    0.01413    2.91535
   2.70270    0.01854   -0.43587    0.01435    2.92675
   2.71071    0.01820   -0.42117    0.01458    2.93833
   2.71872    0.01788   -0.40673    0.01481    2.95010
   2.72673    0.01756   -0.39254    0.01505    2.96205
   2.73473    0.01725   -0.37861    0.01530    2.97420
   2.74274    0.01695   -0.36492    0.01555    2.98655
   2.75075    0.01665   -0.35147    0.01581    2.99910
   2.75876    0.01637   -0.33825    0.01607    3.01187
   2.76677    0.01609   -0.32526    0.01635    3.02485
   2.77477    0.01582   -0.31248    0.01662    3.03804
   2.78278    0.01556   -0.29992    0.01691    3.05147
   2.79079    0.01530   -0.28757    0.01720    3.06512
   2.79880    0.01505   -0.27542    0.01751    3.07902
   2.80681    0.01480   -0.26348    0.01782    3.09316
   2.81481    0.01456   -0.25172    0.01813    3.10755
   2.82282    0.01433   -0.24015    0.01846    3.12220
   2.83083    0.01410   -0.22877    0.01880    3.13711
   2.83884    0.01388   -0.21757    0.01914    3.15230
   2.84685    0.01366   -0.20655    0.01950    3.16776
   2.85485    0.01345   -0.19569    0.01986    3.18352
   2.86286    0.01324   -0.18501    0.02024    3.19957
   2.87087    0.01304   -0.17449    0.02063    3.21593
   2.87888    0.01284   -0.16413    0.02103    3.23261
   2.88689    0.01265   -0.15392    0.02144    3.24960
   2.89490    0.01246   -0.14387    0.02186    3.26694
   2.90290    0.01227   -0.13397    0.02230    3.28461
   2.91091    0.01209   -0.12421    0.02275    3.30265
   2.91892    0.01192   -0.11460    0.02322    3.32105
   2.92693    0.01174   -0.10513    0.02370    3.33983
   2.93493    0.01157   -0.09580    0.02420    3.35900
   2.94294    0.01141   -0.08660    0.02471    3.37857
   2.95095    0.01125   -0.07753    0.02524    3.39856
   2.95896    0.01109   -0.06859    0.02579    3.41898
   2.96697    0.01093   -0.05977    0.02636    3.43985
   2.97497    0.01078   -0.05108    0.02694    3.46118
   2.98298    0.01063   -0.04251    0.02755    3.48299
   2.99099    0.01048   -0.03406    0.02818    3.50530
   2.99900    0.01034   -0.02573    0.02883    3.52811
   3.00701    0.01020   -0.01751    0.02951    3.55146
    3.0150     0.0101    -0.0094     0.0302     3.5754
  3.023     0.9926E-2  -.1394E-2  0.3095E-1   3.600   
    3.0310     0.0098     0.0065     0.0317     3.6249
    3.0390     0.0097     0.0143     0.0325     3.6506
    3.0470     0.0095     0.0220     0.0333     3.6769
    3.0551     0.0094     0.0296     0.0342     3.7039
    3.0631     0.0093     0.0370     0.0351     3.7316
    3.0711     0.0092     0.0444     0.0360     3.7601
    3.0791     0.0091     0.0517     0.0370     3.7892
    3.0871     0.0089     0.0589     0.0380     3.8192
    3.0951     0.0088     0.0660     0.0390     3.8500
    3.1031     0.0087     0.0731     0.0401     3.8817
    3.1111     0.0086     0.0800     0.0413     3.9142
    3.1191     0.0085     0.0868     0.0425     3.9477
    3.1271     0.0084     0.0936     0.0437     3.9822
    3.1351     0.0083     0.1003     0.0451     4.0178
    3.1431     0.0082     0.1069     0.0465     4.0544
    3.1512     0.0081     0.1134     0.0479     4.0922
    3.1592     0.0080     0.1198     0.0495     4.1311
    3.1672     0.0079     0.1262     0.0511     4.1714
    3.1752     0.0078     0.1324     0.0528     4.2130
    3.1832     0.0077     0.1387     0.0546     4.2559
    3.1912     0.0076     0.1448     0.0566     4.3004
    3.1992     0.0075     0.1508     0.0586     4.3465
    3.2072     0.0074     0.1568     0.0607     4.3942
    3.2152     0.0073     0.1627     0.0630     4.4436
    3.2232     0.0073     0.1686     0.0654     4.4950
    3.2312     0.0072     0.1744     0.0680     4.5484
    3.2392     0.0071     0.1801     0.0708     4.6039
    3.2472     0.0070     0.1857     0.0737     4.6616
    3.2553     0.0069     0.1913     0.0769     4.7218
    3.2633     0.0069     0.1968     0.0803     4.7846
    3.2713     0.0068     0.2023     0.0839     4.8503
    3.2793     0.0067     0.2077     0.0878     4.9189
    3.2873     0.0066     0.2130     0.0921     4.9907
    3.2953     0.0066     0.2183     0.0966     5.0661
    3.3033     0.0065     0.2235     0.1016     5.1453
    3.3113     0.0064     0.2287     0.1070     5.2286
    3.3193     0.0063     0.2338     0.1129     5.3164
    3.3273     0.0063     0.2388     0.1194     5.4091
    3.3353     0.0062     0.2438     0.1265     5.5072
    3.3433     0.0061     0.2488     0.1343     5.6112
    3.3514     0.0061     0.2537     0.1430     5.7218
    3.3594     0.0060     0.2585     0.1526     5.8397
  3.367     0.5942E-2  0.2633     0.1634      5.966   
  3.375     0.5880E-2  0.2680     0.1755      6.101   
  3.383     0.5818E-2  0.2727     0.1892      6.246   
  3.391     0.5757E-2  0.2773     0.2047      6.402   
  3.399     0.5697E-2  0.2819     0.2224      6.572   
  3.407     0.5638E-2  0.2865     0.2429      6.757   
  3.415     0.5579E-2  0.2909     0.2667      6.959   
  3.423     0.5522E-2  0.2954     0.2945      7.182   
  3.431     0.5466E-2  0.2998     0.3276      7.428   
  3.439     0.5410E-2  0.3041     0.3671      7.703   
  3.447     0.5355E-2  0.3084     0.4152      8.011   
  3.455     0.5301E-2  0.3127     0.4744      8.361   
  3.463     0.5248E-2  0.3169     0.5489      8.762   
  3.471     0.5195E-2  0.3211     0.6442      9.228   
  3.479     0.5143E-2  0.3253     0.7695      9.776   
  3.487     0.5092E-2  0.3294     0.9391      10.43   
  3.495     0.5042E-2  0.3334      1.177      11.24   
  3.504     0.4992E-2  0.3374      1.527      12.25   
  3.512     0.4944E-2  0.3414      2.072      13.56   
  3.520     0.4895E-2  0.3453      2.988      15.31   
  3.528     0.4848E-2  0.3493      4.695      17.75   
  3.536     0.4801E-2  0.3531      8.336      21.12   
  3.544     0.4755E-2  0.3569      17.25      24.34   
  3.552     0.4709E-2  0.3607      34.17      15.51   
  3.560     0.4664E-2  0.3645      28.56     -8.221   
  3.568     0.4620E-2  0.3682      13.51     -10.16   
  3.576     0.4576E-2  0.3719      7.135     -6.260   
  3.584     0.4533E-2  0.3755      4.571     -2.863   
    3.5916     0.0045     0.3791     3.5042    -0.1610
    3.5996     0.0044     0.3827     3.2171     2.1946
  3.608     0.4407E-2  0.3863      3.592      4.527   
  3.616     0.4366E-2  0.3898      4.994      7.120   
  3.624     0.4325E-2  0.3933      8.826      9.859   
  3.632     0.4286E-2  0.3967      17.88      8.572   
  3.640     0.4246E-2  0.4001      20.08     -5.393   
  3.648     0.4207E-2  0.4035      10.09     -9.543   
  3.656     0.4169E-2  0.4069      5.062     -7.305   
  3.664     0.4131E-2  0.4102      2.989     -5.108   
    3.6717     0.0041     0.4135     2.0037    -3.4697
    3.6797     0.0041     0.4167     1.4705    -2.2340
    3.6877     0.0040     0.4200     1.1530    -1.2611
    3.6957     0.0040     0.4232     0.9511    -0.4619
    3.7037     0.0039     0.4264     0.8172     0.2198
    3.7117     0.0039     0.4295     0.7267     0.8207
    3.7197     0.0039     0.4326     0.6657     1.3660
    3.7277     0.0038     0.4357     0.6265     1.8741
    3.7357     0.0038     0.4388     0.6044     2.3594
    3.7437     0.0038     0.4418     0.5970     2.8335
  3.752     0.3746E-2  0.4448     0.6032      3.307   
  3.760     0.3713E-2  0.4478     0.6235      3.792   
  3.768     0.3681E-2  0.4508     0.6594      4.297   
  3.776     0.3650E-2  0.4537     0.7140      4.837   
  3.784     0.3618E-2  0.4566     0.7927      5.426   
  3.792     0.3587E-2  0.4595     0.9043      6.087   
  3.800     0.3557E-2  0.4624      1.063      6.846   
  3.808     0.3527E-2  0.4652      1.295      7.745   
  3.816     0.3497E-2  0.4680      1.643      8.846   
  3.824     0.3467E-2  0.4708      2.197      10.24   
  3.832     0.3438E-2  0.4736      3.141      12.10   
  3.840     0.3409E-2  0.4763      4.918      14.65   
  3.848     0.3381E-2  0.4790      8.734      18.16   
  3.856     0.3353E-2  0.4817      18.11      21.49   
  3.864     0.3325E-2  0.4844      35.95      12.05   
  3.872     0.3298E-2  0.4871      29.95     -13.18   
  3.880     0.3271E-2  0.4897      13.95     -15.44   
  3.888     0.3244E-2  0.4923      7.096     -11.60   
  3.896     0.3217E-2  0.4949      4.205     -8.403   
  3.904     0.3191E-2  0.4974      2.797     -6.094   
  3.912     0.3165E-2  0.5000      2.025     -4.384   
  3.920     0.3140E-2  0.5025      1.564     -3.060   
  3.928     0.3114E-2  0.5050      1.272     -1.988   
  3.936     0.3089E-2  0.5075      1.081     -1.084   
  3.944     0.3065E-2  0.5100     0.9533     -.2951   
  3.952     0.3040E-2  0.5124     0.8692     0.4167   
  3.960     0.3016E-2  0.5148     0.8168      1.078   
  3.968     0.2992E-2  0.5172     0.7893      1.710   
  3.976     0.2968E-2  0.5196     0.7829      2.330   
  3.984     0.2945E-2  0.5220     0.7963      2.953   
  3.992     0.2922E-2  0.5243     0.8298      3.594   
  4.000     0.2899E-2  0.5267     0.8857      4.269   
# 
# 02/16/2017 at 18:43 YAMBO_PL @ aiken [start]
# 02/16/2017 at 18:44                  [end]
#  
# Timing   [Min/Max/Average]: 33s/33s/33s
#
# .-Input file : INPUTS/05_bse_pl_causal_100
# | optics                       # [R OPT] Optics
# | bse                          # [R BSE] Bethe Salpeter Equation.
# | bsk                          # [R BSK] Bethe Salpeter Equation kernel
# | bss                          # [R BSS] Bethe Salpeter Equation solver
# | em1s                         # [R Xs] Static Inverse Dielectric Matrix
# | rim_cut                      # [R RIM CUT] Coulomb potential
# | photolum                     # [R] Photo-Luminescence
# | BoseTemp= 0.000000     eV    # Bosonic Temperature
# | DBsIOoff= "DIP"              # [IO] Space-separated list of DB with NO I/O. DB=(DIP,X,HF,COLLs,J,GF,CARRIERs,W,SC,BS,ALL)
# | FFTGvecs= 10           Ha    # [FFT] Plane-waves
# | RandQpts= 1000000            # [RIM] Number of random q-points in the BZ
# | RandGvec= 1            RL    # [RIM] Coulomb interaction RS components
# | CUTGeo= "box z"              # [CUT] Coulomb Cutoff geometry: box/cylinder/sphere X/Y/Z/XY..
# | % CUTBox
# |   0.00000 |  0.00000 | 38.00000 |        # [CUT] [au] Box sides
# | %
# | CUTRadius= 0.000000          # [CUT] [au] Sphere/Cylinder radius
# | CUTCylLen= 0.000000          # [CUT] [au] Cylinder length
# | Chimod= "hartree"            # [X] IP/Hartree/ALDA/LRC/BSfxc
# | BSEmod= "retarded"           # [BSE] resonant/retarded/coupling
# | BSKmod= "SEX"                # [BSE] IP/Hartree/HF/ALDA/SEX/BSfxc
# | BSSmod= "d"                  # [BSS] (h)aydock/(d)iagonalization/(i)nversion/(t)ddft`
# | BSENGexx= 10           Ha    # [BSK] Exchange components
# | BSENGBlk= 1010         mHa   # [BSK] Screened interaction block size
# | #WehCpl                      # [BSK] eh interaction included also in coupling
# | % PL_weights
# |  1.000000 |      NaN |      NaN |        # [PL] [cc] Weights of the carthesian components of the emitted radiation
# | %
# | % KfnQP_E
# |  1.038620 | 1.000000 | 1.000000 |        # [EXTQP BSK BSS] E parameters  (c/v) eV|adim|adim
# | %
# | KfnRTdb= "f @ 0 fs < ./03_ypp_carriers/ndb.RT_carriers" # [EXTRT BSK BSS] Database
# | RfnRTdb= "f @ 0 fs < ./03_ypp_carriers/ndb.RT_carriers" # [EXTRT R] Database
# | % BEnRange
# | -4.000000 | 4.000000 | eV    # [BSS] Energy range
# | %
# | % BDmRange
# |    0.0100 |   0.0100 | eV    # [BSS] Damping range
# | %
# | BEnSteps= 1000               # [BSS] Energy steps
# | % BLongDir
# | 0.1000E-4 | 0.000    | 0.000    |        # [BSS] [cc] Electric Field
# | %
# | % BSEBands
# |  25 | 28 |                   # [BSK] Bands range
# | %
# | % BndsRnXs
# |    1 |  60 |                 # [Xs] Polarization function bands
# | %
# | NGsBlkXs= 1010         mHa   # [Xs] Response block size
# | GrFnTpXs= "R"                # [Xs] Green`s function (T)ordered,(R)etarded,(r)senant,(a)ntiresonant [T, R, r, Ta, Ra]
# | % DmRngeXs
# |   0.10000 |  0.10000 | eV    # [Xs] Damping range
# | %
# | % LongDrXs
# | 0.1000E-4 | 0.000    | 0.000    |        # [Xs] [cc] Electric Field
# | %
