#                                                           
#                                                           
# Y88b    /   e           e    e      888~~\    ,88~-_      
#  Y88b  /   d8b         d8b  d8b     888   |  d888   \     
#   Y88b/   /Y88b       d888bdY88b    888 _/  88888    |    
#    Y8Y   /  Y88b     / Y88Y Y888b   888  \  88888    |    
#     Y   /____Y88b   /   YY   Y888b  888   |  Y888   /     
#    /   /      Y88b /          Y888b 888__/    `88_-~      
#                                                           
#                                                           
#       Version 4.1.2 Revision 14030 Hash 116e4f9           
#                       MPI Build                           
#               http://www.yambo-code.org                   
#
# Joint density of states @ Q(1) [q->0 direction] :0.1000E-4  0.000     0.000   
#
# - Energies      are Slater exchange(X)+Perdew & Zunger(C)+Scissor
# - The Green`s function is Retarded -
#
#   BSK|Identifier              :2327
#      |Dimension               :144
#      |Bands                   :25 - 28
#      |Exchange           [res]: yes
#      |Correlation        [res]: yes
#      |Kernel`s coupling       : no
#      |Exchange           [cpl]: no
#      |Correlation        [cpl]: no
#      |W interaction is bare   : no
#      |ALDA kernel in R-space  : no
#      |RL vectors    [exchange]:2055
#      |RL vectors [correlation]:85
#      |E/h energy range    [ev]:-1.000000 - -1.000000
#      |Coupling range     [o/o]: 100.0000 -  100.0000
#    W |Interaction is diagonal : no
#      |Matrix size             :85
#      |Bands                   :1 - 60
#      |e/h energy range    [ev]:-1.000000 - -1.000000
#      |Poles              [o/o]: 100.0000
#      |RL vectors in the sum   :2055
#      |[r,Vnl] included        : yes
#      |Field direction         :0.1000E-4  0.000000  0.000000
#      |Coulomb Cutoff          :box z
#      |xc-Kernel               :none
#   RIM|RL components      [col]:1
#      |Random points      [col]:1000000
#
#  E/ev[1]    PL[2]      PLo[3]
#  E/ev[1]    jdos-Im[2] jdos-Re[3] jdoso-Im[4]jdoso-Re[5]jdos`-Im[6]jdos`-Re[7]
 -4.000000        NaN        NaN
 -3.991992        NaN        NaN
 -3.983984        NaN        NaN
 -3.975976        NaN        NaN
 -3.967968        NaN        NaN
 -3.959960        NaN        NaN
 -3.951952        NaN        NaN
 -3.943944        NaN        NaN
 -3.935936        NaN        NaN
 -3.927928        NaN        NaN
 -3.919920        NaN        NaN
 -3.911912        NaN        NaN
 -3.903904        NaN        NaN
 -3.895896        NaN        NaN
 -3.887888        NaN        NaN
 -3.879880        NaN        NaN
 -3.871872        NaN        NaN
 -3.863864        NaN        NaN
 -3.855856        NaN        NaN
 -3.847848        NaN        NaN
 -3.839840        NaN        NaN
 -3.831832        NaN        NaN
 -3.823824        NaN        NaN
 -3.815816        NaN        NaN
 -3.807808        NaN        NaN
 -3.799800        NaN        NaN
 -3.791792        NaN        NaN
 -3.783784        NaN        NaN
 -3.775776        NaN        NaN
 -3.767768        NaN        NaN
 -3.759760        NaN        NaN
 -3.751752        NaN        NaN
 -3.743744        NaN        NaN
 -3.735736        NaN        NaN
 -3.727728        NaN        NaN
 -3.719720        NaN        NaN
 -3.711712        NaN        NaN
 -3.703704        NaN        NaN
 -3.695696        NaN        NaN
 -3.687688        NaN        NaN
 -3.679680        NaN        NaN
 -3.671672        NaN        NaN
 -3.663664        NaN        NaN
 -3.655656        NaN        NaN
 -3.647648        NaN        NaN
 -3.639640        NaN        NaN
 -3.631632        NaN        NaN
 -3.623624        NaN        NaN
 -3.615616        NaN        NaN
 -3.607608        NaN        NaN
 -3.599600        NaN        NaN
 -3.591592        NaN        NaN
 -3.583584        NaN        NaN
 -3.575576        NaN        NaN
 -3.567568        NaN        NaN
 -3.559559        NaN        NaN
 -3.551552        NaN        NaN
 -3.543544        NaN        NaN
 -3.535536        NaN        NaN
 -3.527528        NaN        NaN
 -3.519519        NaN        NaN
 -3.511512        NaN        NaN
 -3.503504        NaN        NaN
 -3.495495        NaN        NaN
 -3.487488        NaN        NaN
 -3.479480        NaN        NaN
 -3.471472        NaN        NaN
 -3.463464        NaN        NaN
 -3.455455        NaN        NaN
 -3.447448        NaN        NaN
 -3.439439        NaN        NaN
 -3.431432        NaN        NaN
 -3.423424        NaN        NaN
 -3.415415        NaN        NaN
 -3.407408        NaN        NaN
 -3.399400        NaN        NaN
 -3.391391        NaN        NaN
 -3.383384        NaN        NaN
 -3.375376        NaN        NaN
 -3.367368        NaN        NaN
 -3.359359        NaN        NaN
 -3.351351        NaN        NaN
 -3.343343        NaN        NaN
 -3.335335        NaN        NaN
 -3.327327        NaN        NaN
 -3.319319        NaN        NaN
 -3.311311        NaN        NaN
 -3.303303        NaN        NaN
 -3.295295        NaN        NaN
 -3.287287        NaN        NaN
 -3.279279        NaN        NaN
 -3.271271        NaN        NaN
 -3.263263        NaN        NaN
 -3.255255        NaN        NaN
 -3.247247        NaN        NaN
 -3.239239        NaN        NaN
 -3.231231        NaN        NaN
 -3.223223        NaN        NaN
 -3.215215        NaN        NaN
 -3.207207        NaN        NaN
 -3.199199        NaN        NaN
 -3.191191        NaN        NaN
 -3.183183        NaN        NaN
 -3.175175        NaN        NaN
 -3.167167        NaN        NaN
 -3.159159        NaN        NaN
 -3.151151        NaN        NaN
 -3.143143        NaN        NaN
 -3.135135        NaN        NaN
 -3.127127        NaN        NaN
 -3.119119        NaN        NaN
 -3.111111        NaN        NaN
 -3.103103        NaN        NaN
 -3.095095        NaN        NaN
 -3.087087        NaN        NaN
 -3.079079        NaN        NaN
 -3.071071        NaN        NaN
 -3.063063        NaN        NaN
 -3.055055        NaN        NaN
 -3.047047        NaN        NaN
 -3.039039        NaN        NaN
 -3.031031        NaN        NaN
 -3.023023        NaN        NaN
 -3.015015        NaN        NaN
 -3.007007        NaN        NaN
 -2.998999        NaN        NaN
 -2.990991        NaN        NaN
 -2.982983        NaN        NaN
 -2.974975        NaN        NaN
 -2.966967        NaN        NaN
 -2.958959        NaN        NaN
 -2.950951        NaN        NaN
 -2.942943        NaN        NaN
 -2.934935        NaN        NaN
 -2.926927        NaN        NaN
 -2.918919        NaN        NaN
 -2.910911        NaN        NaN
 -2.902903        NaN        NaN
 -2.894895        NaN        NaN
 -2.886887        NaN        NaN
 -2.878879        NaN        NaN
 -2.870871        NaN        NaN
 -2.862863        NaN        NaN
 -2.854855        NaN        NaN
 -2.846847        NaN        NaN
 -2.838839        NaN        NaN
 -2.830831        NaN        NaN
 -2.822823        NaN        NaN
 -2.814815        NaN        NaN
 -2.806807        NaN        NaN
 -2.798799        NaN        NaN
 -2.790791        NaN        NaN
 -2.782783        NaN        NaN
 -2.774775        NaN        NaN
 -2.766767        NaN        NaN
 -2.758759        NaN        NaN
 -2.750751        NaN        NaN
 -2.742743        NaN        NaN
 -2.734735        NaN        NaN
 -2.726727        NaN        NaN
 -2.718719        NaN        NaN
 -2.710711        NaN        NaN
 -2.702703        NaN        NaN
 -2.694695        NaN        NaN
 -2.686687        NaN        NaN
 -2.678679        NaN        NaN
 -2.670671        NaN        NaN
 -2.662663        NaN        NaN
 -2.654655        NaN        NaN
 -2.646647        NaN        NaN
 -2.638638        NaN        NaN
 -2.630631        NaN        NaN
 -2.622623        NaN        NaN
 -2.614615        NaN        NaN
 -2.606607        NaN        NaN
 -2.598598        NaN        NaN
 -2.590591        NaN        NaN
 -2.582583        NaN        NaN
 -2.574575        NaN        NaN
 -2.566567        NaN        NaN
 -2.558558        NaN        NaN
 -2.550551        NaN        NaN
 -2.542543        NaN        NaN
 -2.534534        NaN        NaN
 -2.526527        NaN        NaN
 -2.518518        NaN        NaN
 -2.510511        NaN        NaN
 -2.502502        NaN        NaN
 -2.494494        NaN        NaN
 -2.486487        NaN        NaN
 -2.478479        NaN        NaN
 -2.470470        NaN        NaN
 -2.462462        NaN        NaN
 -2.454454        NaN        NaN
 -2.446447        NaN        NaN
 -2.438439        NaN        NaN
 -2.430430        NaN        NaN
 -2.422423        NaN        NaN
 -2.414414        NaN        NaN
 -2.406407        NaN        NaN
 -2.398398        NaN        NaN
 -2.390390        NaN        NaN
 -2.382383        NaN        NaN
 -2.374374        NaN        NaN
 -2.366366        NaN        NaN
 -2.358358        NaN        NaN
 -2.350350        NaN        NaN
 -2.342343        NaN        NaN
 -2.334334        NaN        NaN
 -2.326326        NaN        NaN
 -2.318318        NaN        NaN
 -2.310310        NaN        NaN
 -2.302302        NaN        NaN
 -2.294294        NaN        NaN
 -2.286286        NaN        NaN
 -2.278278        NaN        NaN
 -2.270270        NaN        NaN
 -2.262262        NaN        NaN
 -2.254254        NaN        NaN
 -2.246246        NaN        NaN
 -2.238238        NaN        NaN
 -2.230230        NaN        NaN
 -2.222222        NaN        NaN
 -2.214214        NaN        NaN
 -2.206206        NaN        NaN
 -2.198198        NaN        NaN
 -2.190190        NaN        NaN
 -2.182182        NaN        NaN
 -2.174174        NaN        NaN
 -2.166166        NaN        NaN
 -2.158158        NaN        NaN
 -2.150150        NaN        NaN
 -2.142142        NaN        NaN
 -2.134134        NaN        NaN
 -2.126126        NaN        NaN
 -2.118118        NaN        NaN
 -2.110110        NaN        NaN
 -2.102102        NaN        NaN
 -2.094094        NaN        NaN
 -2.086086        NaN        NaN
 -2.078078        NaN        NaN
 -2.070070        NaN        NaN
 -2.062062        NaN        NaN
 -2.054054        NaN        NaN
 -2.046046        NaN        NaN
 -2.038038        NaN        NaN
 -2.030030        NaN        NaN
 -2.022022        NaN        NaN
 -2.014014        NaN        NaN
 -2.006006        NaN        NaN
 -1.997998        NaN        NaN
 -1.989990        NaN        NaN
 -1.981982        NaN        NaN
 -1.973974        NaN        NaN
 -1.965966        NaN        NaN
 -1.957958        NaN        NaN
 -1.949950        NaN        NaN
 -1.941942        NaN        NaN
 -1.933934        NaN        NaN
 -1.925926        NaN        NaN
 -1.917918        NaN        NaN
 -1.909910        NaN        NaN
 -1.901902        NaN        NaN
 -1.893894        NaN        NaN
 -1.885886        NaN        NaN
 -1.877878        NaN        NaN
 -1.869870        NaN        NaN
 -1.861862        NaN        NaN
 -1.853854        NaN        NaN
 -1.845846        NaN        NaN
 -1.837838        NaN        NaN
 -1.829830        NaN        NaN
 -1.821822        NaN        NaN
 -1.813814        NaN        NaN
 -1.805806        NaN        NaN
 -1.797798        NaN        NaN
 -1.789790        NaN        NaN
 -1.781782        NaN        NaN
 -1.773774        NaN        NaN
 -1.765766        NaN        NaN
 -1.757758        NaN        NaN
 -1.749750        NaN        NaN
 -1.741742        NaN        NaN
 -1.733734        NaN        NaN
 -1.725726        NaN        NaN
 -1.717718        NaN        NaN
 -1.709710        NaN        NaN
 -1.701702        NaN        NaN
 -1.693694        NaN        NaN
 -1.685686        NaN        NaN
 -1.677678        NaN        NaN
 -1.669670        NaN        NaN
 -1.661662        NaN        NaN
 -1.653654        NaN        NaN
 -1.645646        NaN        NaN
 -1.637638        NaN        NaN
 -1.629630        NaN        NaN
 -1.621622        NaN        NaN
 -1.613614        NaN        NaN
 -1.605606        NaN        NaN
 -1.597598        NaN        NaN
 -1.589590        NaN        NaN
 -1.581582        NaN        NaN
 -1.573574        NaN        NaN
 -1.565566        NaN        NaN
 -1.557558        NaN        NaN
 -1.549550        NaN        NaN
 -1.541542        NaN        NaN
 -1.533534        NaN        NaN
 -1.525526        NaN        NaN
 -1.517518        NaN        NaN
 -1.509510        NaN        NaN
 -1.501502        NaN        NaN
 -1.493494        NaN        NaN
 -1.485486        NaN        NaN
 -1.477478        NaN        NaN
 -1.469470        NaN        NaN
 -1.461462        NaN        NaN
 -1.453454        NaN        NaN
 -1.445446        NaN        NaN
 -1.437438        NaN        NaN
 -1.429430        NaN        NaN
 -1.421422        NaN        NaN
 -1.413413        NaN        NaN
 -1.405406        NaN        NaN
 -1.397398        NaN        NaN
 -1.389390        NaN        NaN
 -1.381381        NaN        NaN
 -1.373373        NaN        NaN
 -1.365366        NaN        NaN
 -1.357358        NaN        NaN
 -1.349349        NaN        NaN
 -1.341341        NaN        NaN
 -1.333333        NaN        NaN
 -1.325325        NaN        NaN
 -1.317317        NaN        NaN
 -1.309309        NaN        NaN
 -1.301301        NaN        NaN
 -1.293293        NaN        NaN
 -1.285285        NaN        NaN
 -1.277277        NaN        NaN
 -1.269269        NaN        NaN
 -1.261261        NaN        NaN
 -1.253253        NaN        NaN
 -1.245245        NaN        NaN
 -1.237237        NaN        NaN
 -1.229229        NaN        NaN
 -1.221221        NaN        NaN
 -1.213213        NaN        NaN
 -1.205205        NaN        NaN
 -1.197197        NaN        NaN
 -1.189189        NaN        NaN
 -1.181181        NaN        NaN
 -1.173173        NaN        NaN
 -1.165165        NaN        NaN
 -1.157157        NaN        NaN
 -1.149149        NaN        NaN
 -1.141141        NaN        NaN
 -1.133133        NaN        NaN
 -1.125125        NaN        NaN
 -1.117117        NaN        NaN
 -1.109109        NaN        NaN
 -1.101101        NaN        NaN
 -1.093093        NaN        NaN
 -1.085085        NaN        NaN
 -1.077077        NaN        NaN
 -1.069069        NaN        NaN
 -1.061061        NaN        NaN
 -1.053053        NaN        NaN
 -1.045045        NaN        NaN
 -1.037037        NaN        NaN
 -1.029029        NaN        NaN
 -1.021021        NaN        NaN
 -1.013013        NaN        NaN
 -1.005005        NaN        NaN
 -0.996997        NaN        NaN
 -0.988989        NaN        NaN
 -0.980981        NaN        NaN
 -0.972973        NaN        NaN
 -0.964965        NaN        NaN
 -0.956957        NaN        NaN
 -0.948949        NaN        NaN
 -0.940941        NaN        NaN
 -0.932933        NaN        NaN
 -0.924925        NaN        NaN
 -0.916917        NaN        NaN
 -0.908909        NaN        NaN
 -0.900901        NaN        NaN
 -0.892893        NaN        NaN
 -0.884885        NaN        NaN
 -0.876877        NaN        NaN
 -0.868869        NaN        NaN
 -0.860861        NaN        NaN
 -0.852853        NaN        NaN
 -0.844845        NaN        NaN
 -0.836837        NaN        NaN
 -0.828829        NaN        NaN
 -0.820821        NaN        NaN
 -0.812813        NaN        NaN
 -0.804805        NaN        NaN
 -0.796797        NaN        NaN
 -0.788789        NaN        NaN
 -0.780781        NaN        NaN
 -0.772773        NaN        NaN
 -0.764765        NaN        NaN
 -0.756757        NaN        NaN
 -0.748749        NaN        NaN
 -0.740741        NaN        NaN
 -0.732733        NaN        NaN
 -0.724725        NaN        NaN
 -0.716717        NaN        NaN
 -0.708709        NaN        NaN
 -0.700701        NaN        NaN
 -0.692693        NaN        NaN
 -0.684685        NaN        NaN
 -0.676677        NaN        NaN
 -0.668669        NaN        NaN
 -0.660661        NaN        NaN
 -0.652653        NaN        NaN
 -0.644645        NaN        NaN
 -0.636637        NaN        NaN
 -0.628629        NaN        NaN
 -0.620621        NaN        NaN
 -0.612613        NaN        NaN
 -0.604605        NaN        NaN
 -0.596597        NaN        NaN
 -0.588589        NaN        NaN
 -0.580581        NaN        NaN
 -0.572573        NaN        NaN
 -0.564565        NaN        NaN
 -0.556557        NaN        NaN
 -0.548549        NaN        NaN
 -0.540541        NaN        NaN
 -0.532533        NaN        NaN
 -0.524525        NaN        NaN
 -0.516517        NaN        NaN
 -0.508509        NaN        NaN
 -0.500500        NaN        NaN
 -0.492493        NaN        NaN
 -0.484485        NaN        NaN
 -0.476477        NaN        NaN
 -0.468469        NaN        NaN
 -0.460460        NaN        NaN
 -0.452453        NaN        NaN
 -0.444445        NaN        NaN
 -0.436436        NaN        NaN
 -0.428429        NaN        NaN
 -0.420421        NaN        NaN
 -0.412413        NaN        NaN
 -0.404405        NaN        NaN
 -0.396396        NaN        NaN
 -0.388389        NaN        NaN
 -0.380381        NaN        NaN
 -0.372372        NaN        NaN
 -0.364365        NaN        NaN
 -0.356356        NaN        NaN
 -0.348348        NaN        NaN
 -0.340341        NaN        NaN
 -0.332332        NaN        NaN
 -0.324325        NaN        NaN
 -0.316316        NaN        NaN
 -0.308308        NaN        NaN
 -0.300301        NaN        NaN
 -0.292292        NaN        NaN
 -0.284285        NaN        NaN
 -0.276276        NaN        NaN
 -0.268268        NaN        NaN
 -0.260261        NaN        NaN
 -0.252252        NaN        NaN
 -0.244244        NaN        NaN
 -0.236236        NaN        NaN
 -0.228228        NaN        NaN
 -0.220220        NaN        NaN
 -0.212212        NaN        NaN
 -0.204204        NaN        NaN
 -0.196197        NaN        NaN
 -0.188188        NaN        NaN
 -0.180180        NaN        NaN
 -0.172172        NaN        NaN
 -0.164164        NaN        NaN
 -0.156156        NaN        NaN
 -0.148148        NaN        NaN
 -0.140140        NaN        NaN
 -0.132132        NaN        NaN
 -0.124124        NaN        NaN
 -0.116116        NaN        NaN
 -0.108108        NaN        NaN
 -0.100100        NaN        NaN
  -0.09209        NaN        NaN
  -0.08408        NaN        NaN
  -0.07608        NaN        NaN
  -0.06807        NaN        NaN
  -0.06006        NaN        NaN
  -0.05205        NaN        NaN
  -0.04404        NaN        NaN
  -0.03604        NaN        NaN
  -0.02803        NaN        NaN
  -0.02002        NaN        NaN
  -0.01201        NaN        NaN
   -0.0040        NaN        NaN
    0.0040        NaN        NaN
   0.01201        NaN        NaN
   0.02002        NaN        NaN
   0.02803        NaN        NaN
   0.03604        NaN        NaN
   0.04404        NaN        NaN
   0.05205        NaN        NaN
   0.06006        NaN        NaN
   0.06807        NaN        NaN
   0.07608        NaN        NaN
   0.08408        NaN        NaN
   0.09209        NaN        NaN
  0.100100        NaN        NaN
  0.108108        NaN        NaN
  0.116116        NaN        NaN
  0.124124        NaN        NaN
  0.132132        NaN        NaN
  0.140140        NaN        NaN
  0.148148        NaN        NaN
  0.156156        NaN        NaN
  0.164164        NaN        NaN
  0.172172        NaN        NaN
  0.180180        NaN        NaN
  0.188188        NaN        NaN
  0.196196        NaN        NaN
  0.204204        NaN        NaN
  0.212212        NaN        NaN
  0.220220        NaN        NaN
  0.228228        NaN        NaN
  0.236236        NaN        NaN
  0.244244        NaN        NaN
  0.252252        NaN        NaN
  0.260260        NaN        NaN
  0.268268        NaN        NaN
  0.276276        NaN        NaN
  0.284284        NaN        NaN
  0.292292        NaN        NaN
  0.300300        NaN        NaN
  0.308308        NaN        NaN
  0.316316        NaN        NaN
  0.324324        NaN        NaN
  0.332332        NaN        NaN
  0.340340        NaN        NaN
  0.348348        NaN        NaN
  0.356356        NaN        NaN
  0.364364        NaN        NaN
  0.372372        NaN        NaN
  0.380380        NaN        NaN
  0.388388        NaN        NaN
  0.396396        NaN        NaN
  0.404404        NaN        NaN
  0.412412        NaN        NaN
  0.420420        NaN        NaN
  0.428428        NaN        NaN
  0.436436        NaN        NaN
  0.444444        NaN        NaN
  0.452452        NaN        NaN
  0.460460        NaN        NaN
  0.468468        NaN        NaN
  0.476476        NaN        NaN
  0.484484        NaN        NaN
  0.492492        NaN        NaN
  0.500500        NaN        NaN
  0.508508        NaN        NaN
  0.516516        NaN        NaN
  0.524524        NaN        NaN
  0.532532        NaN        NaN
  0.540541        NaN        NaN
  0.548548        NaN        NaN
  0.556556        NaN        NaN
  0.564564        NaN        NaN
  0.572572        NaN        NaN
  0.580581        NaN        NaN
  0.588588        NaN        NaN
  0.596596        NaN        NaN
  0.604605        NaN        NaN
  0.612612        NaN        NaN
  0.620621        NaN        NaN
  0.628628        NaN        NaN
  0.636636        NaN        NaN
  0.644645        NaN        NaN
  0.652652        NaN        NaN
  0.660660        NaN        NaN
  0.668669        NaN        NaN
  0.676676        NaN        NaN
  0.684685        NaN        NaN
  0.692692        NaN        NaN
  0.700700        NaN        NaN
  0.708709        NaN        NaN
  0.716716        NaN        NaN
  0.724725        NaN        NaN
  0.732733        NaN        NaN
  0.740740        NaN        NaN
  0.748749        NaN        NaN
  0.756756        NaN        NaN
  0.764765        NaN        NaN
  0.772773        NaN        NaN
  0.780780        NaN        NaN
  0.788789        NaN        NaN
  0.796797        NaN        NaN
  0.804805        NaN        NaN
  0.812813        NaN        NaN
  0.820821        NaN        NaN
  0.828829        NaN        NaN
  0.836837        NaN        NaN
  0.844845        NaN        NaN
  0.852853        NaN        NaN
  0.860861        NaN        NaN
  0.868869        NaN        NaN
  0.876877        NaN        NaN
  0.884884        NaN        NaN
  0.892893        NaN        NaN
  0.900901        NaN        NaN
  0.908909        NaN        NaN
  0.916917        NaN        NaN
  0.924925        NaN        NaN
  0.932933        NaN        NaN
  0.940941        NaN        NaN
  0.948949        NaN        NaN
  0.956957        NaN        NaN
  0.964965        NaN        NaN
  0.972973        NaN        NaN
  0.980981        NaN        NaN
  0.988989        NaN        NaN
  0.996997        NaN        NaN
  1.005005        NaN        NaN
  1.013013        NaN        NaN
  1.021021        NaN        NaN
  1.029029        NaN        NaN
  1.037037        NaN        NaN
  1.045045        NaN        NaN
  1.053053        NaN        NaN
  1.061061        NaN        NaN
  1.069069        NaN        NaN
  1.077077        NaN        NaN
  1.085085        NaN        NaN
  1.093093        NaN        NaN
  1.101101        NaN        NaN
  1.109109        NaN        NaN
  1.117117        NaN        NaN
  1.125125        NaN        NaN
  1.133133        NaN        NaN
  1.141141        NaN        NaN
  1.149149        NaN        NaN
  1.157157        NaN        NaN
  1.165165        NaN        NaN
  1.173173        NaN        NaN
  1.181181        NaN        NaN
  1.189189        NaN        NaN
  1.197197        NaN        NaN
  1.205205        NaN        NaN
  1.213213        NaN        NaN
  1.221221        NaN        NaN
  1.229229        NaN        NaN
  1.237237        NaN        NaN
  1.245245        NaN        NaN
  1.253253        NaN        NaN
  1.261261        NaN        NaN
  1.269269        NaN        NaN
  1.277277        NaN        NaN
  1.285285        NaN        NaN
  1.293293        NaN        NaN
  1.301301        NaN        NaN
  1.309309        NaN        NaN
  1.317317        NaN        NaN
  1.325325        NaN        NaN
  1.333333        NaN        NaN
  1.341341        NaN        NaN
  1.349349        NaN        NaN
  1.357357        NaN        NaN
  1.365365        NaN        NaN
  1.373373        NaN        NaN
  1.381381        NaN        NaN
  1.389389        NaN        NaN
  1.397397        NaN        NaN
  1.405405        NaN        NaN
  1.413413        NaN        NaN
  1.421421        NaN        NaN
  1.429429        NaN        NaN
  1.437437        NaN        NaN
  1.445445        NaN        NaN
  1.453453        NaN        NaN
  1.461461        NaN        NaN
  1.469469        NaN        NaN
  1.477477        NaN        NaN
  1.485485        NaN        NaN
  1.493493        NaN        NaN
  1.501501        NaN        NaN
  1.509509        NaN        NaN
  1.517517        NaN        NaN
  1.525525        NaN        NaN
  1.533533        NaN        NaN
  1.541541        NaN        NaN
  1.549549        NaN        NaN
  1.557557        NaN        NaN
  1.565565        NaN        NaN
  1.573573        NaN        NaN
  1.581581        NaN        NaN
  1.589589        NaN        NaN
  1.597597        NaN        NaN
  1.605605        NaN        NaN
  1.613613        NaN        NaN
  1.621622        NaN        NaN
  1.629629        NaN        NaN
  1.637637        NaN        NaN
  1.645645        NaN        NaN
  1.653653        NaN        NaN
  1.661662        NaN        NaN
  1.669670        NaN        NaN
  1.677677        NaN        NaN
  1.685686        NaN        NaN
  1.693693        NaN        NaN
  1.701702        NaN        NaN
  1.709710        NaN        NaN
  1.717717        NaN        NaN
  1.725726        NaN        NaN
  1.733733        NaN        NaN
  1.741741        NaN        NaN
  1.749750        NaN        NaN
  1.757757        NaN        NaN
  1.765766        NaN        NaN
  1.773774        NaN        NaN
  1.781781        NaN        NaN
  1.789790        NaN        NaN
  1.797797        NaN        NaN
  1.805806        NaN        NaN
  1.813814        NaN        NaN
  1.821821        NaN        NaN
  1.829830        NaN        NaN
  1.837838        NaN        NaN
  1.845846        NaN        NaN
  1.853854        NaN        NaN
  1.861861        NaN        NaN
  1.869870        NaN        NaN
  1.877878        NaN        NaN
  1.885886        NaN        NaN
  1.893894        NaN        NaN
  1.901901        NaN        NaN
  1.909910        NaN        NaN
  1.917918        NaN        NaN
  1.925926        NaN        NaN
  1.933934        NaN        NaN
  1.941942        NaN        NaN
  1.949950        NaN        NaN
  1.957958        NaN        NaN
  1.965966        NaN        NaN
  1.973974        NaN        NaN
  1.981982        NaN        NaN
  1.989990        NaN        NaN
  1.997998        NaN        NaN
  2.006006        NaN        NaN
  2.014014        NaN        NaN
  2.022022        NaN        NaN
  2.030030        NaN        NaN
  2.038038        NaN        NaN
  2.046046        NaN        NaN
  2.054054        NaN        NaN
  2.062062        NaN        NaN
  2.070070        NaN        NaN
  2.078078        NaN        NaN
  2.086086        NaN        NaN
  2.094094        NaN        NaN
  2.102102        NaN        NaN
  2.110110        NaN        NaN
  2.118118        NaN        NaN
  2.126126        NaN        NaN
  2.134134        NaN        NaN
  2.142142        NaN        NaN
  2.150150        NaN        NaN
  2.158158        NaN        NaN
  2.166166        NaN        NaN
  2.174174        NaN        NaN
  2.182182        NaN        NaN
  2.190190        NaN        NaN
  2.198198        NaN        NaN
  2.206206        NaN        NaN
  2.214214        NaN        NaN
  2.222222        NaN        NaN
  2.230230        NaN        NaN
  2.238238        NaN        NaN
  2.246246        NaN        NaN
  2.254254        NaN        NaN
  2.262262        NaN        NaN
  2.270270        NaN        NaN
  2.278278        NaN        NaN
  2.286286        NaN        NaN
  2.294294        NaN        NaN
  2.302302        NaN        NaN
  2.310310        NaN        NaN
  2.318318        NaN        NaN
  2.326326        NaN        NaN
  2.334334        NaN        NaN
  2.342342        NaN        NaN
  2.350350        NaN        NaN
  2.358358        NaN        NaN
  2.366366        NaN        NaN
  2.374374        NaN        NaN
  2.382382        NaN        NaN
  2.390390        NaN        NaN
  2.398398        NaN        NaN
  2.406406        NaN        NaN
  2.414414        NaN        NaN
  2.422422        NaN        NaN
  2.430430        NaN        NaN
  2.438438        NaN        NaN
  2.446446        NaN        NaN
  2.454454        NaN        NaN
  2.462462        NaN        NaN
  2.470470        NaN        NaN
  2.478478        NaN        NaN
  2.486486        NaN        NaN
  2.494494        NaN        NaN
  2.502502        NaN        NaN
  2.510510        NaN        NaN
  2.518518        NaN        NaN
  2.526526        NaN        NaN
  2.534534        NaN        NaN
  2.542542        NaN        NaN
  2.550550        NaN        NaN
  2.558558        NaN        NaN
  2.566566        NaN        NaN
  2.574574        NaN        NaN
  2.582582        NaN        NaN
  2.590590        NaN        NaN
  2.598598        NaN        NaN
  2.606606        NaN        NaN
  2.614614        NaN        NaN
  2.622622        NaN        NaN
  2.630630        NaN        NaN
  2.638638        NaN        NaN
  2.646646        NaN        NaN
  2.654654        NaN        NaN
  2.662663        NaN        NaN
  2.670671        NaN        NaN
  2.678678        NaN        NaN
  2.686687        NaN        NaN
  2.694694        NaN        NaN
  2.702703        NaN        NaN
  2.710711        NaN        NaN
  2.718718        NaN        NaN
  2.726727        NaN        NaN
  2.734734        NaN        NaN
  2.742743        NaN        NaN
  2.750751        NaN        NaN
  2.758758        NaN        NaN
  2.766767        NaN        NaN
  2.774775        NaN        NaN
  2.782783        NaN        NaN
  2.790791        NaN        NaN
  2.798798        NaN        NaN
  2.806807        NaN        NaN
  2.814815        NaN        NaN
  2.822822        NaN        NaN
  2.830831        NaN        NaN
  2.838839        NaN        NaN
  2.846846        NaN        NaN
  2.854855        NaN        NaN
  2.862863        NaN        NaN
  2.870870        NaN        NaN
  2.878879        NaN        NaN
  2.886887        NaN        NaN
  2.894895        NaN        NaN
  2.902902        NaN        NaN
  2.910911        NaN        NaN
  2.918919        NaN        NaN
  2.926926        NaN        NaN
  2.934935        NaN        NaN
  2.942943        NaN        NaN
  2.950950        NaN        NaN
  2.958959        NaN        NaN
  2.966967        NaN        NaN
  2.974974        NaN        NaN
  2.982983        NaN        NaN
  2.990991        NaN        NaN
  2.998999        NaN        NaN
  3.007007        NaN        NaN
  3.015015        NaN        NaN
  3.023023        NaN        NaN
  3.031030        NaN        NaN
  3.039039        NaN        NaN
  3.047047        NaN        NaN
  3.055054        NaN        NaN
  3.063063        NaN        NaN
  3.071071        NaN        NaN
  3.079079        NaN        NaN
  3.087087        NaN        NaN
  3.095095        NaN        NaN
  3.103103        NaN        NaN
  3.111111        NaN        NaN
  3.119119        NaN        NaN
  3.127127        NaN        NaN
  3.135134        NaN        NaN
  3.143143        NaN        NaN
  3.151151        NaN        NaN
  3.159158        NaN        NaN
  3.167167        NaN        NaN
  3.175175        NaN        NaN
  3.183183        NaN        NaN
  3.191191        NaN        NaN
  3.199199        NaN        NaN
  3.207207        NaN        NaN
  3.215215        NaN        NaN
  3.223223        NaN        NaN
  3.231231        NaN        NaN
  3.239239        NaN        NaN
  3.247247        NaN        NaN
  3.255255        NaN        NaN
  3.263263        NaN        NaN
  3.271271        NaN        NaN
  3.279279        NaN        NaN
  3.287287        NaN        NaN
  3.295295        NaN        NaN
  3.303303        NaN        NaN
  3.311311        NaN        NaN
  3.319319        NaN        NaN
  3.327327        NaN        NaN
  3.335335        NaN        NaN
  3.343343        NaN        NaN
  3.351351        NaN        NaN
  3.359359        NaN        NaN
  3.367368        NaN        NaN
  3.375375        NaN        NaN
  3.383383        NaN        NaN
  3.391391        NaN        NaN
  3.399399        NaN        NaN
  3.407407        NaN        NaN
  3.415415        NaN        NaN
  3.423423        NaN        NaN
  3.431431        NaN        NaN
  3.439439        NaN        NaN
  3.447448        NaN        NaN
  3.455455        NaN        NaN
  3.463463        NaN        NaN
  3.471472        NaN        NaN
  3.479479        NaN        NaN
  3.487487        NaN        NaN
  3.495495        NaN        NaN
  3.503503        NaN        NaN
  3.511511        NaN        NaN
  3.519519        NaN        NaN
  3.527528        NaN        NaN
  3.535535        NaN        NaN
  3.543543        NaN        NaN
  3.551552        NaN        NaN
  3.559559        NaN        NaN
  3.567567        NaN        NaN
  3.575576        NaN        NaN
  3.583583        NaN        NaN
  3.591591        NaN        NaN
  3.599600        NaN        NaN
  3.607607        NaN        NaN
  3.615615        NaN        NaN
  3.623623        NaN        NaN
  3.631632        NaN        NaN
  3.639639        NaN        NaN
  3.647647        NaN        NaN
  3.655656        NaN        NaN
  3.663663        NaN        NaN
  3.671671        NaN        NaN
  3.679680        NaN        NaN
  3.687687        NaN        NaN
  3.695695        NaN        NaN
  3.703704        NaN        NaN
  3.711712        NaN        NaN
  3.719719        NaN        NaN
  3.727727        NaN        NaN
  3.735736        NaN        NaN
  3.743743        NaN        NaN
  3.751751        NaN        NaN
  3.759760        NaN        NaN
  3.767767        NaN        NaN
  3.775775        NaN        NaN
  3.783784        NaN        NaN
  3.791791        NaN        NaN
  3.799799        NaN        NaN
  3.807808        NaN        NaN
  3.815816        NaN        NaN
  3.823823        NaN        NaN
  3.831831        NaN        NaN
  3.839840        NaN        NaN
  3.847847        NaN        NaN
  3.855855        NaN        NaN
  3.863864        NaN        NaN
  3.871871        NaN        NaN
  3.879879        NaN        NaN
  3.887888        NaN        NaN
  3.895896        NaN        NaN
  3.903903        NaN        NaN
  3.911912        NaN        NaN
  3.919920        NaN        NaN
  3.927927        NaN        NaN
  3.935935        NaN        NaN
  3.943944        NaN        NaN
  3.951951        NaN        NaN
  3.959960        NaN        NaN
  3.967968        NaN        NaN
  3.975976        NaN        NaN
  3.983984        NaN        NaN
  3.991992        NaN        NaN
  4.000000        NaN        NaN
 -4.000     -.1321E-2  -.2659     -.4010     0.5504   
 -3.992     -.1337E-2  -.2669     -.4083     0.2338   
 -3.984     -.1353E-2  -.2680     -.4328     -.9324E-1
 -3.976     -.1369E-2  -.2691     -.4812     -.4444   
 -3.968     -.1385E-2  -.2702     -.5685     -.8384   
 -3.960     -.1401E-2  -.2713     -.7292     -1.303   
 -3.952     -.1417E-2  -.2724     -1.052     -1.876   
 -3.944     -.1433E-2  -.2736     -1.792     -2.554   
 -3.936     -.1450E-2  -.2747     -3.548     -2.727   
 -3.928     -.1466E-2  -.2759     -4.675     -.2976   
 -3.920     -.1482E-2  -.2771     -2.738     0.7645   
 -3.912     -.1499E-2  -.2783     -1.680     0.1558E-1
 -3.904     -.1516E-2  -.2795     -1.403     -.9104   
 -3.896     -.1532E-2  -.2807     -1.541     -1.885   
 -3.888     -.1549E-2  -.2819     -2.139     -3.009   
 -3.880     -.1566E-2  -.2832     -3.721     -4.268   
 -3.872     -.1583E-2  -.2844     -7.474     -4.154   
 -3.864     -.1600E-2  -.2857     -9.055      1.164   
 -3.856     -.1617E-2  -.2870     -5.427      2.749   
 -3.848     -.1635E-2  -.2883     -4.433      1.449   
 -3.840     -.1652E-2  -.2896     -5.623      1.730   
 -3.832     -.1670E-2  -.2909     -4.329      3.711   
 -3.824     -.1687E-2  -.2923     -2.434      3.159   
 -3.816     -.1705E-2  -.2936     -1.708      2.051   
 -3.808     -.1723E-2  -.2950     -1.562     0.9825   
 -3.800     -.1741E-2  -.2964     -1.845     -.1166   
 -3.792     -.1760E-2  -.2978     -2.824     -1.330   
 -3.784     -.1778E-2  -.2992     -5.485     -2.097   
 -3.776     -.1797E-2  -.3007     -9.093      1.527   
 -3.768     -.1815E-2  -.3021     -5.908      5.927   
 -3.760     -.1834E-2  -.3036     -2.848      5.483   
 -3.752     -.1853E-2  -.3050     -1.600      4.437   
 -3.744     -.1873E-2  -.3065     -1.050      3.607   
 -3.736     -.1892E-2  -.3080     -.7722      2.970   
 -3.728     -.1912E-2  -.3096     -.6186      2.457   
 -3.720     -.1932E-2  -.3111     -.5303      2.022   
 -3.712     -.1952E-2  -.3127     -.4816      1.633   
 -3.704     -.1972E-2  -.3142     -.4610      1.268   
 -3.696     -.1993E-2  -.3158     -.4643     0.9091   
 -3.688     -.2013E-2  -.3174     -.4932     0.5397   
 -3.680     -.2034E-2  -.3190     -.5559     0.1404   
 -3.672     -.2055E-2  -.3207     -.6730     -.3144   
 -3.664     -.2077E-2  -.3223     -.8950     -.8613   
 -3.656     -.2098E-2  -.3240     -1.358     -1.542   
 -3.648     -.2120E-2  -.3257     -2.454     -2.263   
 -3.640     -.2142E-2  -.3274     -4.620     -1.721   
 -3.632     -.2165E-2  -.3291     -4.384     0.7610   
 -3.624     -.2187E-2  -.3309     -2.999     0.5502   
 -3.616     -.2210E-2  -.3326     -3.344     -.2431   
 -3.608     -.2233E-2  -.3344     -4.020     0.6601   
 -3.600     -.2257E-2  -.3362     -2.764     0.9589   
 -3.592     -.2280E-2  -.3380     -2.181     -.1501   
 -3.584     -.2304E-2  -.3399     -2.431     -1.570   
 -3.576     -.2328E-2  -.3417     -3.568     -3.295   
 -3.568     -.2353E-2  -.3436     -6.609     -5.235   
 -3.560     -.2378E-2  -.3455     -13.89     -4.321   
 -3.552     -.2403E-2  -.3474     -16.60      7.174   
 -3.544     -.2428E-2  -.3493     -8.379      11.44   
 -3.536     -.2454E-2  -.3513     -4.053      9.874   
 -3.528     -.2480E-2  -.3533     -2.284      8.235   
 -3.520     -.2507E-2  -.3553     -1.454      7.048   
 -3.512     -.2534E-2  -.3573     -1.009      6.193   
 -3.504     -.2561E-2  -.3593     -.7439      5.556   
 -3.495     -.2589E-2  -.3614     -.5737      5.064   
 -3.487     -.2616E-2  -.3635     -.4580      4.671   
 -3.479     -.2645E-2  -.3656     -.3755      4.351   
 -3.471     -.2673E-2  -.3677     -.3146      4.083   
 -3.463     -.2702E-2  -.3698     -.2683      3.855   
 -3.455     -.2732E-2  -.3720     -.2322      3.659   
 -3.447     -.2762E-2  -.3742     -.2034      3.488   
 -3.439     -.2792E-2  -.3764     -.1801      3.337   
 -3.431     -.2823E-2  -.3787     -.1609      3.202   
 -3.423     -.2854E-2  -.3810     -.1448      3.081   
 -3.415     -.2886E-2  -.3833     -.1313      2.971   
 -3.407     -.2918E-2  -.3856     -.1198      2.872   
 -3.399     -.2950E-2  -.3879     -.1099      2.780   
 -3.391     -.2983E-2  -.3903     -.1013      2.696   
 -3.383     -.3017E-2  -.3927     -.9381E-1   2.619   
 -3.375     -.3051E-2  -.3951     -.8721E-1   2.547   
 -3.367     -.3085E-2  -.3976     -.8137E-1   2.479   
 -3.359     -.3120E-2  -.4001     -.7618E-1   2.417   
 -3.351     -.3156E-2  -.4026     -.7154E-1   2.358   
 -3.343     -.3192E-2  -.4051     -.6738E-1   2.302   
 -3.335     -.3229E-2  -.4077     -.6363E-1   2.250   
 -3.327     -.3266E-2  -.4103     -.6023E-1   2.201   
 -3.319     -.3304E-2  -.4129     -.5716E-1   2.154   
   -3.3113    -0.0033    -0.4156    -0.0544     2.1092
   -3.3033    -0.0034    -0.4183    -0.0518     2.0668
   -3.2953    -0.0034    -0.4210    -0.0495     2.0264
   -3.2873    -0.0035    -0.4238    -0.0474     1.9877
   -3.2793    -0.0035    -0.4266    -0.0454     1.9506
   -3.2713    -0.0035    -0.4294    -0.0436     1.9150
   -3.2633    -0.0036    -0.4322    -0.0420     1.8808
   -3.2553    -0.0036    -0.4351    -0.0405     1.8479
   -3.2472    -0.0037    -0.4380    -0.0391     1.8161
   -3.2392    -0.0037    -0.4410    -0.0379     1.7853
   -3.2312    -0.0038    -0.4440    -0.0367     1.7555
   -3.2232    -0.0038    -0.4470    -0.0357     1.7265
   -3.2152    -0.0039    -0.4501    -0.0348     1.6983
   -3.2072    -0.0039    -0.4532    -0.0340     1.6709
   -3.1992    -0.0039    -0.4563    -0.0333     1.6440
   -3.1912    -0.0040    -0.4595    -0.0327     1.6176
   -3.1832    -0.0040    -0.4627    -0.0322     1.5917
   -3.1752    -0.0041    -0.4660    -0.0319     1.5661
   -3.1672    -0.0042    -0.4693    -0.0316     1.5407
   -3.1592    -0.0042    -0.4726    -0.0316     1.5155
   -3.1512    -0.0043    -0.4760    -0.0317     1.4902
   -3.1431    -0.0043    -0.4795    -0.0320     1.4648
   -3.1351    -0.0044    -0.4829    -0.0326     1.4391
   -3.1271    -0.0044    -0.4865    -0.0335     1.4128
   -3.1191    -0.0045    -0.4900    -0.0348     1.3857
   -3.1111    -0.0045    -0.4936    -0.0366     1.3574
   -3.1031    -0.0046    -0.4973    -0.0392     1.3274
   -3.0951    -0.0047    -0.5010    -0.0428     1.2952
   -3.0871    -0.0047    -0.5048    -0.0479     1.2597
   -3.0791    -0.0048    -0.5086    -0.0553     1.2198
   -3.0711    -0.0048    -0.5124    -0.0663     1.1734
   -3.0631    -0.0049    -0.5163    -0.0835     1.1176
   -3.0551    -0.0050    -0.5203    -0.1121     1.0473
   -3.0470    -0.0050    -0.5243    -0.1639     0.9547
   -3.0390    -0.0051    -0.5284    -0.2695     0.8288
   -3.0310    -0.0052    -0.5325    -0.5180     0.6755
   -3.0230    -0.0053    -0.5367    -1.1083     0.7223
   -3.0150    -0.0053    -0.5409    -1.4108     1.6523
   -3.0070    -0.0054    -0.5452    -0.7314     2.0664
   -2.9990    -0.0055    -0.5496    -0.3530     1.9411
   -2.9910    -0.0056    -0.5540    -0.1994     1.8000
   -2.9830    -0.0056    -0.5585    -0.1283     1.6960
   -2.9750    -0.0057    -0.5631    -0.0905     1.6198
   -2.9670    -0.0058    -0.5677    -0.0683     1.5617
   -2.9590    -0.0059    -0.5724    -0.0541     1.5157
   -2.9510    -0.0060    -0.5771    -0.0445     1.4780
   -2.9429    -0.0061    -0.5819    -0.0376     1.4462
   -2.9349    -0.0062    -0.5868    -0.0326     1.4188
   -2.9269    -0.0063    -0.5918    -0.0287     1.3947
   -2.9189    -0.0063    -0.5969    -0.0257     1.3732
   -2.9109    -0.0064    -0.6020    -0.0233     1.3539
   -2.9029    -0.0065    -0.6072    -0.0213     1.3362
   -2.8949    -0.0066    -0.6125    -0.0196     1.3199
   -2.8869    -0.0067    -0.6178    -0.0182     1.3049
   -2.8789    -0.0069    -0.6233    -0.0170     1.2909
   -2.8709    -0.0070    -0.6288    -0.0159     1.2777
   -2.8629    -0.0071    -0.6344    -0.0150     1.2654
   -2.8549    -0.0072    -0.6401    -0.0141     1.2538
   -2.8468    -0.0073    -0.6459    -0.0134     1.2428
   -2.8388    -0.0074    -0.6518    -0.0127     1.2324
   -2.8308    -0.0075    -0.6578    -0.0120     1.2225
   -2.8228    -0.0077    -0.6639    -0.0114     1.2131
   -2.8148    -0.0078    -0.6700    -0.0109     1.2042
   -2.8068    -0.0079    -0.6763    -0.0103     1.1957
   -2.7988    -0.0080    -0.6827    -0.0098     1.1877
   -2.7908    -0.0082    -0.6892    -0.0093     1.1800
   -2.7828    -0.0083    -0.6958    -0.0088     1.1727
   -2.7748    -0.0085    -0.7025    -0.0084     1.1658
   -2.7668    -0.0086    -0.7094    -0.0079     1.1593
   -2.7588    -0.0088    -0.7163    -0.0074     1.1532
   -2.7508    -0.0089    -0.7234    -0.0069     1.1474
   -2.7427    -0.0091    -0.7306    -0.0064     1.1421
   -2.7347    -0.0092    -0.7379    -0.0059     1.1371
   -2.7267    -0.0094    -0.7454    -0.0054     1.1325
   -2.7187    -0.0096    -0.7530    -0.0048     1.1284
   -2.7107    -0.0097    -0.7607    -0.0042     1.1248
   -2.7027    -0.0099    -0.7686    -0.0036     1.1216
   -2.6947    -0.0101    -0.7766    -0.0029     1.1190
 -2.687     -.1029E-1  -.7848     -.2070E-2   1.117   
 -2.679     -.1048E-1  -.7931     -.1178E-2   1.116   
 -2.671     -.1068E-1  -.8015     -.1621E-3   1.115   
 -2.663     -.1088E-1  -.8102     0.1012E-2   1.115   
 -2.655     -.1108E-1  -.8190     0.2389E-2   1.117   
   -2.6466    -0.0113    -0.8279     0.0040     1.1190
   -2.6386    -0.0115    -0.8371     0.0060     1.1228
   -2.6306    -0.0117    -0.8464     0.0085     1.1283
  -2.62262   -0.01196   -0.85585    0.01161    1.13600
  -2.61461   -0.01220   -0.86552    0.01566    1.14637
  -2.60661   -0.01244   -0.87538    0.02105    1.16026
  -2.59860   -0.01268   -0.88543    0.02849    1.17884
  -2.59059   -0.01293   -0.89569    0.03919    1.20388
  -2.58258   -0.01319   -0.90614    0.05535    1.23812
  -2.57457   -0.01345   -0.91680    0.08145    1.28598
  -2.56657   -0.01371   -0.92767    0.12730    1.35462
  -2.55856   -0.01398   -0.93876    0.21762    1.45471
  -2.55055   -0.01426   -0.95006    0.42314    1.58917
  -2.54254   -0.01453   -0.96159    0.92947    1.62060
  -2.53453   -0.01481   -0.97334    1.45363    0.84044
  -2.52653   -0.01509   -0.98531    0.84309    0.18619
  -2.51852   -0.01538   -0.99752    0.38676    0.25530
  -2.51051   -0.01566   -1.00994    0.20290    0.38736
  -2.50250   -0.01594   -1.02260    0.12068    0.48345
  -2.49449   -0.01621   -1.03547    0.07836    0.54967
  -2.48649   -0.01647   -1.04856    0.05406    0.59635
  -2.47848   -0.01672   -1.06186    0.03894    0.63023
  -2.47047   -0.01695   -1.07536    0.02894    0.65548
  -2.46246   -0.01716   -1.08903    0.02200    0.67469
  -2.45445   -0.01733   -1.10286    0.01700    0.68954
  -2.44645   -0.01745   -1.11681    0.01329    0.70115
  -2.43844   -0.01751   -1.13084    0.01046    0.71030
   -2.4304    -0.0175    -1.1449     0.0083     0.7175
   -2.4224    -0.0174    -1.1589     0.0065     0.7233
   -2.4144    -0.0171    -1.1728     0.0051     0.7278
   -2.4064    -0.0166    -1.1864     0.0040     0.7313
   -2.3984    -0.0158    -1.1995     0.0031     0.7341
 -2.390     -.1469E-1  -1.212     0.2299E-2  0.7362   
 -2.382     -.1302E-1  -1.223     0.1652E-2  0.7377   
 -2.374     -.1059E-1  -1.233     0.1106E-2  0.7388   
 -2.366     -.7031E-2  -1.241     0.6420E-3  0.7394   
 -2.358     -.1759E-2  -1.246     0.2462E-3  0.7398   
 -2.350     0.6228E-2  -1.245     -.9331E-4  0.7398   
 -2.342     0.1874E-1  -1.238     -.3858E-3  0.7396   
 -2.334     0.3932E-1  -1.221     -.6388E-3  0.7392   
 -2.326     0.7552E-1  -1.186     -.8583E-3  0.7385   
 -2.318     0.1456     -1.125     -.1049E-2  0.7378   
 -2.310     0.2998     -1.029     -.1216E-2  0.7368   
 -2.302     0.6836     -.9548     -.1361E-2  0.7358   
 -2.294      1.357     -1.442     -.1489E-2  0.7347   
 -2.286      1.025     -2.410     -.1600E-2  0.7334   
 -2.278     0.4399     -2.499     -.1698E-2  0.7321   
 -2.270     0.1931     -2.402     -.1783E-2  0.7307   
 -2.262     0.8570E-1  -2.337     -.1858E-2  0.7292   
 -2.254     0.3062E-1  -2.308     -.1924E-2  0.7277   
 -2.246     -.2037E-2  -2.304     -.1982E-2  0.7261   
 -2.238     -.2391E-1  -2.318     -.2032E-2  0.7245   
 -2.230     -.4018E-1  -2.346     -.2075E-2  0.7229   
 -2.222     -.5346E-1  -2.385     -.2113E-2  0.7212   
 -2.214     -.6519E-1  -2.433     -.2146E-2  0.7195   
 -2.206     -.7627E-1  -2.489     -.2174E-2  0.7178   
 -2.198     -.8732E-1  -2.555     -.2198E-2  0.7160   
 -2.190     -.9885E-1  -2.629     -.2218E-2  0.7142   
 -2.182     -.1113     -2.713     -.2235E-2  0.7125   
 -2.174     -.1252     -2.807     -.2249E-2  0.7107   
 -2.166     -.1410     -2.912     -.2260E-2  0.7088   
 -2.158     -.1594     -3.031     -.2268E-2  0.7070   
 -2.150     -.1814     -3.165     -.2275E-2  0.7052   
 -2.142     -.2082     -3.319     -.2279E-2  0.7034   
 -2.134     -.2416     -3.495     -.2282E-2  0.7016   
 -2.126     -.2845     -3.700     -.2283E-2  0.6997   
 -2.118     -.3413     -3.942     -.2283E-2  0.6979   
 -2.110     -.4197     -4.233     -.2281E-2  0.6961   
 -2.102     -.5345     -4.591     -.2278E-2  0.6943   
 -2.094     -.7169     -5.041     -.2274E-2  0.6924   
 -2.086     -1.044     -5.608     -.2269E-2  0.6906   
 -2.078     -1.670     -6.198     -.2263E-2  0.6888   
 -2.070     -2.313     -6.587     -.2256E-2  0.6870   
 -2.062     -3.140     -7.594     -.2249E-2  0.6852   
 -2.054     -5.447     -8.631     -.2240E-2  0.6834   
 -2.046     -9.249     -8.163     -.2232E-2  0.6816   
 -2.038     -12.99     -3.619     -.2222E-2  0.6798   
 -2.030     -11.42      2.444     -.2212E-2  0.6780   
 -2.022     -6.749      4.764     -.2202E-2  0.6763   
 -2.014     -3.461      3.770     -.2191E-2  0.6745   
 -2.006     -2.026      2.377     -.2180E-2  0.6728   
   -1.9980    -1.3759     1.2812    -0.0022     0.6710
   -1.9900    -1.0533     0.4233    -0.0022     0.6693
   -1.9820    -0.8950    -0.2936    -0.0021     0.6676
   -1.9740    -0.8425    -0.9412    -0.0021     0.6658
   -1.9660    -0.8892    -1.5760    -0.0021     0.6641
 -1.958     -1.085     -2.245     -.2108E-2  0.6624   
 -1.950     -1.606     -2.924     -.2095E-2  0.6608   
 -1.942     -2.554     -3.081     -.2082E-2  0.6591   
 -1.934     -2.849     -2.888     -.2069E-2  0.6574   
 -1.926     -3.694     -2.947     -.2056E-2  0.6558   
 -1.918     -3.893     -1.756     -.2043E-2  0.6541   
 -1.910     -3.074     -1.669     -.2029E-2  0.6525   
 -1.902     -2.631     -2.289     -.2016E-2  0.6509   
 -1.894     -2.992     -3.378     -.2002E-2  0.6493   
 -1.886     -4.245     -4.115     -.1989E-2  0.6477   
 -1.878     -6.584     -3.810     -.1976E-2  0.6461   
 -1.870     -7.241     -.6241     -.1962E-2  0.6445   
 -1.862     -4.972     -.1672     -.1949E-2  0.6429   
 -1.854     -5.056     -1.431     -.1935E-2  0.6414   
 -1.846     -6.258     -.9799     -.1922E-2  0.6399   
 -1.838     -6.424     -.2044     -.1908E-2  0.6383   
 -1.830     -6.583     0.4676     -.1895E-2  0.6368   
 -1.822     -6.652      1.193     -.1882E-2  0.6353   
 -1.814     -7.186      2.652     -.1868E-2  0.6338   
 -1.806     -5.109      4.678     -.1855E-2  0.6323   
 -1.798     -3.065      3.945     -.1842E-2  0.6308   
 -1.790     -2.670      2.980     -.1829E-2  0.6293   
 -1.782     -2.478      3.078     -.1816E-2  0.6279   
 -1.774     -1.600      2.749     -.1803E-2  0.6264   
 -1.766     -1.195      2.001     -.1790E-2  0.6250   
   -1.7578    -1.1937     1.2826    -0.0018     0.6236
   -1.7497    -1.6370     0.7796    -0.0018     0.6221
 -1.742     -2.066      1.175     -.1751E-2  0.6207   
   -1.7337    -1.5122     1.2981    -0.0017     0.6193
   -1.7257    -1.3859     0.9151    -0.0017     0.6180
 -1.718     -1.319     0.9304     -.1714E-2  0.6166   
 -1.710     -.9331     0.6479     -.1701E-2  0.6152   
 -1.702     -.7857     0.1308     -.1689E-2  0.6139   
 -1.694     -.8191     -.4267     -.1677E-2  0.6125   
 -1.686     -1.022     -1.048     -.1665E-2  0.6112   
 -1.678     -1.544     -1.772     -.1653E-2  0.6098   
 -1.670     -2.833     -2.356     -.1641E-2  0.6085   
 -1.662     -4.712     -1.337     -.1629E-2  0.6072   
 -1.654     -4.493     0.9904     -.1617E-2  0.6059   
 -1.646     -2.687      1.416     -.1606E-2  0.6046   
 -1.638     -1.921     0.5438     -.1594E-2  0.6033   
 -1.630     -2.140     -.2825     -.1583E-2  0.6021   
 -1.622     -2.729     -.2506     -.1572E-2  0.6008   
 -1.614     -2.672     -.3035     -.1561E-2  0.5996   
 -1.606     -3.248     -.2042     -.1550E-2  0.5983   
 -1.598     -2.808     0.3655     -.1539E-2  0.5971   
 -1.590     -2.407     -.2541     -.1528E-2  0.5958   
 -1.582     -2.825     -.7809     -.1517E-2  0.5946   
 -1.574     -3.355     -1.091     -.1507E-2  0.5934   
 -1.566     -4.466     -1.305     -.1496E-2  0.5922   
 -1.558     -5.518     -.9238E-1  -.1486E-2  0.5910   
 -1.550     -5.444      1.042     -.1476E-2  0.5898   
 -1.542     -5.203      1.655     -.1465E-2  0.5887   
 -1.534     -4.915      2.471     -.1455E-2  0.5875   
 -1.526     -4.425      3.450     -.1446E-2  0.5863   
 -1.518     -2.799      3.883     -.1436E-2  0.5852   
 -1.510     -1.705      3.095     -.1426E-2  0.5840   
 -1.502     -1.354      2.203     -.1417E-2  0.5829   
 -1.493     -1.484      1.401     -.1407E-2  0.5818   
 -1.485     -2.190     0.9841     -.1398E-2  0.5806   
 -1.477     -2.638      1.525     -.1389E-2  0.5795   
 -1.469     -2.531      2.081     -.1380E-2  0.5784   
 -1.461     -1.665      2.363     -.1371E-2  0.5773   
 -1.453     -1.052      1.852     -.1362E-2  0.5762   
 -1.445     -.8412      1.259     -.1354E-2  0.5751   
 -1.437     -.8352     0.6846     -.1345E-2  0.5740   
 -1.429     -1.030     0.1018     -.1337E-2  0.5730   
 -1.421     -1.597     -.3626     -.1328E-2  0.5719   
 -1.413     -2.176     -.2523E-1  -.1320E-2  0.5708   
 -1.405     -1.770     -.8674E-2  -.1312E-2  0.5698   
 -1.397     -1.856     -.7312     -.1304E-2  0.5687   
 -1.389     -2.630     -1.196     -.1297E-2  0.5677   
 -1.381     -3.360     -1.192     -.1289E-2  0.5667   
 -1.373     -4.284     -1.125     -.1282E-2  0.5656   
 -1.365     -5.214     0.5232E-1  -.1275E-2  0.5646   
 -1.357     -4.306     0.9531     -.1268E-2  0.5636   
 -1.349     -4.196     0.2211     -.1261E-2  0.5626   
 -1.341     -5.119     0.4442     -.1254E-2  0.5616   
 -1.333     -5.339     0.7761     -.1247E-2  0.5606   
 -1.325     -6.436      1.579     -.1241E-2  0.5596   
 -1.317     -6.335      3.432     -.1234E-2  0.5586   
 -1.309     -4.626      4.526     -.1228E-2  0.5576   
 -1.301     -3.593      3.728     -.1222E-2  0.5566   
 -1.293     -3.872      3.658     -.1216E-2  0.5556   
 -1.285     -3.162      3.824     -.1211E-2  0.5547   
 -1.277     -3.253      3.185     -.1205E-2  0.5537   
 -1.269     -3.883      3.783     -.1200E-2  0.5527   
 -1.261     -3.125      4.645     -.1195E-2  0.5518   
 -1.253     -2.181      4.611     -.1190E-2  0.5508   
 -1.245     -1.528      3.998     -.1185E-2  0.5499   
 -1.237     -1.510      3.238     -.1181E-2  0.5489   
 -1.229     -2.128      2.867     -.1176E-2  0.5480   
 -1.221     -2.382      3.369     -.1172E-2  0.5470   
 -1.213     -2.245      3.457     -.1169E-2  0.5461   
 -1.205     -2.295      3.506     -.1165E-2  0.5452   
 -1.197     -2.264      4.032     -.1161E-2  0.5442   
 -1.189     -1.699      3.985     -.1158E-2  0.5433   
 -1.181     -1.895      3.843     -.1155E-2  0.5424   
 -1.173     -1.673      4.525     -.1153E-2  0.5415   
 -1.165     -.9038      4.476     -.1150E-2  0.5405   
 -1.157     -.5341      4.135     -.1148E-2  0.5396   
 -1.149     -.3651      3.844     -.1146E-2  0.5387   
 -1.141     -.2745      3.614     -.1145E-2  0.5378   
 -1.133     -.2191      3.429     -.1144E-2  0.5369   
 -1.125     -.1821      3.275     -.1143E-2  0.5360   
 -1.117     -.1557      3.144     -.1142E-2  0.5350   
 -1.109     -.1358      3.030     -.1142E-2  0.5341   
 -1.101     -.1203      2.929     -.1142E-2  0.5332   
 -1.093     -.1079      2.839     -.1142E-2  0.5323   
 -1.085     -.9778E-1   2.758     -.1143E-2  0.5314   
 -1.077     -.8930E-1   2.684     -.1145E-2  0.5305   
 -1.069     -.8211E-1   2.615     -.1146E-2  0.5295   
 -1.061     -.7594E-1   2.553     -.1148E-2  0.5286   
 -1.053     -.7059E-1   2.494     -.1151E-2  0.5277   
 -1.045     -.6590E-1   2.440     -.1154E-2  0.5268   
 -1.037     -.6177E-1   2.389     -.1158E-2  0.5259   
 -1.029     -.5810E-1   2.341     -.1162E-2  0.5249   
 -1.021     -.5481E-1   2.296     -.1167E-2  0.5240   
 -1.013     -.5186E-1   2.254     -.1172E-2  0.5231   
 -1.005     -.4920E-1   2.213     -.1178E-2  0.5221   
 -.9970     -.4679E-1   2.175     -.1185E-2  0.5212   
 -.9890     -.4461E-1   2.138     -.1192E-2  0.5202   
 -.9810     -.4261E-1   2.104     -.1200E-2  0.5193   
 -.9730     -.4079E-1   2.070     -.1209E-2  0.5183   
 -.9650     -.3913E-1   2.038     -.1218E-2  0.5173   
 -.9570     -.3761E-1   2.008     -.1229E-2  0.5164   
 -.9489     -.3622E-1   1.978     -.1240E-2  0.5154   
 -.9409     -.3495E-1   1.950     -.1253E-2  0.5144   
 -.9329     -.3379E-1   1.922     -.1266E-2  0.5134   
 -.9249     -.3273E-1   1.896     -.1281E-2  0.5123   
 -.9169     -.3178E-1   1.870     -.1297E-2  0.5113   
 -.9089     -.3091E-1   1.845     -.1314E-2  0.5103   
 -.9009     -.3014E-1   1.821     -.1333E-2  0.5092   
 -.8929     -.2947E-1   1.797     -.1353E-2  0.5081   
 -.8849     -.2889E-1   1.773     -.1374E-2  0.5070   
 -.8769     -.2840E-1   1.750     -.1398E-2  0.5059   
 -.8689     -.2801E-1   1.728     -.1423E-2  0.5048   
 -.8609     -.2774E-1   1.706     -.1450E-2  0.5037   
 -.8529     -.2758E-1   1.684     -.1479E-2  0.5025   
 -.8448     -.2756E-1   1.662     -.1511E-2  0.5013   
 -.8368     -.2769E-1   1.640     -.1545E-2  0.5001   
 -.8288     -.2800E-1   1.617     -.1582E-2  0.4988   
   -0.8208    -0.0285     1.5948    -0.0016     0.4975
   -0.8128    -0.0293     1.5718    -0.0017     0.4962
   -0.8048    -0.0305     1.5480    -0.0017     0.4949
   -0.7968    -0.0321     1.5232    -0.0018     0.4935
   -0.7888    -0.0343     1.4970    -0.0018     0.4920
   -0.7808    -0.0374     1.4687    -0.0019     0.4906
   -0.7728    -0.0416     1.4378    -0.0019     0.4890
   -0.7648    -0.0476     1.4032    -0.0020     0.4875
   -0.7568    -0.0564     1.3632    -0.0021     0.4858
   -0.7487    -0.0697     1.3156    -0.0022     0.4841
   -0.7407    -0.0909     1.2567    -0.0023     0.4824
   -0.7327    -0.1274     1.1804    -0.0024     0.4805
   -0.7247    -0.1964     1.0772    -0.0025     0.4786
   -0.7167    -0.3458     0.9376    -0.0026     0.4766
   -0.7087    -0.7141     0.8098    -0.0027     0.4744
   -0.7007    -1.3951     1.1974    -0.0029     0.4722
   -0.6927    -1.1262     2.1449    -0.0030     0.4699
   -0.6847    -0.5249     2.2102    -0.0032     0.4674
   -0.6767    -0.2693     2.0604    -0.0034     0.4647
   -0.6687    -0.1607     1.9373    -0.0036     0.4619
   -0.6607    -0.1072     1.8484    -0.0039     0.4589
   -0.6527    -0.0775     1.7826    -0.0042     0.4557
   -0.6446    -0.0593     1.7321    -0.0045     0.4522
   -0.6366    -0.0474     1.6917    -0.0049     0.4485
   -0.6286    -0.0392     1.6584    -0.0053     0.4445
   -0.6206    -0.0333     1.6303    -0.0058     0.4401
   -0.6126    -0.0288     1.6060    -0.0063     0.4353
   -0.6046    -0.0254     1.5847    -0.0070     0.4300
   -0.5966    -0.0227     1.5657    -0.0078     0.4241
   -0.5886    -0.0206     1.5486    -0.0087     0.4176
   -0.5806    -0.0188     1.5330    -0.0098     0.4103
  -0.57257   -0.01728    1.51873   -0.01112    0.40209
  -0.56456   -0.01602    1.50549   -0.01276    0.39270
  -0.55656   -0.01493    1.49318   -0.01480    0.38190
  -0.54855   -0.01399    1.48166   -0.01739    0.36932
  -0.54054   -0.01316    1.47084   -0.02075    0.35449
  -0.53253   -0.01243    1.46064   -0.02521    0.33674
  -0.52452   -0.01178    1.45098   -0.03128    0.31510
  -0.51652   -0.01119    1.44181   -0.03986    0.28817
  -0.50851   -0.01065    1.43309   -0.05251    0.25381
  -0.50050   -0.01017    1.42478   -0.07224    0.20863
   -0.4925    -0.0097     1.4168    -0.1053     0.1471
   -0.4845    -0.0093     1.4092    -0.1662     0.0606
   -0.4765    -0.0089     1.4019    -0.2941    -0.0618
   -0.4685    -0.0086     1.3949    -0.6033    -0.1962
   -0.4605    -0.0082     1.3882    -1.2672     0.0251
   -0.4525    -0.0079     1.3818    -1.2555     1.0347
   -0.4444    -0.0076     1.3755    -0.5953     1.2421
   -0.4364    -0.0074     1.3695    -0.2909     1.1069
   -0.4284    -0.0071     1.3638    -0.1648     0.9852
   -0.4204    -0.0068     1.3582    -0.1046     0.8991
   -0.4124    -0.0066     1.3528    -0.0718     0.8379
   -0.4044    -0.0064     1.3476    -0.0523     0.7930
   -0.3964    -0.0062     1.3426    -0.0397     0.7588
   -0.3884    -0.0060     1.3377    -0.0312     0.7319
   -0.3804    -0.0058     1.3331    -0.0251     0.7104
   -0.3724    -0.0056     1.3285    -0.0207     0.6927
   -0.3644    -0.0054     1.3241    -0.0174     0.6779
   -0.3564    -0.0052     1.3199    -0.0148     0.6653
   -0.3483    -0.0050     1.3158    -0.0128     0.6545
   -0.3403    -0.0049     1.3119    -0.0111     0.6451
   -0.3323    -0.0047     1.3080    -0.0098     0.6368
   -0.3243    -0.0045     1.3043    -0.0087     0.6295
   -0.3163    -0.0044     1.3008    -0.0078     0.6230
   -0.3083    -0.0042     1.2973    -0.0071     0.6170
   -0.3003    -0.0041     1.2940    -0.0065     0.6116
   -0.2923    -0.0039     1.2908    -0.0059     0.6067
   -0.2843    -0.0038     1.2877    -0.0055     0.6022
   -0.2763    -0.0037     1.2847    -0.0051     0.5979
   -0.2683    -0.0035     1.2818    -0.0048     0.5940
   -0.2603    -0.0034     1.2790    -0.0045     0.5903
   -0.2523    -0.0033     1.2763    -0.0043     0.5868
   -0.2442    -0.0032     1.2737    -0.0042     0.5834
   -0.2362    -0.0030     1.2712    -0.0040     0.5801
   -0.2282    -0.0029     1.2689    -0.0039     0.5770
   -0.2202    -0.0028     1.2666    -0.0039     0.5739
   -0.2122    -0.0027     1.2644    -0.0039     0.5708
   -0.2042    -0.0026     1.2623    -0.0039     0.5677
   -0.1962    -0.0025     1.2603    -0.0040     0.5646
   -0.1882    -0.0023     1.2583    -0.0041     0.5613
   -0.1802    -0.0022     1.2565    -0.0043     0.5580
   -0.1722    -0.0021     1.2548    -0.0046     0.5544
   -0.1642    -0.0020     1.2531    -0.0050     0.5507
   -0.1562    -0.0019     1.2515    -0.0055     0.5465
   -0.1481    -0.0018     1.2500    -0.0061     0.5420
   -0.1401    -0.0017     1.2486    -0.0069     0.5369
   -0.1321    -0.0016     1.2473    -0.0080     0.5311
   -0.1241    -0.0015     1.2461    -0.0094     0.5243
   -0.1161    -0.0014     1.2449    -0.0113     0.5163
   -0.1081    -0.0013     1.2438    -0.0139     0.5066
 -.1001     -.1202E-2   1.243     -.1748E-1  0.4946   
 -.9209E-1  -.1103E-2   1.242     -.2261E-1  0.4795   
 -.8408E-1  -.1005E-2   1.241     -.3019E-1  0.4600   
 -.7608E-1  -.9077E-3   1.240     -.4191E-1  0.4338   
 -.6807E-1  -.8109E-3   1.240     -.6105E-1  0.3977   
 -.6006E-1  -.7144E-3   1.239     -.9472E-1  0.3461   
 -.5205E-1  -.6184E-3   1.238     -.1601     0.2700   
 -.4404E-1  -.5227E-3   1.238     -.3046     0.1609   
 -.3604E-1  -.4273E-3   1.238     -.6667     0.6899E-1
 -.2803E-1  -.3321E-3   1.237     -1.336     0.5028   
 -.2002E-1  -.2371E-3   1.237     -1.044      1.500   
 -.1201E-1  -.1422E-3   1.237     -.4154      1.629   
 -.4004E-2  -.4739E-4   1.237     -.1080      1.569   
 0.4004E-2  0.4739E-4   1.237     0.1080      1.569   
 0.1201E-1  0.1422E-3   1.237     0.4154      1.629   
 0.2002E-1  0.2371E-3   1.237      1.044      1.500   
 0.2803E-1  0.3321E-3   1.237      1.336     0.5029   
 0.3604E-1  0.4273E-3   1.238     0.6667     0.6899E-1
 0.4404E-1  0.5227E-3   1.238     0.3046     0.1609   
 0.5205E-1  0.6184E-3   1.238     0.1601     0.2700   
 0.6006E-1  0.7144E-3   1.239     0.9472E-1  0.3461   
 0.6807E-1  0.8109E-3   1.240     0.6105E-1  0.3977   
 0.7608E-1  0.9077E-3   1.240     0.4191E-1  0.4338   
 0.8408E-1  0.1005E-2   1.241     0.3019E-1  0.4599   
 0.9209E-1  0.1103E-2   1.242     0.2261E-1  0.4795   
 0.1001     0.1202E-2   1.243     0.1748E-1  0.4946   
    0.1081     0.0013     1.2438     0.0139     0.5066
    0.1161     0.0014     1.2449     0.0113     0.5163
    0.1241     0.0015     1.2461     0.0094     0.5243
    0.1321     0.0016     1.2473     0.0080     0.5311
    0.1401     0.0017     1.2486     0.0069     0.5369
    0.1481     0.0018     1.2500     0.0061     0.5420
    0.1562     0.0019     1.2515     0.0055     0.5465
    0.1642     0.0020     1.2531     0.0050     0.5507
    0.1722     0.0021     1.2548     0.0046     0.5544
    0.1802     0.0022     1.2565     0.0043     0.5580
    0.1882     0.0023     1.2583     0.0041     0.5613
    0.1962     0.0025     1.2603     0.0040     0.5646
    0.2042     0.0026     1.2623     0.0039     0.5677
    0.2122     0.0027     1.2644     0.0039     0.5708
    0.2202     0.0028     1.2666     0.0039     0.5739
    0.2282     0.0029     1.2689     0.0039     0.5770
    0.2362     0.0030     1.2712     0.0040     0.5801
    0.2442     0.0032     1.2737     0.0042     0.5834
    0.2523     0.0033     1.2763     0.0043     0.5868
    0.2603     0.0034     1.2790     0.0045     0.5903
    0.2683     0.0035     1.2818     0.0048     0.5940
    0.2763     0.0037     1.2847     0.0051     0.5979
    0.2843     0.0038     1.2877     0.0055     0.6022
    0.2923     0.0039     1.2908     0.0059     0.6067
    0.3003     0.0041     1.2940     0.0065     0.6116
    0.3083     0.0042     1.2973     0.0071     0.6170
    0.3163     0.0044     1.3008     0.0078     0.6230
    0.3243     0.0045     1.3043     0.0087     0.6295
    0.3323     0.0047     1.3080     0.0098     0.6368
    0.3403     0.0049     1.3119     0.0111     0.6451
    0.3483     0.0050     1.3158     0.0128     0.6545
    0.3564     0.0052     1.3199     0.0148     0.6653
    0.3644     0.0054     1.3241     0.0174     0.6779
    0.3724     0.0056     1.3285     0.0207     0.6927
    0.3804     0.0058     1.3331     0.0251     0.7104
    0.3884     0.0060     1.3377     0.0312     0.7319
    0.3964     0.0062     1.3426     0.0397     0.7588
    0.4044     0.0064     1.3476     0.0523     0.7930
    0.4124     0.0066     1.3528     0.0718     0.8379
    0.4204     0.0068     1.3582     0.1046     0.8991
    0.4284     0.0071     1.3638     0.1648     0.9852
    0.4364     0.0074     1.3695     0.2909     1.1069
    0.4444     0.0076     1.3755     0.5953     1.2421
    0.4525     0.0079     1.3818     1.2554     1.0347
    0.4605     0.0082     1.3882     1.2672     0.0251
    0.4685     0.0086     1.3949     0.6033    -0.1962
    0.4765     0.0089     1.4019     0.2941    -0.0618
    0.4845     0.0093     1.4092     0.1662     0.0605
    0.4925     0.0097     1.4168     0.1053     0.1471
   0.50050    0.01017    1.42478    0.07224    0.20863
   0.50851    0.01065    1.43309    0.05251    0.25381
   0.51652    0.01119    1.44181    0.03986    0.28817
   0.52452    0.01178    1.45098    0.03128    0.31510
   0.53253    0.01243    1.46064    0.02521    0.33673
   0.54054    0.01316    1.47084    0.02075    0.35449
   0.54855    0.01399    1.48166    0.01739    0.36932
   0.55656    0.01493    1.49318    0.01480    0.38190
   0.56456    0.01602    1.50549    0.01276    0.39270
   0.57257    0.01728    1.51873    0.01112    0.40209
    0.5806     0.0188     1.5330     0.0098     0.4103
    0.5886     0.0206     1.5486     0.0087     0.4176
    0.5966     0.0227     1.5657     0.0078     0.4241
    0.6046     0.0254     1.5847     0.0070     0.4300
    0.6126     0.0288     1.6060     0.0063     0.4353
    0.6206     0.0333     1.6303     0.0058     0.4401
    0.6286     0.0392     1.6584     0.0053     0.4445
    0.6366     0.0474     1.6917     0.0049     0.4485
    0.6446     0.0593     1.7321     0.0045     0.4522
    0.6527     0.0775     1.7826     0.0042     0.4557
    0.6607     0.1072     1.8484     0.0039     0.4589
    0.6687     0.1607     1.9373     0.0036     0.4619
    0.6767     0.2693     2.0604     0.0034     0.4647
    0.6847     0.5248     2.2102     0.0032     0.4674
    0.6927     1.1261     2.1449     0.0030     0.4699
    0.7007     1.3951     1.1975     0.0029     0.4722
    0.7087     0.7142     0.8098     0.0027     0.4744
    0.7167     0.3458     0.9376     0.0026     0.4766
    0.7247     0.1964     1.0772     0.0025     0.4786
    0.7327     0.1274     1.1804     0.0024     0.4805
    0.7407     0.0909     1.2567     0.0023     0.4824
    0.7487     0.0697     1.3156     0.0022     0.4841
    0.7568     0.0564     1.3632     0.0021     0.4858
    0.7648     0.0476     1.4032     0.0020     0.4875
    0.7728     0.0416     1.4378     0.0019     0.4890
    0.7808     0.0374     1.4687     0.0019     0.4906
    0.7888     0.0343     1.4970     0.0018     0.4920
    0.7968     0.0321     1.5232     0.0018     0.4935
    0.8048     0.0305     1.5480     0.0017     0.4949
    0.8128     0.0293     1.5718     0.0017     0.4962
    0.8208     0.0285     1.5948     0.0016     0.4975
 0.8288     0.2800E-1   1.617     0.1582E-2  0.4988   
 0.8368     0.2769E-1   1.640     0.1545E-2  0.5001   
 0.8448     0.2756E-1   1.662     0.1511E-2  0.5013   
 0.8529     0.2758E-1   1.684     0.1479E-2  0.5025   
 0.8609     0.2774E-1   1.706     0.1450E-2  0.5037   
 0.8689     0.2801E-1   1.728     0.1423E-2  0.5048   
 0.8769     0.2840E-1   1.750     0.1398E-2  0.5059   
 0.8849     0.2889E-1   1.773     0.1374E-2  0.5070   
 0.8929     0.2947E-1   1.797     0.1353E-2  0.5081   
 0.9009     0.3014E-1   1.821     0.1333E-2  0.5092   
 0.9089     0.3091E-1   1.845     0.1314E-2  0.5103   
 0.9169     0.3178E-1   1.870     0.1297E-2  0.5113   
 0.9249     0.3273E-1   1.896     0.1281E-2  0.5123   
 0.9329     0.3379E-1   1.922     0.1266E-2  0.5134   
 0.9409     0.3495E-1   1.950     0.1253E-2  0.5144   
 0.9489     0.3622E-1   1.978     0.1240E-2  0.5154   
 0.9570     0.3761E-1   2.008     0.1229E-2  0.5164   
 0.9650     0.3913E-1   2.038     0.1218E-2  0.5173   
 0.9730     0.4079E-1   2.070     0.1209E-2  0.5183   
 0.9810     0.4261E-1   2.104     0.1200E-2  0.5193   
 0.9890     0.4461E-1   2.138     0.1192E-2  0.5202   
 0.9970     0.4679E-1   2.175     0.1185E-2  0.5212   
  1.005     0.4920E-1   2.213     0.1178E-2  0.5221   
  1.013     0.5186E-1   2.254     0.1172E-2  0.5231   
  1.021     0.5481E-1   2.296     0.1167E-2  0.5240   
  1.029     0.5809E-1   2.341     0.1162E-2  0.5249   
  1.037     0.6177E-1   2.389     0.1158E-2  0.5259   
  1.045     0.6590E-1   2.440     0.1154E-2  0.5268   
  1.053     0.7059E-1   2.494     0.1151E-2  0.5277   
  1.061     0.7594E-1   2.553     0.1148E-2  0.5286   
  1.069     0.8211E-1   2.615     0.1146E-2  0.5295   
  1.077     0.8930E-1   2.684     0.1145E-2  0.5305   
  1.085     0.9777E-1   2.758     0.1143E-2  0.5314   
  1.093     0.1079      2.839     0.1142E-2  0.5323   
  1.101     0.1203      2.929     0.1142E-2  0.5332   
  1.109     0.1358      3.030     0.1142E-2  0.5341   
  1.117     0.1557      3.144     0.1142E-2  0.5350   
  1.125     0.1821      3.275     0.1143E-2  0.5360   
  1.133     0.2191      3.429     0.1144E-2  0.5369   
  1.141     0.2745      3.614     0.1145E-2  0.5378   
  1.149     0.3651      3.844     0.1146E-2  0.5387   
  1.157     0.5341      4.135     0.1148E-2  0.5396   
  1.165     0.9037      4.476     0.1150E-2  0.5405   
  1.173      1.673      4.525     0.1153E-2  0.5415   
  1.181      1.895      3.843     0.1155E-2  0.5424   
  1.189      1.699      3.985     0.1158E-2  0.5433   
  1.197      2.264      4.032     0.1161E-2  0.5442   
  1.205      2.295      3.506     0.1165E-2  0.5452   
  1.213      2.245      3.457     0.1169E-2  0.5461   
  1.221      2.382      3.369     0.1172E-2  0.5470   
  1.229      2.128      2.867     0.1176E-2  0.5480   
  1.237      1.510      3.238     0.1181E-2  0.5489   
  1.245      1.528      3.998     0.1185E-2  0.5499   
  1.253      2.181      4.611     0.1190E-2  0.5508   
  1.261      3.125      4.645     0.1195E-2  0.5518   
  1.269      3.883      3.783     0.1200E-2  0.5527   
  1.277      3.253      3.185     0.1205E-2  0.5537   
  1.285      3.162      3.824     0.1211E-2  0.5547   
  1.293      3.872      3.658     0.1216E-2  0.5556   
  1.301      3.593      3.728     0.1222E-2  0.5566   
  1.309      4.626      4.526     0.1228E-2  0.5576   
  1.317      6.335      3.432     0.1234E-2  0.5586   
  1.325      6.436      1.579     0.1241E-2  0.5596   
  1.333      5.339     0.7761     0.1247E-2  0.5606   
  1.341      5.119     0.4442     0.1254E-2  0.5616   
  1.349      4.197     0.2211     0.1261E-2  0.5626   
  1.357      4.306     0.9531     0.1268E-2  0.5636   
  1.365      5.214     0.5241E-1  0.1275E-2  0.5646   
  1.373      4.284     -1.125     0.1282E-2  0.5656   
  1.381      3.360     -1.192     0.1289E-2  0.5667   
  1.389      2.630     -1.196     0.1297E-2  0.5677   
  1.397      1.856     -.7312     0.1304E-2  0.5687   
  1.405      1.770     -.8703E-2  0.1312E-2  0.5698   
  1.413      2.176     -.2520E-1  0.1320E-2  0.5708   
  1.421      1.597     -.3626     0.1328E-2  0.5719   
  1.429      1.030     0.1018     0.1337E-2  0.5730   
  1.437     0.8352     0.6846     0.1345E-2  0.5740   
  1.445     0.8412      1.259     0.1353E-2  0.5751   
  1.453      1.052      1.852     0.1362E-2  0.5762   
  1.461      1.665      2.363     0.1371E-2  0.5773   
  1.469      2.531      2.081     0.1380E-2  0.5784   
  1.477      2.638      1.525     0.1389E-2  0.5795   
  1.485      2.190     0.9841     0.1398E-2  0.5806   
  1.493      1.484      1.401     0.1407E-2  0.5818   
  1.502      1.354      2.203     0.1417E-2  0.5829   
  1.510      1.705      3.095     0.1426E-2  0.5840   
  1.518      2.799      3.882     0.1436E-2  0.5852   
  1.526      4.425      3.450     0.1446E-2  0.5863   
  1.534      4.915      2.471     0.1455E-2  0.5875   
  1.542      5.203      1.655     0.1465E-2  0.5887   
  1.550      5.444      1.042     0.1476E-2  0.5898   
  1.558      5.518     -.9228E-1  0.1486E-2  0.5910   
  1.566      4.466     -1.305     0.1496E-2  0.5922   
  1.574      3.355     -1.091     0.1507E-2  0.5934   
  1.582      2.825     -.7809     0.1517E-2  0.5946   
  1.590      2.407     -.2542     0.1528E-2  0.5958   
  1.598      2.808     0.3655     0.1539E-2  0.5971   
  1.606      3.248     -.2042     0.1550E-2  0.5983   
  1.614      2.672     -.3035     0.1561E-2  0.5996   
  1.622      2.729     -.2506     0.1572E-2  0.6008   
  1.630      2.140     -.2825     0.1583E-2  0.6021   
  1.638      1.921     0.5438     0.1594E-2  0.6033   
  1.646      2.687      1.416     0.1606E-2  0.6046   
  1.654      4.493     0.9905     0.1617E-2  0.6059   
  1.662      4.712     -1.337     0.1629E-2  0.6072   
  1.670      2.833     -2.356     0.1641E-2  0.6085   
  1.678      1.544     -1.772     0.1653E-2  0.6098   
  1.686      1.022     -1.048     0.1665E-2  0.6112   
  1.694     0.8191     -.4268     0.1677E-2  0.6125   
  1.702     0.7857     0.1308     0.1689E-2  0.6139   
  1.710     0.9331     0.6479     0.1701E-2  0.6152   
  1.718      1.319     0.9304     0.1714E-2  0.6166   
    1.7257     1.3859     0.9151     0.0017     0.6180
    1.7337     1.5122     1.2980     0.0017     0.6193
  1.742      2.066      1.175     0.1751E-2  0.6207   
    1.7497     1.6370     0.7796     0.0018     0.6221
    1.7578     1.1937     1.2826     0.0018     0.6236
  1.766      1.195      2.001     0.1790E-2  0.6250   
  1.774      1.600      2.749     0.1803E-2  0.6264   
  1.782      2.478      3.078     0.1816E-2  0.6279   
  1.790      2.670      2.980     0.1829E-2  0.6293   
  1.798      3.065      3.945     0.1842E-2  0.6308   
  1.806      5.109      4.678     0.1855E-2  0.6323   
  1.814      7.186      2.652     0.1868E-2  0.6338   
  1.822      6.652      1.193     0.1882E-2  0.6353   
  1.830      6.583     0.4676     0.1895E-2  0.6368   
  1.838      6.424     -.2044     0.1908E-2  0.6383   
  1.846      6.258     -.9798     0.1922E-2  0.6399   
  1.854      5.056     -1.431     0.1935E-2  0.6414   
  1.862      4.972     -.1672     0.1949E-2  0.6430   
  1.870      7.241     -.6240     0.1962E-2  0.6445   
  1.878      6.584     -3.810     0.1976E-2  0.6461   
  1.886      4.245     -4.115     0.1989E-2  0.6477   
  1.894      2.992     -3.379     0.2002E-2  0.6493   
  1.902      2.631     -2.289     0.2016E-2  0.6509   
  1.910      3.074     -1.669     0.2029E-2  0.6525   
  1.918      3.893     -1.756     0.2043E-2  0.6541   
  1.926      3.694     -2.947     0.2056E-2  0.6558   
  1.934      2.849     -2.888     0.2069E-2  0.6574   
  1.942      2.554     -3.081     0.2082E-2  0.6591   
  1.950      1.606     -2.924     0.2095E-2  0.6608   
  1.958      1.085     -2.245     0.2108E-2  0.6624   
    1.9660     0.8892    -1.5760     0.0021     0.6641
    1.9740     0.8425    -0.9412     0.0021     0.6658
    1.9820     0.8950    -0.2937     0.0021     0.6676
    1.9900     1.0533     0.4232     0.0022     0.6693
    1.9980     1.3759     1.2811     0.0022     0.6710
  2.006      2.026      2.377     0.2180E-2  0.6728   
  2.014      3.461      3.770     0.2191E-2  0.6745   
  2.022      6.748      4.764     0.2202E-2  0.6763   
  2.030      11.42      2.444     0.2212E-2  0.6780   
  2.038      12.99     -3.619     0.2222E-2  0.6798   
  2.046      9.250     -8.163     0.2232E-2  0.6816   
  2.054      5.447     -8.631     0.2240E-2  0.6834   
  2.062      3.140     -7.594     0.2249E-2  0.6852   
  2.070      2.313     -6.587     0.2256E-2  0.6870   
  2.078      1.670     -6.198     0.2263E-2  0.6888   
  2.086      1.044     -5.608     0.2269E-2  0.6906   
  2.094     0.7169     -5.041     0.2274E-2  0.6924   
  2.102     0.5345     -4.591     0.2278E-2  0.6943   
  2.110     0.4197     -4.233     0.2281E-2  0.6961   
  2.118     0.3413     -3.942     0.2283E-2  0.6979   
  2.126     0.2845     -3.700     0.2283E-2  0.6997   
  2.134     0.2416     -3.495     0.2282E-2  0.7016   
  2.142     0.2082     -3.319     0.2279E-2  0.7034   
  2.150     0.1814     -3.165     0.2275E-2  0.7052   
  2.158     0.1594     -3.031     0.2268E-2  0.7070   
  2.166     0.1410     -2.912     0.2260E-2  0.7088   
  2.174     0.1252     -2.807     0.2249E-2  0.7107   
  2.182     0.1113     -2.713     0.2235E-2  0.7125   
  2.190     0.9885E-1  -2.629     0.2218E-2  0.7142   
  2.198     0.8732E-1  -2.555     0.2198E-2  0.7160   
  2.206     0.7627E-1  -2.489     0.2174E-2  0.7178   
  2.214     0.6519E-1  -2.433     0.2146E-2  0.7195   
  2.222     0.5346E-1  -2.385     0.2113E-2  0.7212   
  2.230     0.4018E-1  -2.346     0.2075E-2  0.7229   
  2.238     0.2391E-1  -2.318     0.2032E-2  0.7245   
  2.246     0.2038E-2  -2.304     0.1982E-2  0.7261   
  2.254     -.3062E-1  -2.308     0.1924E-2  0.7277   
  2.262     -.8570E-1  -2.337     0.1858E-2  0.7292   
  2.270     -.1931     -2.402     0.1783E-2  0.7307   
  2.278     -.4399     -2.499     0.1698E-2  0.7321   
  2.286     -1.025     -2.410     0.1600E-2  0.7334   
  2.294     -1.357     -1.442     0.1489E-2  0.7347   
  2.302     -.6836     -.9548     0.1361E-2  0.7358   
  2.310     -.2998     -1.029     0.1216E-2  0.7368   
  2.318     -.1456     -1.125     0.1049E-2  0.7378   
  2.326     -.7552E-1  -1.186     0.8583E-3  0.7385   
  2.334     -.3932E-1  -1.221     0.6388E-3  0.7392   
  2.342     -.1874E-1  -1.238     0.3858E-3  0.7396   
  2.350     -.6228E-2  -1.245     0.9333E-4  0.7398   
  2.358     0.1759E-2  -1.246     -.2462E-3  0.7398   
  2.366     0.7031E-2  -1.241     -.6419E-3  0.7394   
  2.374     0.1059E-1  -1.233     -.1106E-2  0.7388   
  2.382     0.1302E-1  -1.223     -.1652E-2  0.7377   
  2.390     0.1469E-1  -1.212     -.2299E-2  0.7362   
    2.3984     0.0158    -1.1995    -0.0031     0.7341
    2.4064     0.0166    -1.1864    -0.0040     0.7313
    2.4144     0.0171    -1.1728    -0.0051     0.7278
    2.4224     0.0174    -1.1589    -0.0065     0.7233
    2.4304     0.0175    -1.1449    -0.0083     0.7175
   2.43844    0.01751   -1.13084   -0.01046    0.71030
   2.44645    0.01745   -1.11681   -0.01329    0.70115
   2.45445    0.01733   -1.10286   -0.01700    0.68954
   2.46246    0.01716   -1.08903   -0.02200    0.67469
   2.47047    0.01695   -1.07536   -0.02894    0.65548
   2.47848    0.01672   -1.06186   -0.03894    0.63023
   2.48649    0.01647   -1.04856   -0.05406    0.59635
   2.49449    0.01621   -1.03547   -0.07835    0.54968
   2.50250    0.01594   -1.02260   -0.12068    0.48345
   2.51051    0.01566   -1.00994   -0.20289    0.38737
   2.51852    0.01538   -0.99752   -0.38676    0.25530
   2.52653    0.01510   -0.98531   -0.84306    0.18618
   2.53453    0.01481   -0.97334   -1.45362    0.84038
   2.54254    0.01453   -0.96159   -0.92949    1.62060
   2.55055    0.01426   -0.95007   -0.42315    1.58917
   2.55856    0.01398   -0.93876   -0.21762    1.45471
   2.56657    0.01371   -0.92767   -0.12730    1.35463
   2.57457    0.01345   -0.91680   -0.08145    1.28598
   2.58258    0.01319   -0.90614   -0.05536    1.23812
   2.59059    0.01293   -0.89569   -0.03919    1.20388
   2.59860    0.01268   -0.88543   -0.02849    1.17884
   2.60661    0.01244   -0.87538   -0.02105    1.16026
   2.61461    0.01220   -0.86552   -0.01566    1.14637
   2.62262    0.01196   -0.85585   -0.01161    1.13600
    2.6306     0.0117    -0.8464    -0.0085     1.1283
    2.6386     0.0115    -0.8371    -0.0060     1.1228
    2.6466     0.0113    -0.8279    -0.0040     1.1189
  2.655     0.1108E-1  -.8190     -.2389E-2   1.117   
  2.663     0.1088E-1  -.8102     -.1012E-2   1.115   
  2.671     0.1068E-1  -.8015     0.1621E-3   1.115   
  2.679     0.1048E-1  -.7931     0.1178E-2   1.116   
  2.687     0.1029E-1  -.7848     0.2070E-2   1.117   
    2.6947     0.0101    -0.7766     0.0029     1.1190
    2.7027     0.0099    -0.7686     0.0036     1.1216
    2.7107     0.0097    -0.7607     0.0042     1.1248
    2.7187     0.0096    -0.7530     0.0048     1.1284
    2.7267     0.0094    -0.7454     0.0054     1.1325
    2.7347     0.0092    -0.7379     0.0059     1.1371
    2.7427     0.0091    -0.7306     0.0064     1.1421
    2.7508     0.0089    -0.7234     0.0069     1.1474
    2.7588     0.0088    -0.7163     0.0074     1.1532
    2.7668     0.0086    -0.7094     0.0079     1.1593
    2.7748     0.0085    -0.7025     0.0084     1.1658
    2.7828     0.0083    -0.6958     0.0088     1.1727
    2.7908     0.0082    -0.6892     0.0093     1.1800
    2.7988     0.0080    -0.6827     0.0098     1.1877
    2.8068     0.0079    -0.6763     0.0103     1.1957
    2.8148     0.0078    -0.6700     0.0109     1.2042
    2.8228     0.0077    -0.6639     0.0114     1.2131
    2.8308     0.0075    -0.6578     0.0120     1.2225
    2.8388     0.0074    -0.6518     0.0127     1.2324
    2.8468     0.0073    -0.6459     0.0134     1.2428
    2.8549     0.0072    -0.6401     0.0141     1.2538
    2.8629     0.0071    -0.6344     0.0150     1.2654
    2.8709     0.0070    -0.6288     0.0159     1.2777
    2.8789     0.0069    -0.6233     0.0170     1.2909
    2.8869     0.0067    -0.6178     0.0182     1.3049
    2.8949     0.0066    -0.6125     0.0196     1.3199
    2.9029     0.0065    -0.6072     0.0213     1.3362
    2.9109     0.0064    -0.6020     0.0233     1.3539
    2.9189     0.0063    -0.5969     0.0257     1.3732
    2.9269     0.0063    -0.5918     0.0287     1.3947
    2.9349     0.0062    -0.5868     0.0326     1.4188
    2.9429     0.0061    -0.5819     0.0376     1.4462
    2.9510     0.0060    -0.5771     0.0445     1.4780
    2.9590     0.0059    -0.5724     0.0541     1.5157
    2.9670     0.0058    -0.5677     0.0683     1.5617
    2.9750     0.0057    -0.5631     0.0905     1.6198
    2.9830     0.0056    -0.5585     0.1283     1.6960
    2.9910     0.0056    -0.5540     0.1994     1.8000
    2.9990     0.0055    -0.5496     0.3530     1.9411
    3.0070     0.0054    -0.5452     0.7314     2.0664
    3.0150     0.0053    -0.5409     1.4108     1.6524
    3.0230     0.0053    -0.5367     1.1083     0.7223
    3.0310     0.0052    -0.5325     0.5180     0.6755
    3.0390     0.0051    -0.5284     0.2695     0.8288
    3.0470     0.0050    -0.5243     0.1639     0.9547
    3.0551     0.0050    -0.5203     0.1121     1.0473
    3.0631     0.0049    -0.5163     0.0835     1.1176
    3.0711     0.0048    -0.5124     0.0663     1.1734
    3.0791     0.0048    -0.5086     0.0553     1.2198
    3.0871     0.0047    -0.5048     0.0479     1.2597
    3.0951     0.0047    -0.5010     0.0428     1.2952
    3.1031     0.0046    -0.4973     0.0392     1.3274
    3.1111     0.0045    -0.4936     0.0366     1.3574
    3.1191     0.0045    -0.4900     0.0348     1.3857
    3.1271     0.0044    -0.4865     0.0335     1.4128
    3.1351     0.0044    -0.4829     0.0326     1.4391
    3.1431     0.0043    -0.4795     0.0320     1.4648
    3.1512     0.0043    -0.4760     0.0317     1.4902
    3.1592     0.0042    -0.4726     0.0316     1.5155
    3.1672     0.0042    -0.4693     0.0316     1.5407
    3.1752     0.0041    -0.4660     0.0319     1.5661
    3.1832     0.0040    -0.4627     0.0322     1.5917
    3.1912     0.0040    -0.4595     0.0327     1.6176
    3.1992     0.0039    -0.4563     0.0333     1.6440
    3.2072     0.0039    -0.4532     0.0340     1.6709
    3.2152     0.0039    -0.4501     0.0348     1.6983
    3.2232     0.0038    -0.4470     0.0357     1.7265
    3.2312     0.0038    -0.4440     0.0367     1.7555
    3.2392     0.0037    -0.4410     0.0379     1.7853
    3.2472     0.0037    -0.4380     0.0391     1.8161
    3.2553     0.0036    -0.4351     0.0405     1.8479
    3.2633     0.0036    -0.4322     0.0420     1.8808
    3.2713     0.0035    -0.4294     0.0436     1.9150
    3.2793     0.0035    -0.4266     0.0454     1.9506
    3.2873     0.0035    -0.4238     0.0474     1.9877
    3.2953     0.0034    -0.4210     0.0495     2.0263
    3.3033     0.0034    -0.4183     0.0518     2.0668
    3.3113     0.0033    -0.4156     0.0544     2.1092
  3.319     0.3304E-2  -.4129     0.5716E-1   2.154   
  3.327     0.3266E-2  -.4103     0.6023E-1   2.201   
  3.335     0.3229E-2  -.4077     0.6363E-1   2.250   
  3.343     0.3192E-2  -.4051     0.6738E-1   2.302   
  3.351     0.3156E-2  -.4026     0.7154E-1   2.358   
  3.359     0.3120E-2  -.4001     0.7618E-1   2.417   
  3.367     0.3085E-2  -.3976     0.8137E-1   2.479   
  3.375     0.3051E-2  -.3951     0.8721E-1   2.547   
  3.383     0.3017E-2  -.3927     0.9381E-1   2.619   
  3.391     0.2983E-2  -.3903     0.1013      2.696   
  3.399     0.2950E-2  -.3879     0.1099      2.780   
  3.407     0.2918E-2  -.3856     0.1198      2.872   
  3.415     0.2886E-2  -.3833     0.1313      2.971   
  3.423     0.2854E-2  -.3810     0.1448      3.081   
  3.431     0.2823E-2  -.3787     0.1609      3.202   
  3.439     0.2792E-2  -.3764     0.1801      3.337   
  3.447     0.2762E-2  -.3742     0.2034      3.488   
  3.455     0.2732E-2  -.3720     0.2322      3.659   
  3.463     0.2702E-2  -.3698     0.2683      3.855   
  3.471     0.2673E-2  -.3677     0.3146      4.083   
  3.479     0.2645E-2  -.3656     0.3755      4.351   
  3.487     0.2616E-2  -.3635     0.4580      4.671   
  3.495     0.2589E-2  -.3614     0.5737      5.064   
  3.504     0.2561E-2  -.3593     0.7438      5.556   
  3.512     0.2534E-2  -.3573      1.009      6.193   
  3.520     0.2507E-2  -.3553      1.454      7.048   
  3.528     0.2480E-2  -.3533      2.284      8.235   
  3.536     0.2454E-2  -.3513      4.053      9.874   
  3.544     0.2428E-2  -.3493      8.379      11.44   
  3.552     0.2403E-2  -.3474      16.60      7.174   
  3.560     0.2378E-2  -.3455      13.89     -4.321   
  3.568     0.2353E-2  -.3436      6.610     -5.236   
  3.576     0.2328E-2  -.3417      3.568     -3.295   
  3.584     0.2304E-2  -.3399      2.431     -1.570   
  3.592     0.2280E-2  -.3380      2.181     -.1502   
  3.600     0.2257E-2  -.3362      2.764     0.9589   
  3.608     0.2233E-2  -.3344      4.020     0.6603   
  3.616     0.2210E-2  -.3326      3.344     -.2431   
  3.624     0.2187E-2  -.3309      2.999     0.5502   
  3.632     0.2165E-2  -.3291      4.384     0.7610   
  3.640     0.2142E-2  -.3274      4.620     -1.721   
  3.648     0.2120E-2  -.3257      2.454     -2.263   
  3.656     0.2098E-2  -.3240      1.358     -1.542   
  3.664     0.2077E-2  -.3223     0.8950     -.8614   
  3.672     0.2055E-2  -.3207     0.6730     -.3144   
  3.680     0.2034E-2  -.3190     0.5559     0.1404   
  3.688     0.2013E-2  -.3174     0.4932     0.5397   
  3.696     0.1993E-2  -.3158     0.4643     0.9091   
  3.704     0.1972E-2  -.3142     0.4610      1.268   
  3.712     0.1952E-2  -.3127     0.4816      1.633   
  3.720     0.1932E-2  -.3111     0.5303      2.022   
  3.728     0.1912E-2  -.3096     0.6186      2.457   
  3.736     0.1892E-2  -.3080     0.7722      2.970   
  3.744     0.1873E-2  -.3065      1.050      3.607   
  3.752     0.1853E-2  -.3050      1.600      4.437   
  3.760     0.1834E-2  -.3036      2.848      5.483   
  3.768     0.1815E-2  -.3021      5.907      5.927   
  3.776     0.1797E-2  -.3007      9.093      1.527   
  3.784     0.1778E-2  -.2992      5.485     -2.097   
  3.792     0.1760E-2  -.2978      2.824     -1.330   
  3.800     0.1741E-2  -.2964      1.845     -.1167   
  3.808     0.1723E-2  -.2950      1.562     0.9825   
  3.816     0.1705E-2  -.2936      1.708      2.051   
  3.824     0.1687E-2  -.2923      2.434      3.159   
  3.832     0.1670E-2  -.2909      4.329      3.711   
  3.840     0.1652E-2  -.2896      5.623      1.730   
  3.848     0.1635E-2  -.2883      4.433      1.448   
  3.856     0.1617E-2  -.2870      5.427      2.749   
  3.864     0.1600E-2  -.2857      9.055      1.164   
  3.872     0.1583E-2  -.2844      7.475     -4.154   
  3.880     0.1566E-2  -.2832      3.721     -4.268   
  3.888     0.1549E-2  -.2819      2.139     -3.009   
  3.896     0.1532E-2  -.2807      1.541     -1.885   
  3.904     0.1516E-2  -.2795      1.403     -.9104   
  3.912     0.1499E-2  -.2783      1.680     0.1553E-1
  3.920     0.1482E-2  -.2771      2.738     0.7645   
  3.928     0.1466E-2  -.2759      4.675     -.2975   
  3.936     0.1450E-2  -.2747      3.548     -2.727   
  3.944     0.1433E-2  -.2736      1.792     -2.554   
  3.952     0.1417E-2  -.2724      1.052     -1.877   
  3.960     0.1401E-2  -.2713     0.7292     -1.303   
  3.968     0.1385E-2  -.2702     0.5685     -.8384   
  3.976     0.1369E-2  -.2691     0.4812     -.4444   
  3.984     0.1353E-2  -.2680     0.4328     -.9326E-1
  3.992     0.1337E-2  -.2669     0.4083     0.2338   
  4.000     0.1321E-2  -.2659     0.4010     0.5504   
# 
# 02/16/2017 at 18:43 YAMBO_PL @ aiken [start]
# 02/16/2017 at 18:44                  [end]
#  
# Timing   [Min/Max/Average]: 33s/33s/33s
#
# .-Input file : INPUTS/05_bse_pl_causal_100
# | optics                       # [R OPT] Optics
# | bse                          # [R BSE] Bethe Salpeter Equation.
# | bsk                          # [R BSK] Bethe Salpeter Equation kernel
# | bss                          # [R BSS] Bethe Salpeter Equation solver
# | em1s                         # [R Xs] Static Inverse Dielectric Matrix
# | rim_cut                      # [R RIM CUT] Coulomb potential
# | photolum                     # [R] Photo-Luminescence
# | BoseTemp= 0.000000     eV    # Bosonic Temperature
# | DBsIOoff= "DIP"              # [IO] Space-separated list of DB with NO I/O. DB=(DIP,X,HF,COLLs,J,GF,CARRIERs,W,SC,BS,ALL)
# | FFTGvecs= 10           Ha    # [FFT] Plane-waves
# | RandQpts= 1000000            # [RIM] Number of random q-points in the BZ
# | RandGvec= 1            RL    # [RIM] Coulomb interaction RS components
# | CUTGeo= "box z"              # [CUT] Coulomb Cutoff geometry: box/cylinder/sphere X/Y/Z/XY..
# | % CUTBox
# |   0.00000 |  0.00000 | 38.00000 |        # [CUT] [au] Box sides
# | %
# | CUTRadius= 0.000000          # [CUT] [au] Sphere/Cylinder radius
# | CUTCylLen= 0.000000          # [CUT] [au] Cylinder length
# | Chimod= "hartree"            # [X] IP/Hartree/ALDA/LRC/BSfxc
# | BSEmod= "retarded"           # [BSE] resonant/retarded/coupling
# | BSKmod= "SEX"                # [BSE] IP/Hartree/HF/ALDA/SEX/BSfxc
# | BSSmod= "d"                  # [BSS] (h)aydock/(d)iagonalization/(i)nversion/(t)ddft`
# | BSENGexx= 10           Ha    # [BSK] Exchange components
# | BSENGBlk= 1010         mHa   # [BSK] Screened interaction block size
# | #WehCpl                      # [BSK] eh interaction included also in coupling
# | % PL_weights
# |  1.000000 |      NaN |      NaN |        # [PL] [cc] Weights of the carthesian components of the emitted radiation
# | %
# | % KfnQP_E
# |  1.038620 | 1.000000 | 1.000000 |        # [EXTQP BSK BSS] E parameters  (c/v) eV|adim|adim
# | %
# | KfnRTdb= "f @ 0 fs < ./03_ypp_carriers/ndb.RT_carriers" # [EXTRT BSK BSS] Database
# | RfnRTdb= "f @ 0 fs < ./03_ypp_carriers/ndb.RT_carriers" # [EXTRT R] Database
# | % BEnRange
# | -4.000000 | 4.000000 | eV    # [BSS] Energy range
# | %
# | % BDmRange
# |    0.0100 |   0.0100 | eV    # [BSS] Damping range
# | %
# | BEnSteps= 1000               # [BSS] Energy steps
# | % BLongDir
# | 0.1000E-4 | 0.000    | 0.000    |        # [BSS] [cc] Electric Field
# | %
# | % BSEBands
# |  25 | 28 |                   # [BSK] Bands range
# | %
# | % BndsRnXs
# |    1 |  60 |                 # [Xs] Polarization function bands
# | %
# | NGsBlkXs= 1010         mHa   # [Xs] Response block size
# | GrFnTpXs= "R"                # [Xs] Green`s function (T)ordered,(R)etarded,(r)senant,(a)ntiresonant [T, R, r, Ta, Ra]
# | % DmRngeXs
# |   0.10000 |  0.10000 | eV    # [Xs] Damping range
# | %
# | % LongDrXs
# | 0.1000E-4 | 0.000    | 0.000    |        # [Xs] [cc] Electric Field
# | %
