#                                                           
#  __  __   ________   ___ __ __    _______   ______        
# /_/\/_/\ /_______/\ /__//_//_/\ /_______/\ /_____/\       
# \ \ \ \ \\::: _  \ \\::\| \| \ \\::: _  \ \\:::_ \ \      
#  \:\_\ \ \\::(_)  \ \\:.      \ \\::(_)  \/_\:\ \ \ \     
#   \::::_\/ \:: __  \ \\:.\-/\  \ \\::  _  \ \\:\ \ \ \    
#     \::\ \  \:.\ \  \ \\. \  \  \ \\::(_)  \ \\:\_\ \ \   
#      \__\/   \__\/\__\/ \__\/ \__\/ \_______\/ \_____\/   
#                                                           
#                                                           
#        Version 4.1.2 Revision 14030 Hash 116e4f9          
#                        MPI Build                          
#                http://www.yambo-code.org                  
#
# Absorption @ Q(1) [q->0 direction] :0.1000E-4  0.000     0.000   
#
#
# - Energies      are Slater exchange(X)+Perdew & Zunger(C)+Scissor
# - Wavefunctions are Slater exchange(X)+Perdew & Zunger(C)
#
# - The Green`s function is Retarded -
# - Using the Length Gauge -
# - [r,Vnl] *is* included -
#
#   BSK|Identifier              :2509
#      |Dimension               :144
#      |Bands                   :25 - 28
#      |Exchange           [res]: yes
#      |Correlation        [res]: yes
#      |Kernel`s coupling       : no
#      |Exchange           [cpl]: no
#      |Correlation        [cpl]: no
#      |W interaction is bare   : no
#      |ALDA kernel in R-space  : no
#      |RL vectors    [exchange]:2055
#      |RL vectors [correlation]:85
#      |E/h energy range    [ev]:-1.000000 - -1.000000
#      |Coupling range     [o/o]: 100.0000 -  100.0000
#    W |Interaction is diagonal : no
#      |Matrix size             :85
#      |Bands                   :1 - 60
#      |e/h energy range    [ev]:-1.000000 - -1.000000
#      |Poles              [o/o]: 100.0000
#      |RL vectors in the sum   :2055
#      |[r,Vnl] included        : yes
#      |Field direction         :0.1000E-4  0.000000  0.000000
#      |Coulomb Cutoff          :box z
#      |xc-Kernel               :none
#   RIM|RL components      [col]:1
#      |Random points      [col]:1000000
#
#  E/ev[1]    EPS-Im[2]  EPS-Re[3]  EPSo-Im[4] EPSo-Re[5]
 -4.000     -.2898E-2  0.5268     -.8857      4.269   
 -3.992     -.2921E-2  0.5244     -.8298      3.594   
 -3.984     -.2944E-2  0.5221     -.7963      2.953   
 -3.976     -.2968E-2  0.5197     -.7829      2.330   
 -3.968     -.2991E-2  0.5173     -.7893      1.710   
 -3.960     -.3015E-2  0.5149     -.8168      1.078   
 -3.952     -.3040E-2  0.5125     -.8692     0.4168   
 -3.944     -.3064E-2  0.5100     -.9533     -.2951   
 -3.936     -.3089E-2  0.5076     -1.081     -1.084   
 -3.928     -.3114E-2  0.5051     -1.272     -1.987   
 -3.920     -.3139E-2  0.5026     -1.564     -3.060   
 -3.912     -.3165E-2  0.5001     -2.025     -4.384   
 -3.904     -.3190E-2  0.4975     -2.797     -6.094   
 -3.896     -.3217E-2  0.4950     -4.205     -8.403   
 -3.888     -.3243E-2  0.4924     -7.096     -11.60   
 -3.880     -.3270E-2  0.4898     -13.95     -15.44   
 -3.872     -.3297E-2  0.4871     -29.94     -13.19   
 -3.864     -.3324E-2  0.4845     -35.95      12.05   
 -3.856     -.3352E-2  0.4818     -18.11      21.49   
 -3.848     -.3380E-2  0.4791     -8.735      18.16   
 -3.840     -.3409E-2  0.4764     -4.918      14.65   
 -3.832     -.3437E-2  0.4737     -3.141      12.10   
 -3.824     -.3467E-2  0.4709     -2.197      10.24   
 -3.816     -.3496E-2  0.4681     -1.643      8.846   
 -3.808     -.3526E-2  0.4653     -1.295      7.745   
 -3.800     -.3556E-2  0.4625     -1.063      6.846   
 -3.792     -.3587E-2  0.4596     -.9043      6.087   
 -3.784     -.3617E-2  0.4567     -.7927      5.426   
 -3.776     -.3649E-2  0.4538     -.7140      4.837   
 -3.768     -.3680E-2  0.4509     -.6594      4.297   
 -3.760     -.3712E-2  0.4479     -.6235      3.792   
 -3.752     -.3745E-2  0.4449     -.6032      3.307   
   -3.7437    -0.0038     0.4419    -0.5970     2.8336
   -3.7357    -0.0038     0.4389    -0.6044     2.3594
   -3.7277    -0.0038     0.4358    -0.6265     1.8741
   -3.7197    -0.0039     0.4327    -0.6657     1.3660
   -3.7117    -0.0039     0.4296    -0.7267     0.8207
   -3.7037    -0.0039     0.4265    -0.8172     0.2198
   -3.6957    -0.0040     0.4233    -0.9511    -0.4619
   -3.6877    -0.0040     0.4201    -1.1530    -1.2611
   -3.6797    -0.0041     0.4168    -1.4705    -2.2340
   -3.6717    -0.0041     0.4136    -2.0037    -3.4697
 -3.664     -.4130E-2  0.4103     -2.988     -5.108   
 -3.656     -.4168E-2  0.4070     -5.062     -7.305   
 -3.648     -.4206E-2  0.4036     -10.09     -9.543   
 -3.640     -.4245E-2  0.4002     -20.08     -5.393   
 -3.632     -.4285E-2  0.3968     -17.88      8.572   
 -3.624     -.4324E-2  0.3934     -8.827      9.859   
 -3.616     -.4365E-2  0.3899     -4.995      7.120   
 -3.608     -.4406E-2  0.3864     -3.592      4.527   
   -3.5996    -0.0044     0.3828    -3.2171     2.1946
   -3.5916    -0.0045     0.3793    -3.5042    -0.1609
 -3.584     -.4532E-2  0.3756     -4.571     -2.863   
 -3.576     -.4575E-2  0.3720     -7.135     -6.260   
 -3.568     -.4619E-2  0.3683     -13.51     -10.16   
 -3.560     -.4663E-2  0.3646     -28.55     -8.222   
 -3.552     -.4708E-2  0.3608     -34.17      15.51   
 -3.544     -.4754E-2  0.3571     -17.25      24.34   
 -3.536     -.4800E-2  0.3532     -8.336      21.12   
 -3.528     -.4847E-2  0.3494     -4.695      17.75   
 -3.520     -.4894E-2  0.3455     -2.988      15.31   
 -3.512     -.4942E-2  0.3415     -2.072      13.56   
 -3.504     -.4991E-2  0.3376     -1.527      12.25   
 -3.495     -.5041E-2  0.3335     -1.177      11.24   
 -3.487     -.5091E-2  0.3295     -.9391      10.43   
 -3.479     -.5142E-2  0.3254     -.7695      9.776   
 -3.471     -.5194E-2  0.3212     -.6442      9.228   
 -3.463     -.5246E-2  0.3171     -.5489      8.762   
 -3.455     -.5300E-2  0.3128     -.4745      8.361   
 -3.447     -.5354E-2  0.3086     -.4152      8.011   
 -3.439     -.5409E-2  0.3043     -.3671      7.703   
 -3.431     -.5464E-2  0.2999     -.3276      7.428   
 -3.423     -.5521E-2  0.2955     -.2945      7.182   
 -3.415     -.5578E-2  0.2911     -.2667      6.959   
 -3.407     -.5636E-2  0.2866     -.2429      6.757   
 -3.399     -.5695E-2  0.2821     -.2224      6.572   
 -3.391     -.5755E-2  0.2775     -.2047      6.402   
 -3.383     -.5816E-2  0.2728     -.1892      6.246   
 -3.375     -.5878E-2  0.2682     -.1755      6.101   
 -3.367     -.5941E-2  0.2634     -.1634      5.966   
   -3.3594    -0.0060     0.2586    -0.1526     5.8397
   -3.3514    -0.0061     0.2538    -0.1430     5.7218
   -3.3433    -0.0061     0.2489    -0.1343     5.6112
   -3.3353    -0.0062     0.2440    -0.1265     5.5072
   -3.3273    -0.0063     0.2390    -0.1194     5.4091
   -3.3193    -0.0063     0.2339    -0.1129     5.3164
   -3.3113    -0.0064     0.2288    -0.1070     5.2286
   -3.3033    -0.0065     0.2237    -0.1016     5.1453
   -3.2953    -0.0066     0.2185    -0.0966     5.0661
   -3.2873    -0.0066     0.2132    -0.0921     4.9907
   -3.2793    -0.0067     0.2078    -0.0878     4.9189
   -3.2713    -0.0068     0.2025    -0.0839     4.8503
   -3.2633    -0.0069     0.1970    -0.0803     4.7846
   -3.2553    -0.0069     0.1915    -0.0769     4.7218
   -3.2472    -0.0070     0.1859    -0.0737     4.6616
   -3.2392    -0.0071     0.1803    -0.0708     4.6039
   -3.2312    -0.0072     0.1745    -0.0680     4.5484
   -3.2232    -0.0073     0.1688    -0.0654     4.4950
   -3.2152    -0.0073     0.1629    -0.0630     4.4437
   -3.2072    -0.0074     0.1570    -0.0607     4.3942
   -3.1992    -0.0075     0.1510    -0.0586     4.3465
   -3.1912    -0.0076     0.1450    -0.0566     4.3004
   -3.1832    -0.0077     0.1388    -0.0546     4.2559
   -3.1752    -0.0078     0.1326    -0.0528     4.2130
   -3.1672    -0.0079     0.1264    -0.0511     4.1714
   -3.1592    -0.0080     0.1200    -0.0495     4.1311
   -3.1512    -0.0081     0.1136    -0.0479     4.0922
   -3.1431    -0.0082     0.1071    -0.0465     4.0544
   -3.1351    -0.0083     0.1005    -0.0451     4.0178
   -3.1271    -0.0084     0.0938    -0.0437     3.9822
   -3.1191    -0.0085     0.0870    -0.0425     3.9477
   -3.1111    -0.0086     0.0802    -0.0413     3.9142
   -3.1031    -0.0087     0.0733    -0.0401     3.8817
   -3.0951    -0.0088     0.0662    -0.0390     3.8500
   -3.0871    -0.0089     0.0591    -0.0380     3.8192
   -3.0791    -0.0090     0.0519    -0.0370     3.7892
   -3.0711    -0.0092     0.0446    -0.0360     3.7601
   -3.0631    -0.0093     0.0373    -0.0351     3.7316
   -3.0551    -0.0094     0.0298    -0.0342     3.7039
   -3.0470    -0.0095     0.0222    -0.0333     3.6769
   -3.0390    -0.0097     0.0145    -0.0325     3.6506
   -3.0310    -0.0098     0.0067    -0.0317     3.6249
 -3.023     -.9922E-2  -.1169E-2  -.3095E-1   3.600   
   -3.0150    -0.0101    -0.0092    -0.0302     3.5754
  -3.00701   -0.01019   -0.01728   -0.02951    3.55146
  -2.99900   -0.01034   -0.02549   -0.02883    3.52811
  -2.99099   -0.01048   -0.03383   -0.02818    3.50530
  -2.98298   -0.01062   -0.04228   -0.02755    3.48299
  -2.97498   -0.01077   -0.05084   -0.02694    3.46118
  -2.96697   -0.01093   -0.05953   -0.02636    3.43985
  -2.95896   -0.01108   -0.06834   -0.02579    3.41898
  -2.95095   -0.01124   -0.07728   -0.02524    3.39856
  -2.94294   -0.01140   -0.08634   -0.02471    3.37857
  -2.93494   -0.01157   -0.09554   -0.02420    3.35900
  -2.92693   -0.01174   -0.10487   -0.02370    3.33983
  -2.91892   -0.01191   -0.11434   -0.02322    3.32105
  -2.91091   -0.01209   -0.12395   -0.02275    3.30265
  -2.90290   -0.01227   -0.13370   -0.02230    3.28462
  -2.89490   -0.01245   -0.14359   -0.02186    3.26694
  -2.88689   -0.01264   -0.15364   -0.02144    3.24960
  -2.87888   -0.01284   -0.16384   -0.02103    3.23261
  -2.87087   -0.01304   -0.17420   -0.02063    3.21593
  -2.86286   -0.01324   -0.18472   -0.02024    3.19957
  -2.85486   -0.01344   -0.19540   -0.01986    3.18352
  -2.84685   -0.01366   -0.20625   -0.01950    3.16776
  -2.83884   -0.01387   -0.21727   -0.01914    3.15230
  -2.83083   -0.01410   -0.22846   -0.01880    3.13711
  -2.82282   -0.01432   -0.23984   -0.01846    3.12220
  -2.81481   -0.01456   -0.25140   -0.01813    3.10755
  -2.80681   -0.01480   -0.26315   -0.01782    3.09316
  -2.79880   -0.01504   -0.27510   -0.01751    3.07902
  -2.79079   -0.01529   -0.28724   -0.01720    3.06512
  -2.78278   -0.01555   -0.29959   -0.01691    3.05147
  -2.77477   -0.01581   -0.31214   -0.01662    3.03804
  -2.76677   -0.01608   -0.32491   -0.01635    3.02485
  -2.75876   -0.01636   -0.33790   -0.01607    3.01187
  -2.75075   -0.01665   -0.35111   -0.01581    2.99910
  -2.74274   -0.01694   -0.36456   -0.01555    2.98655
  -2.73473   -0.01724   -0.37824   -0.01530    2.97420
  -2.72673   -0.01755   -0.39217   -0.01505    2.96205
  -2.71872   -0.01787   -0.40634   -0.01481    2.95010
  -2.71071   -0.01819   -0.42078   -0.01458    2.93833
  -2.70270   -0.01853   -0.43548   -0.01435    2.92675
  -2.69469   -0.01887   -0.45045   -0.01413    2.91535
  -2.68669   -0.01923   -0.46570   -0.01391    2.90412
  -2.67868   -0.01959   -0.48124   -0.01370    2.89307
  -2.67067   -0.01997   -0.49707   -0.01349    2.88219
  -2.66266   -0.02035   -0.51321   -0.01328    2.87147
  -2.65465   -0.02075   -0.52966   -0.01309    2.86092
  -2.64665   -0.02116   -0.54644   -0.01289    2.85052
  -2.63864   -0.02158   -0.56355   -0.01270    2.84027
  -2.63063   -0.02202   -0.58100   -0.01252    2.83018
  -2.62262   -0.02247   -0.59881   -0.01233    2.82023
  -2.61461   -0.02293   -0.61698   -0.01216    2.81043
  -2.60661   -0.02341   -0.63553   -0.01198    2.80076
  -2.59860   -0.02391   -0.65447   -0.01181    2.79124
  -2.59059   -0.02442   -0.67381   -0.01164    2.78185
  -2.58258   -0.02494   -0.69356   -0.01148    2.77259
  -2.57457   -0.02549   -0.71375   -0.01132    2.76347
  -2.56657   -0.02605   -0.73438   -0.01116    2.75447
  -2.55856   -0.02664   -0.75546   -0.01101    2.74559
  -2.55055   -0.02724   -0.77702   -0.01086    2.73684
  -2.54254   -0.02787   -0.79908   -0.01071    2.72820
  -2.53453   -0.02851   -0.82164   -0.01057    2.71969
  -2.52653   -0.02919   -0.84473   -0.01042    2.71128
  -2.51852   -0.02988   -0.86837   -0.01028    2.70299
  -2.51051   -0.03061   -0.89258   -0.01015    2.69481
  -2.50250   -0.03136   -0.91738   -0.01001    2.68674
   -2.4945    -0.0321    -0.9428    -0.0099     2.6788
   -2.4865    -0.0330    -0.9688    -0.0098     2.6709
   -2.4785    -0.0338    -0.9956    -0.0096     2.6632
   -2.4705    -0.0347    -1.0230    -0.0095     2.6555
   -2.4625    -0.0356    -1.0511    -0.0094     2.6479
   -2.4545    -0.0366    -1.0800    -0.0093     2.6405
   -2.4464    -0.0376    -1.1096    -0.0091     2.6331
   -2.4384    -0.0386    -1.1401    -0.0090     2.6258
   -2.4304    -0.0397    -1.1714    -0.0089     2.6186
   -2.4224    -0.0408    -1.2036    -0.0088     2.6115
   -2.4144    -0.0420    -1.2368    -0.0087     2.6045
   -2.4064    -0.0433    -1.2709    -0.0086     2.5976
   -2.3984    -0.0446    -1.3061    -0.0085     2.5908
   -2.3904    -0.0460    -1.3423    -0.0084     2.5840
   -2.3824    -0.0474    -1.3797    -0.0083     2.5774
   -2.3744    -0.0490    -1.4182    -0.0082     2.5708
   -2.3664    -0.0506    -1.4580    -0.0081     2.5643
   -2.3584    -0.0523    -1.4992    -0.0080     2.5578
   -2.3504    -0.0541    -1.5417    -0.0079     2.5515
   -2.3423    -0.0560    -1.5857    -0.0078     2.5452
   -2.3343    -0.0580    -1.6313    -0.0077     2.5390
   -2.3263    -0.0602    -1.6786    -0.0076     2.5329
   -2.3183    -0.0624    -1.7276    -0.0075     2.5268
   -2.3103    -0.0649    -1.7785    -0.0074     2.5208
   -2.3023    -0.0675    -1.8314    -0.0074     2.5149
   -2.2943    -0.0703    -1.8864    -0.0073     2.5090
   -2.2863    -0.0733    -1.9438    -0.0072     2.5032
   -2.2783    -0.0765    -2.0036    -0.0071     2.4975
   -2.2703    -0.0799    -2.0661    -0.0070     2.4919
   -2.2623    -0.0837    -2.1315    -0.0069     2.4863
   -2.2543    -0.0878    -2.2000    -0.0069     2.4807
   -2.2462    -0.0922    -2.2719    -0.0068     2.4753
   -2.2382    -0.0971    -2.3475    -0.0067     2.4699
   -2.2302    -0.1025    -2.4272    -0.0066     2.4645
   -2.2222    -0.1084    -2.5113    -0.0066     2.4592
   -2.2142    -0.1149    -2.6004    -0.0065     2.4540
   -2.2062    -0.1223    -2.6950    -0.0064     2.4489
   -2.1982    -0.1305    -2.7957    -0.0063     2.4437
   -2.1902    -0.1399    -2.9034    -0.0063     2.4387
   -2.1822    -0.1505    -3.0189    -0.0062     2.4337
   -2.1742    -0.1628    -3.1435    -0.0061     2.4287
   -2.1662    -0.1772    -3.2786    -0.0061     2.4238
   -2.1582    -0.1941    -3.4258    -0.0060     2.4190
   -2.1502    -0.2144    -3.5875    -0.0059     2.4142
   -2.1421    -0.2391    -3.7666    -0.0059     2.4095
   -2.1341    -0.2698    -3.9670    -0.0058     2.4048
   -2.1261    -0.3088    -4.1938    -0.0058     2.4001
   -2.1181    -0.3597    -4.4544    -0.0057     2.3956
   -2.1101    -0.4286    -4.7591    -0.0056     2.3910
   -2.1021    -0.5258    -5.1234    -0.0056     2.3865
 -2.094     -.6703     -5.571     -.5525E-2   2.382   
 -2.086     -.9009     -6.140     -.5467E-2   2.378   
 -2.078     -1.305     -6.889     -.5411E-2   2.373   
 -2.070     -2.107     -7.896     -.5355E-2   2.369   
 -2.062     -3.945     -9.064     -.5300E-2   2.365   
 -2.054     -7.671     -8.611     -.5245E-2   2.361   
 -2.046     -9.463     -5.183     -.5192E-2   2.356   
 -2.038     -10.10     -1.228     -.5139E-2   2.352   
 -2.030     -6.123      1.960     -.5086E-2   2.348   
   -2.0220    -3.0789     1.0639    -0.0050     2.3441
   -2.0140    -1.8200    -0.1972    -0.0050     2.3400
   -2.0060    -1.2543    -1.1972    -0.0049     2.3361
   -1.9980    -0.9695    -1.9913    -0.0049     2.3321
   -1.9900    -0.8171    -2.6589    -0.0048     2.3283
   -1.9820    -0.7367    -3.2536    -0.0048     2.3244
   -1.9740    -0.7008    -3.8111    -0.0047     2.3206
   -1.9660    -0.6965    -4.3568    -0.0047     2.3168
 -1.958     -.7183     -4.911     -.4646E-2   2.313   
 -1.950     -.7652     -5.493     -.4600E-2   2.309   
 -1.942     -.8399     -6.120     -.4554E-2   2.306   
 -1.934     -.9492     -6.817     -.4510E-2   2.302   
 -1.926     -1.107     -7.611     -.4465E-2   2.298   
 -1.918     -1.337     -8.544     -.4422E-2   2.295   
 -1.910     -1.688     -9.675     -.4379E-2   2.291   
 -1.902     -2.261     -11.10     -.4336E-2   2.288   
 -1.894     -3.300     -12.94     -.4294E-2   2.284   
 -1.886     -5.479     -15.26     -.4252E-2   2.281   
 -1.878     -10.36     -16.82     -.4211E-2   2.278   
 -1.870     -14.91     -12.91     -.4170E-2   2.274   
 -1.862     -14.58     -11.31     -.4130E-2   2.271   
 -1.854     -17.39     -11.13     -.4090E-2   2.268   
 -1.846     -20.19     -6.361     -.4051E-2   2.264   
 -1.838     -19.22     -5.154     -.4012E-2   2.261   
 -1.830     -23.79     -.1809E-1  -.3974E-2   2.258   
 -1.822     -17.16      7.542     -.3936E-2   2.255   
 -1.814     -11.85      6.481     -.3899E-2   2.252   
 -1.806     -8.160      5.414     -.3862E-2   2.249   
 -1.798     -5.565      2.377     -.3825E-2   2.246   
 -1.790     -4.758     -.9659     -.3789E-2   2.242   
 -1.782     -5.016     -4.376     -.3753E-2   2.239   
 -1.774     -6.340     -8.233     -.3718E-2   2.236   
 -1.766     -9.556     -13.04     -.3683E-2   2.233   
 -1.758     -17.41     -18.86     -.3648E-2   2.231   
 -1.750     -36.90     -19.68     -.3614E-2   2.228   
 -1.742     -53.31      10.66     -.3580E-2   2.225   
 -1.734     -29.64      30.89     -.3546E-2   2.222   
 -1.726     -14.03      27.16     -.3513E-2   2.219   
 -1.718     -7.713      21.91     -.3480E-2   2.216   
 -1.710     -4.842      18.01     -.3448E-2   2.214   
 -1.702     -3.341      15.20     -.3416E-2   2.211   
 -1.694     -2.469      13.10     -.3384E-2   2.208   
 -1.686     -1.922      11.46     -.3353E-2   2.205   
 -1.678     -1.561      10.14     -.3321E-2   2.203   
 -1.670     -1.313      9.031     -.3291E-2   2.200   
 -1.662     -1.142      8.079     -.3260E-2   2.197   
 -1.654     -1.027      7.235     -.3230E-2   2.195   
 -1.646     -.9603      6.463     -.3200E-2   2.192   
 -1.638     -.9460      5.734     -.3171E-2   2.190   
 -1.630     -1.012      5.030     -.3141E-2   2.187   
 -1.622     -1.178      4.391     -.3112E-2   2.185   
 -1.614     -1.467      3.779     -.3084E-2   2.182   
 -1.606     -1.955      3.592     -.3055E-2   2.180   
 -1.598     -1.692      3.514     -.3027E-2   2.177   
   -1.5896    -1.5083     2.7207    -0.0030     2.1749
   -1.5816    -1.7795     1.6895    -0.0030     2.1725
   -1.5736    -2.6847     0.5443    -0.0029     2.1701
 -1.566     -4.715     0.7960E-1  -.2917E-2   2.168   
 -1.558     -5.732      1.320     -.2891E-2   2.165   
 -1.550     -6.616     0.6824     -.2864E-2   2.163   
 -1.542     -10.78      2.523     -.2838E-2   2.161   
 -1.534     -9.122      9.114     -.2812E-2   2.159   
 -1.526     -4.453      9.498     -.2786E-2   2.156   
 -1.518     -2.409      8.105     -.2760E-2   2.154   
 -1.510     -1.535      6.920     -.2735E-2   2.152   
 -1.502     -1.105      6.011     -.2710E-2   2.150   
 -1.493     -.8685      5.289     -.2685E-2   2.148   
 -1.485     -.7287      4.685     -.2661E-2   2.145   
 -1.477     -.6439      4.156     -.2636E-2   2.143   
 -1.469     -.5938      3.675     -.2612E-2   2.141   
 -1.461     -.5684      3.220     -.2588E-2   2.139   
 -1.453     -.5630      2.776     -.2564E-2   2.137   
   -1.4454    -0.5763     2.3296    -0.0025     2.1350
   -1.4374    -0.6098     1.8655    -0.0025     2.1330
   -1.4294    -0.6688     1.3681    -0.0025     2.1310
   -1.4214    -0.7635     0.8164    -0.0025     2.1290
   -1.4134    -0.9145     0.1808    -0.0024     2.1270
   -1.4054    -1.1638    -0.5834    -0.0024     2.1251
   -1.3974    -1.6058    -1.5466    -0.0024     2.1231
 -1.389     -2.481     -2.808     -.2382E-2   2.121   
 -1.381     -4.483     -4.358     -.2360E-2   2.119   
 -1.373     -9.275     -4.615     -.2338E-2   2.117   
 -1.365     -12.77      2.390     -.2317E-2   2.116   
 -1.357     -7.375      6.282     -.2295E-2   2.114   
 -1.349     -4.121      4.831     -.2274E-2   2.112   
 -1.341     -3.203      2.921     -.2253E-2   2.110   
 -1.333     -3.688      1.394     -.2232E-2   2.108   
 -1.325     -4.730      1.519     -.2212E-2   2.107   
 -1.317     -3.822      1.551     -.2191E-2   2.105   
 -1.309     -3.609     -.1062     -.2171E-2   2.103   
 -1.301     -5.045     -1.935     -.2150E-2   2.101   
 -1.293     -7.867     -1.779     -.2130E-2   2.100   
 -1.285     -8.039     -1.037     -.2111E-2   2.098   
 -1.277     -10.55     -3.059     -.2091E-2   2.096   
 -1.269     -18.09     0.3948     -.2071E-2   2.095   
 -1.261     -15.02      11.18     -.2052E-2   2.093   
 -1.253     -7.614      11.36     -.2033E-2   2.091   
 -1.245     -4.604      8.675     -.2013E-2   2.090   
 -1.237     -3.641      6.126     -.1994E-2   2.088   
 -1.229     -3.747      3.684     -.1976E-2   2.086   
 -1.221     -5.000      1.033     -.1957E-2   2.085   
 -1.213     -8.638     -1.834     -.1938E-2   2.083   
 -1.205     -17.68     -1.397     -.1920E-2   2.082   
 -1.197     -22.12      12.84     -.1902E-2   2.080   
 -1.189     -11.49      18.95     -.1884E-2   2.079   
 -1.181     -5.601      16.86     -.1866E-2   2.077   
 -1.173     -3.190      14.57     -.1848E-2   2.076   
 -1.165     -2.059      12.90     -.1830E-2   2.074   
 -1.157     -1.449      11.67     -.1812E-2   2.073   
 -1.149     -1.084      10.74     -.1795E-2   2.071   
 -1.141     -.8477      10.02     -.1777E-2   2.070   
 -1.133     -.6855      9.431     -.1760E-2   2.068   
 -1.125     -.5687      8.947     -.1743E-2   2.067   
 -1.117     -.4816      8.538     -.1726E-2   2.066   
 -1.109     -.4146      8.188     -.1709E-2   2.064   
 -1.101     -.3618      7.883     -.1692E-2   2.063   
 -1.093     -.3194      7.614     -.1676E-2   2.062   
 -1.085     -.2847      7.375     -.1659E-2   2.060   
 -1.077     -.2558      7.162     -.1643E-2   2.059   
 -1.069     -.2316      6.968     -.1626E-2   2.058   
 -1.061     -.2109      6.793     -.1610E-2   2.056   
 -1.053     -.1932      6.632     -.1594E-2   2.055   
 -1.045     -.1778      6.485     -.1578E-2   2.054   
 -1.037     -.1643      6.349     -.1562E-2   2.053   
 -1.029     -.1525      6.222     -.1546E-2   2.051   
 -1.021     -.1420      6.105     -.1531E-2   2.050   
 -1.013     -.1327      5.996     -.1515E-2   2.049   
 -1.005     -.1243      5.893     -.1500E-2   2.048   
 -.9970     -.1168      5.797     -.1484E-2   2.046   
 -.9890     -.1100      5.707     -.1469E-2   2.045   
 -.9810     -.1038      5.621     -.1454E-2   2.044   
 -.9730     -.9815E-1   5.541     -.1438E-2   2.043   
 -.9650     -.9300E-1   5.464     -.1423E-2   2.042   
 -.9570     -.8828E-1   5.392     -.1409E-2   2.041   
 -.9489     -.8393E-1   5.323     -.1394E-2   2.040   
 -.9409     -.7992E-1   5.258     -.1379E-2   2.038   
 -.9329     -.7621E-1   5.195     -.1364E-2   2.037   
 -.9249     -.7276E-1   5.136     -.1350E-2   2.036   
 -.9169     -.6956E-1   5.079     -.1335E-2   2.035   
 -.9089     -.6658E-1   5.024     -.1321E-2   2.034   
 -.9009     -.6379E-1   4.972     -.1306E-2   2.033   
 -.8929     -.6119E-1   4.922     -.1292E-2   2.032   
 -.8849     -.5874E-1   4.874     -.1278E-2   2.031   
 -.8769     -.5645E-1   4.828     -.1264E-2   2.030   
 -.8689     -.5429E-1   4.784     -.1250E-2   2.029   
 -.8609     -.5226E-1   4.742     -.1236E-2   2.028   
 -.8529     -.5034E-1   4.701     -.1222E-2   2.027   
 -.8448     -.4853E-1   4.661     -.1208E-2   2.026   
 -.8368     -.4681E-1   4.623     -.1194E-2   2.025   
 -.8288     -.4518E-1   4.586     -.1181E-2   2.024   
 -.8208     -.4364E-1   4.551     -.1167E-2   2.023   
 -.8128     -.4218E-1   4.516     -.1153E-2   2.022   
 -.8048     -.4078E-1   4.483     -.1140E-2   2.021   
 -.7968     -.3946E-1   4.451     -.1127E-2   2.020   
 -.7888     -.3819E-1   4.420     -.1113E-2   2.019   
 -.7808     -.3699E-1   4.390     -.1100E-2   2.019   
 -.7728     -.3583E-1   4.361     -.1087E-2   2.018   
 -.7648     -.3473E-1   4.332     -.1074E-2   2.017   
 -.7568     -.3368E-1   4.305     -.1061E-2   2.016   
 -.7487     -.3267E-1   4.279     -.1048E-2   2.015   
 -.7407     -.3170E-1   4.253     -.1035E-2   2.014   
 -.7327     -.3078E-1   4.228     -.1022E-2   2.014   
 -.7247     -.2988E-1   4.203     -.1009E-2   2.013   
 -.7167     -.2903E-1   4.180     -.9963E-3   2.012   
 -.7087     -.2821E-1   4.157     -.9836E-3   2.011   
 -.7007     -.2741E-1   4.135     -.9709E-3   2.010   
 -.6927     -.2665E-1   4.113     -.9583E-3   2.010   
 -.6847     -.2591E-1   4.092     -.9458E-3   2.009   
 -.6767     -.2521E-1   4.072     -.9333E-3   2.008   
 -.6687     -.2452E-1   4.052     -.9209E-3   2.007   
 -.6607     -.2386E-1   4.032     -.9085E-3   2.007   
 -.6527     -.2322E-1   4.014     -.8962E-3   2.006   
 -.6446     -.2261E-1   3.995     -.8839E-3   2.005   
 -.6366     -.2201E-1   3.977     -.8717E-3   2.004   
 -.6286     -.2143E-1   3.960     -.8595E-3   2.004   
 -.6206     -.2087E-1   3.943     -.8474E-3   2.003   
 -.6126     -.2033E-1   3.927     -.8353E-3   2.002   
 -.6046     -.1980E-1   3.910     -.8233E-3   2.002   
 -.5966     -.1929E-1   3.895     -.8113E-3   2.001   
 -.5886     -.1880E-1   3.880     -.7993E-3   2.000   
 -.5806     -.1832E-1   3.865     -.7874E-3   2.000   
 -.5726     -.1785E-1   3.850     -.7756E-3   1.999   
 -.5646     -.1740E-1   3.836     -.7638E-3   1.999   
 -.5566     -.1696E-1   3.822     -.7520E-3   1.998   
 -.5485     -.1653E-1   3.809     -.7403E-3   1.997   
 -.5405     -.1611E-1   3.796     -.7286E-3   1.997   
 -.5325     -.1570E-1   3.783     -.7170E-3   1.996   
 -.5245     -.1530E-1   3.771     -.7054E-3   1.996   
 -.5165     -.1492E-1   3.759     -.6938E-3   1.995   
 -.5085     -.1454E-1   3.747     -.6823E-3   1.994   
 -.5005     -.1417E-1   3.735     -.6708E-3   1.994   
 -.4925     -.1381E-1   3.724     -.6593E-3   1.993   
 -.4845     -.1346E-1   3.713     -.6479E-3   1.993   
 -.4765     -.1312E-1   3.703     -.6365E-3   1.992   
 -.4685     -.1278E-1   3.692     -.6252E-3   1.992   
 -.4605     -.1246E-1   3.682     -.6139E-3   1.991   
 -.4525     -.1214E-1   3.672     -.6026E-3   1.991   
 -.4444     -.1182E-1   3.663     -.5913E-3   1.990   
 -.4364     -.1152E-1   3.653     -.5801E-3   1.990   
 -.4284     -.1121E-1   3.644     -.5689E-3   1.989   
 -.4204     -.1092E-1   3.635     -.5578E-3   1.989   
 -.4124     -.1063E-1   3.627     -.5467E-3   1.989   
 -.4044     -.1035E-1   3.618     -.5356E-3   1.988   
 -.3964     -.1007E-1   3.610     -.5245E-3   1.988   
 -.3884     -.9798E-2   3.602     -.5135E-3   1.987   
 -.3804     -.9531E-2   3.595     -.5025E-3   1.987   
 -.3724     -.9268E-2   3.587     -.4915E-3   1.986   
 -.3644     -.9010E-2   3.580     -.4805E-3   1.986   
 -.3564     -.8756E-2   3.573     -.4696E-3   1.986   
 -.3483     -.8507E-2   3.566     -.4587E-3   1.985   
 -.3403     -.8262E-2   3.559     -.4478E-3   1.985   
 -.3323     -.8020E-2   3.552     -.4369E-3   1.985   
 -.3243     -.7783E-2   3.546     -.4261E-3   1.984   
 -.3163     -.7549E-2   3.540     -.4153E-3   1.984   
 -.3083     -.7318E-2   3.534     -.4045E-3   1.984   
 -.3003     -.7091E-2   3.528     -.3937E-3   1.983   
 -.2923     -.6867E-2   3.523     -.3830E-3   1.983   
 -.2843     -.6647E-2   3.517     -.3723E-3   1.983   
 -.2763     -.6429E-2   3.512     -.3616E-3   1.982   
 -.2683     -.6214E-2   3.507     -.3509E-3   1.982   
 -.2603     -.6002E-2   3.502     -.3402E-3   1.982   
 -.2523     -.5792E-2   3.497     -.3296E-3   1.982   
 -.2442     -.5585E-2   3.493     -.3189E-3   1.981   
 -.2362     -.5380E-2   3.488     -.3083E-3   1.981   
 -.2282     -.5178E-2   3.484     -.2977E-3   1.981   
 -.2202     -.4977E-2   3.480     -.2871E-3   1.981   
 -.2122     -.4779E-2   3.476     -.2765E-3   1.980   
 -.2042     -.4583E-2   3.472     -.2660E-3   1.980   
 -.1962     -.4389E-2   3.469     -.2555E-3   1.980   
 -.1882     -.4196E-2   3.465     -.2449E-3   1.980   
 -.1802     -.4006E-2   3.462     -.2344E-3   1.980   
 -.1722     -.3817E-2   3.459     -.2239E-3   1.979   
 -.1642     -.3629E-2   3.456     -.2134E-3   1.979   
 -.1562     -.3443E-2   3.453     -.2029E-3   1.979   
 -.1481     -.3258E-2   3.451     -.1925E-3   1.979   
 -.1401     -.3075E-2   3.448     -.1820E-3   1.979   
 -.1321     -.2893E-2   3.446     -.1715E-3   1.979   
 -.1241     -.2712E-2   3.443     -.1611E-3   1.978   
 -.1161     -.2532E-2   3.441     -.1507E-3   1.978   
 -.1081     -.2353E-2   3.439     -.1402E-3   1.978   
 -.1001     -.2175E-2   3.438     -.1298E-3   1.978   
 -.9209E-1  -.1998E-2   3.436     -.1194E-3   1.978   
 -.8408E-1  -.1822E-2   3.434     -.1090E-3   1.978   
 -.7608E-1  -.1646E-2   3.433     -.9862E-4   1.978   
 -.6807E-1  -.1471E-2   3.432     -.8822E-4   1.978   
 -.6006E-1  -.1297E-2   3.431     -.7783E-4   1.978   
 -.5205E-1  -.1123E-2   3.430     -.6745E-4   1.978   
 -.4404E-1  -.9493E-3   3.429     -.5706E-4   1.978   
 -.3604E-1  -.7762E-3   3.428     -.4668E-4   1.978   
 -.2803E-1  -.6034E-3   3.428     -.3631E-4   1.977   
 -.2002E-1  -.4309E-3   3.427     -.2593E-4   1.977   
 -.1201E-1  -.2584E-3   3.427     -.1556E-4   1.977   
 -.4004E-2  -.8614E-4   3.427     -.5186E-5   1.977   
 0.4004E-2  0.8613E-4   3.427     0.5186E-5   1.977   
 0.1201E-1  0.2584E-3   3.427     0.1556E-4   1.977   
 0.2002E-1  0.4308E-3   3.427     0.2593E-4   1.977   
 0.2803E-1  0.6034E-3   3.428     0.3631E-4   1.977   
 0.3604E-1  0.7762E-3   3.428     0.4668E-4   1.978   
 0.4404E-1  0.9493E-3   3.429     0.5706E-4   1.978   
 0.5205E-1  0.1123E-2   3.430     0.6745E-4   1.978   
 0.6006E-1  0.1297E-2   3.431     0.7783E-4   1.978   
 0.6807E-1  0.1471E-2   3.432     0.8822E-4   1.978   
 0.7608E-1  0.1646E-2   3.433     0.9862E-4   1.978   
 0.8408E-1  0.1822E-2   3.434     0.1090E-3   1.978   
 0.9209E-1  0.1998E-2   3.436     0.1194E-3   1.978   
 0.1001     0.2175E-2   3.438     0.1298E-3   1.978   
 0.1081     0.2353E-2   3.439     0.1402E-3   1.978   
 0.1161     0.2532E-2   3.441     0.1507E-3   1.978   
 0.1241     0.2712E-2   3.443     0.1611E-3   1.978   
 0.1321     0.2893E-2   3.446     0.1715E-3   1.979   
 0.1401     0.3075E-2   3.448     0.1820E-3   1.979   
 0.1481     0.3258E-2   3.451     0.1925E-3   1.979   
 0.1562     0.3443E-2   3.453     0.2029E-3   1.979   
 0.1642     0.3629E-2   3.456     0.2134E-3   1.979   
 0.1722     0.3817E-2   3.459     0.2239E-3   1.979   
 0.1802     0.4006E-2   3.462     0.2344E-3   1.980   
 0.1882     0.4196E-2   3.465     0.2449E-3   1.980   
 0.1962     0.4389E-2   3.469     0.2555E-3   1.980   
 0.2042     0.4583E-2   3.472     0.2660E-3   1.980   
 0.2122     0.4779E-2   3.476     0.2765E-3   1.980   
 0.2202     0.4977E-2   3.480     0.2871E-3   1.981   
 0.2282     0.5178E-2   3.484     0.2977E-3   1.981   
 0.2362     0.5380E-2   3.488     0.3083E-3   1.981   
 0.2442     0.5585E-2   3.493     0.3189E-3   1.981   
 0.2523     0.5792E-2   3.497     0.3296E-3   1.982   
 0.2603     0.6002E-2   3.502     0.3402E-3   1.982   
 0.2683     0.6214E-2   3.507     0.3509E-3   1.982   
 0.2763     0.6429E-2   3.512     0.3616E-3   1.982   
 0.2843     0.6647E-2   3.517     0.3723E-3   1.983   
 0.2923     0.6867E-2   3.523     0.3830E-3   1.983   
 0.3003     0.7091E-2   3.528     0.3937E-3   1.983   
 0.3083     0.7318E-2   3.534     0.4045E-3   1.984   
 0.3163     0.7549E-2   3.540     0.4153E-3   1.984   
 0.3243     0.7783E-2   3.546     0.4261E-3   1.984   
 0.3323     0.8020E-2   3.552     0.4369E-3   1.985   
 0.3403     0.8262E-2   3.559     0.4478E-3   1.985   
 0.3483     0.8507E-2   3.566     0.4587E-3   1.985   
 0.3564     0.8756E-2   3.573     0.4696E-3   1.986   
 0.3644     0.9010E-2   3.580     0.4805E-3   1.986   
 0.3724     0.9268E-2   3.587     0.4915E-3   1.986   
 0.3804     0.9531E-2   3.595     0.5025E-3   1.987   
 0.3884     0.9798E-2   3.602     0.5135E-3   1.987   
 0.3964     0.1007E-1   3.610     0.5245E-3   1.988   
 0.4044     0.1035E-1   3.618     0.5356E-3   1.988   
 0.4124     0.1063E-1   3.627     0.5467E-3   1.989   
 0.4204     0.1092E-1   3.635     0.5578E-3   1.989   
 0.4284     0.1121E-1   3.644     0.5689E-3   1.989   
 0.4364     0.1152E-1   3.653     0.5801E-3   1.990   
 0.4444     0.1182E-1   3.663     0.5913E-3   1.990   
 0.4525     0.1214E-1   3.672     0.6026E-3   1.991   
 0.4605     0.1246E-1   3.682     0.6139E-3   1.991   
 0.4685     0.1278E-1   3.692     0.6252E-3   1.992   
 0.4765     0.1312E-1   3.703     0.6365E-3   1.992   
 0.4845     0.1346E-1   3.713     0.6479E-3   1.993   
 0.4925     0.1381E-1   3.724     0.6593E-3   1.993   
 0.5005     0.1417E-1   3.735     0.6708E-3   1.994   
 0.5085     0.1454E-1   3.747     0.6823E-3   1.994   
 0.5165     0.1492E-1   3.759     0.6938E-3   1.995   
 0.5245     0.1530E-1   3.771     0.7054E-3   1.996   
 0.5325     0.1570E-1   3.783     0.7170E-3   1.996   
 0.5405     0.1611E-1   3.796     0.7286E-3   1.997   
 0.5485     0.1653E-1   3.809     0.7403E-3   1.997   
 0.5566     0.1696E-1   3.822     0.7520E-3   1.998   
 0.5646     0.1740E-1   3.836     0.7638E-3   1.999   
 0.5726     0.1785E-1   3.850     0.7756E-3   1.999   
 0.5806     0.1832E-1   3.865     0.7874E-3   2.000   
 0.5886     0.1880E-1   3.880     0.7993E-3   2.000   
 0.5966     0.1929E-1   3.895     0.8113E-3   2.001   
 0.6046     0.1980E-1   3.910     0.8233E-3   2.002   
 0.6126     0.2033E-1   3.927     0.8353E-3   2.002   
 0.6206     0.2087E-1   3.943     0.8474E-3   2.003   
 0.6286     0.2143E-1   3.960     0.8595E-3   2.004   
 0.6366     0.2201E-1   3.977     0.8717E-3   2.004   
 0.6446     0.2261E-1   3.995     0.8839E-3   2.005   
 0.6527     0.2322E-1   4.014     0.8962E-3   2.006   
 0.6607     0.2386E-1   4.032     0.9085E-3   2.007   
 0.6687     0.2452E-1   4.052     0.9209E-3   2.007   
 0.6767     0.2521E-1   4.072     0.9333E-3   2.008   
 0.6847     0.2591E-1   4.092     0.9458E-3   2.009   
 0.6927     0.2665E-1   4.113     0.9583E-3   2.010   
 0.7007     0.2741E-1   4.135     0.9709E-3   2.010   
 0.7087     0.2821E-1   4.157     0.9836E-3   2.011   
 0.7167     0.2903E-1   4.180     0.9963E-3   2.012   
 0.7247     0.2988E-1   4.203     0.1009E-2   2.013   
 0.7327     0.3078E-1   4.228     0.1022E-2   2.014   
 0.7407     0.3170E-1   4.253     0.1035E-2   2.014   
 0.7487     0.3267E-1   4.279     0.1048E-2   2.015   
 0.7568     0.3368E-1   4.305     0.1061E-2   2.016   
 0.7648     0.3473E-1   4.332     0.1074E-2   2.017   
 0.7728     0.3583E-1   4.361     0.1087E-2   2.018   
 0.7808     0.3699E-1   4.390     0.1100E-2   2.019   
 0.7888     0.3819E-1   4.420     0.1113E-2   2.019   
 0.7968     0.3946E-1   4.451     0.1127E-2   2.020   
 0.8048     0.4078E-1   4.483     0.1140E-2   2.021   
 0.8128     0.4218E-1   4.516     0.1153E-2   2.022   
 0.8208     0.4364E-1   4.551     0.1167E-2   2.023   
 0.8288     0.4518E-1   4.586     0.1181E-2   2.024   
 0.8368     0.4681E-1   4.623     0.1194E-2   2.025   
 0.8448     0.4853E-1   4.661     0.1208E-2   2.026   
 0.8529     0.5034E-1   4.701     0.1222E-2   2.027   
 0.8609     0.5226E-1   4.742     0.1236E-2   2.028   
 0.8689     0.5429E-1   4.784     0.1250E-2   2.029   
 0.8769     0.5645E-1   4.828     0.1264E-2   2.030   
 0.8849     0.5874E-1   4.874     0.1278E-2   2.031   
 0.8929     0.6119E-1   4.922     0.1292E-2   2.032   
 0.9009     0.6379E-1   4.972     0.1306E-2   2.033   
 0.9089     0.6658E-1   5.024     0.1321E-2   2.034   
 0.9169     0.6956E-1   5.079     0.1335E-2   2.035   
 0.9249     0.7276E-1   5.136     0.1350E-2   2.036   
 0.9329     0.7621E-1   5.195     0.1364E-2   2.037   
 0.9409     0.7992E-1   5.258     0.1379E-2   2.038   
 0.9489     0.8393E-1   5.323     0.1394E-2   2.040   
 0.9570     0.8828E-1   5.392     0.1409E-2   2.041   
 0.9650     0.9300E-1   5.464     0.1423E-2   2.042   
 0.9730     0.9815E-1   5.541     0.1438E-2   2.043   
 0.9810     0.1038      5.621     0.1454E-2   2.044   
 0.9890     0.1100      5.707     0.1469E-2   2.045   
 0.9970     0.1168      5.797     0.1484E-2   2.046   
  1.005     0.1243      5.893     0.1500E-2   2.048   
  1.013     0.1327      5.996     0.1515E-2   2.049   
  1.021     0.1420      6.105     0.1531E-2   2.050   
  1.029     0.1525      6.222     0.1546E-2   2.051   
  1.037     0.1643      6.349     0.1562E-2   2.053   
  1.045     0.1778      6.485     0.1578E-2   2.054   
  1.053     0.1932      6.632     0.1594E-2   2.055   
  1.061     0.2109      6.793     0.1610E-2   2.056   
  1.069     0.2316      6.968     0.1626E-2   2.058   
  1.077     0.2558      7.162     0.1643E-2   2.059   
  1.085     0.2847      7.375     0.1659E-2   2.060   
  1.093     0.3194      7.614     0.1676E-2   2.062   
  1.101     0.3618      7.883     0.1692E-2   2.063   
  1.109     0.4146      8.188     0.1709E-2   2.064   
  1.117     0.4816      8.538     0.1726E-2   2.066   
  1.125     0.5687      8.947     0.1743E-2   2.067   
  1.133     0.6854      9.431     0.1760E-2   2.068   
  1.141     0.8477      10.02     0.1777E-2   2.070   
  1.149      1.084      10.74     0.1795E-2   2.071   
  1.157      1.449      11.67     0.1812E-2   2.073   
  1.165      2.059      12.90     0.1830E-2   2.074   
  1.173      3.190      14.57     0.1848E-2   2.076   
  1.181      5.601      16.86     0.1866E-2   2.077   
  1.189      11.49      18.95     0.1884E-2   2.079   
  1.197      22.12      12.84     0.1902E-2   2.080   
  1.205      17.68     -1.397     0.1920E-2   2.082   
  1.213      8.638     -1.834     0.1938E-2   2.083   
  1.221      5.000      1.033     0.1957E-2   2.085   
  1.229      3.747      3.684     0.1976E-2   2.086   
  1.237      3.641      6.126     0.1994E-2   2.088   
  1.245      4.604      8.675     0.2013E-2   2.090   
  1.253      7.614      11.36     0.2033E-2   2.091   
  1.261      15.02      11.18     0.2052E-2   2.093   
  1.269      18.09     0.3953     0.2071E-2   2.095   
  1.277      10.55     -3.059     0.2091E-2   2.096   
  1.285      8.039     -1.037     0.2111E-2   2.098   
  1.293      7.867     -1.779     0.2130E-2   2.100   
  1.301      5.046     -1.935     0.2150E-2   2.101   
  1.309      3.609     -.1063     0.2171E-2   2.103   
  1.317      3.822      1.551     0.2191E-2   2.105   
  1.325      4.730      1.519     0.2212E-2   2.107   
  1.333      3.688      1.394     0.2232E-2   2.108   
  1.341      3.203      2.921     0.2253E-2   2.110   
  1.349      4.121      4.831     0.2274E-2   2.112   
  1.357      7.375      6.282     0.2295E-2   2.114   
  1.365      12.77      2.391     0.2317E-2   2.116   
  1.373      9.275     -4.615     0.2338E-2   2.117   
  1.381      4.483     -4.358     0.2360E-2   2.119   
  1.389      2.481     -2.808     0.2382E-2   2.121   
    1.3974     1.6058    -1.5466     0.0024     2.1231
    1.4054     1.1638    -0.5834     0.0024     2.1251
    1.4134     0.9145     0.1808     0.0024     2.1270
    1.4214     0.7635     0.8164     0.0025     2.1290
    1.4294     0.6688     1.3681     0.0025     2.1310
    1.4374     0.6098     1.8655     0.0025     2.1330
    1.4454     0.5763     2.3295     0.0025     2.1350
  1.453     0.5630      2.776     0.2564E-2   2.137   
  1.461     0.5684      3.220     0.2588E-2   2.139   
  1.469     0.5938      3.675     0.2612E-2   2.141   
  1.477     0.6439      4.156     0.2636E-2   2.143   
  1.485     0.7287      4.685     0.2661E-2   2.145   
  1.493     0.8685      5.289     0.2685E-2   2.148   
  1.502      1.105      6.011     0.2710E-2   2.150   
  1.510      1.535      6.920     0.2735E-2   2.152   
  1.518      2.409      8.105     0.2760E-2   2.154   
  1.526      4.453      9.498     0.2786E-2   2.156   
  1.534      9.122      9.114     0.2812E-2   2.159   
  1.542      10.78      2.523     0.2838E-2   2.161   
  1.550      6.616     0.6823     0.2864E-2   2.163   
  1.558      5.732      1.320     0.2891E-2   2.165   
  1.566      4.715     0.7962E-1  0.2917E-2   2.168   
    1.5736     2.6848     0.5442     0.0029     2.1701
    1.5816     1.7796     1.6895     0.0030     2.1725
    1.5896     1.5083     2.7206     0.0030     2.1749
  1.598      1.692      3.514     0.3027E-2   2.177   
  1.606      1.955      3.592     0.3055E-2   2.180   
  1.614      1.467      3.779     0.3084E-2   2.182   
  1.622      1.178      4.391     0.3112E-2   2.185   
  1.630      1.012      5.030     0.3141E-2   2.187   
  1.638     0.9460      5.734     0.3171E-2   2.190   
  1.646     0.9603      6.463     0.3200E-2   2.192   
  1.654      1.027      7.235     0.3230E-2   2.195   
  1.662      1.142      8.079     0.3260E-2   2.197   
  1.670      1.313      9.031     0.3291E-2   2.200   
  1.678      1.561      10.14     0.3321E-2   2.203   
  1.686      1.922      11.46     0.3353E-2   2.205   
  1.694      2.469      13.10     0.3384E-2   2.208   
  1.702      3.341      15.20     0.3416E-2   2.211   
  1.710      4.842      18.01     0.3448E-2   2.214   
  1.718      7.713      21.91     0.3480E-2   2.216   
  1.726      14.03      27.16     0.3513E-2   2.219   
  1.734      29.64      30.89     0.3546E-2   2.222   
  1.742      53.31      10.66     0.3580E-2   2.225   
  1.750      36.90     -19.68     0.3614E-2   2.228   
  1.758      17.41     -18.86     0.3648E-2   2.231   
  1.766      9.556     -13.04     0.3683E-2   2.233   
  1.774      6.340     -8.233     0.3718E-2   2.236   
  1.782      5.016     -4.376     0.3753E-2   2.239   
  1.790      4.758     -.9660     0.3789E-2   2.242   
  1.798      5.565      2.377     0.3825E-2   2.246   
  1.806      8.160      5.414     0.3862E-2   2.249   
  1.814      11.85      6.481     0.3899E-2   2.252   
  1.822      17.16      7.542     0.3936E-2   2.255   
  1.830      23.79     -.1780E-1  0.3974E-2   2.258   
  1.838      19.22     -5.154     0.4012E-2   2.261   
  1.846      20.19     -6.360     0.4051E-2   2.264   
  1.854      17.39     -11.13     0.4090E-2   2.268   
  1.862      14.58     -11.31     0.4130E-2   2.271   
  1.870      14.91     -12.91     0.4170E-2   2.274   
  1.878      10.36     -16.82     0.4211E-2   2.278   
  1.886      5.479     -15.26     0.4252E-2   2.281   
  1.894      3.301     -12.94     0.4294E-2   2.284   
  1.902      2.261     -11.10     0.4336E-2   2.288   
  1.910      1.688     -9.675     0.4379E-2   2.291   
  1.918      1.337     -8.544     0.4422E-2   2.295   
  1.926      1.107     -7.611     0.4465E-2   2.298   
  1.934     0.9492     -6.817     0.4510E-2   2.302   
  1.942     0.8399     -6.120     0.4554E-2   2.306   
  1.950     0.7652     -5.493     0.4600E-2   2.309   
  1.958     0.7183     -4.911     0.4646E-2   2.313   
    1.9660     0.6965    -4.3568     0.0047     2.3168
    1.9740     0.7008    -3.8111     0.0047     2.3206
    1.9820     0.7367    -3.2536     0.0048     2.3244
    1.9900     0.8171    -2.6589     0.0048     2.3283
    1.9980     0.9695    -1.9913     0.0049     2.3321
    2.0060     1.2543    -1.1972     0.0049     2.3361
    2.0140     1.8200    -0.1972     0.0050     2.3400
    2.0220     3.0788     1.0638     0.0050     2.3441
  2.030      6.123      1.960     0.5086E-2   2.348   
  2.038      10.10     -1.227     0.5139E-2   2.352   
  2.046      9.463     -5.183     0.5192E-2   2.356   
  2.054      7.671     -8.611     0.5245E-2   2.361   
  2.062      3.945     -9.064     0.5300E-2   2.365   
  2.070      2.107     -7.896     0.5355E-2   2.369   
  2.078      1.305     -6.889     0.5411E-2   2.373   
  2.086     0.9009     -6.140     0.5467E-2   2.378   
  2.094     0.6703     -5.571     0.5525E-2   2.382   
    2.1021     0.5258    -5.1234     0.0056     2.3865
    2.1101     0.4286    -4.7591     0.0056     2.3910
    2.1181     0.3597    -4.4544     0.0057     2.3956
    2.1261     0.3088    -4.1938     0.0058     2.4001
    2.1341     0.2698    -3.9670     0.0058     2.4048
    2.1421     0.2391    -3.7666     0.0059     2.4095
    2.1502     0.2144    -3.5875     0.0059     2.4142
    2.1582     0.1941    -3.4258     0.0060     2.4190
    2.1662     0.1772    -3.2786     0.0061     2.4238
    2.1742     0.1628    -3.1435     0.0061     2.4287
    2.1822     0.1505    -3.0189     0.0062     2.4337
    2.1902     0.1399    -2.9034     0.0063     2.4387
    2.1982     0.1305    -2.7957     0.0063     2.4437
    2.2062     0.1223    -2.6950     0.0064     2.4489
    2.2142     0.1149    -2.6004     0.0065     2.4540
    2.2222     0.1084    -2.5113     0.0066     2.4592
    2.2302     0.1025    -2.4272     0.0066     2.4645
    2.2382     0.0971    -2.3475     0.0067     2.4699
    2.2462     0.0922    -2.2719     0.0068     2.4753
    2.2543     0.0878    -2.2000     0.0069     2.4807
    2.2623     0.0837    -2.1315     0.0069     2.4863
    2.2703     0.0799    -2.0661     0.0070     2.4919
    2.2783     0.0765    -2.0036     0.0071     2.4975
    2.2863     0.0733    -1.9438     0.0072     2.5032
    2.2943     0.0703    -1.8864     0.0073     2.5090
    2.3023     0.0675    -1.8314     0.0074     2.5149
    2.3103     0.0649    -1.7785     0.0074     2.5208
    2.3183     0.0624    -1.7276     0.0075     2.5268
    2.3263     0.0602    -1.6786     0.0076     2.5329
    2.3343     0.0580    -1.6313     0.0077     2.5390
    2.3423     0.0560    -1.5857     0.0078     2.5452
    2.3503     0.0541    -1.5417     0.0079     2.5515
    2.3584     0.0523    -1.4992     0.0080     2.5578
    2.3664     0.0506    -1.4580     0.0081     2.5643
    2.3744     0.0490    -1.4182     0.0082     2.5708
    2.3824     0.0474    -1.3797     0.0083     2.5774
    2.3904     0.0460    -1.3423     0.0084     2.5840
    2.3984     0.0446    -1.3061     0.0085     2.5908
    2.4064     0.0433    -1.2709     0.0086     2.5976
    2.4144     0.0420    -1.2368     0.0087     2.6045
    2.4224     0.0408    -1.2036     0.0088     2.6115
    2.4304     0.0397    -1.1714     0.0089     2.6186
    2.4384     0.0386    -1.1401     0.0090     2.6258
    2.4464     0.0376    -1.1096     0.0091     2.6331
    2.4545     0.0366    -1.0800     0.0093     2.6405
    2.4625     0.0356    -1.0511     0.0094     2.6479
    2.4705     0.0347    -1.0230     0.0095     2.6555
    2.4785     0.0338    -0.9956     0.0096     2.6632
    2.4865     0.0330    -0.9688     0.0098     2.6709
    2.4945     0.0321    -0.9428     0.0099     2.6788
   2.50250    0.03136   -0.91738    0.01001    2.68674
   2.51051    0.03061   -0.89258    0.01015    2.69481
   2.51852    0.02988   -0.86837    0.01028    2.70299
   2.52653    0.02919   -0.84473    0.01042    2.71128
   2.53453    0.02851   -0.82164    0.01057    2.71969
   2.54254    0.02787   -0.79908    0.01071    2.72820
   2.55055    0.02724   -0.77702    0.01086    2.73684
   2.55856    0.02664   -0.75546    0.01101    2.74559
   2.56657    0.02605   -0.73438    0.01116    2.75447
   2.57457    0.02549   -0.71375    0.01132    2.76347
   2.58258    0.02494   -0.69356    0.01148    2.77259
   2.59059    0.02442   -0.67381    0.01164    2.78185
   2.59860    0.02391   -0.65447    0.01181    2.79124
   2.60661    0.02341   -0.63553    0.01198    2.80076
   2.61461    0.02293   -0.61698    0.01216    2.81043
   2.62262    0.02247   -0.59881    0.01233    2.82023
   2.63063    0.02202   -0.58100    0.01252    2.83018
   2.63864    0.02158   -0.56355    0.01270    2.84027
   2.64665    0.02116   -0.54644    0.01289    2.85052
   2.65465    0.02075   -0.52967    0.01309    2.86092
   2.66266    0.02035   -0.51321    0.01328    2.87147
   2.67067    0.01997   -0.49707    0.01349    2.88219
   2.67868    0.01959   -0.48124    0.01370    2.89307
   2.68669    0.01923   -0.46570    0.01391    2.90412
   2.69469    0.01887   -0.45045    0.01413    2.91535
   2.70270    0.01853   -0.43548    0.01435    2.92675
   2.71071    0.01819   -0.42078    0.01458    2.93833
   2.71872    0.01787   -0.40635    0.01481    2.95010
   2.72673    0.01755   -0.39217    0.01505    2.96205
   2.73473    0.01724   -0.37824    0.01530    2.97420
   2.74274    0.01694   -0.36456    0.01555    2.98655
   2.75075    0.01665   -0.35111    0.01581    2.99910
   2.75876    0.01636   -0.33790    0.01607    3.01187
   2.76677    0.01608   -0.32491    0.01635    3.02485
   2.77477    0.01581   -0.31214    0.01662    3.03804
   2.78278    0.01555   -0.29959    0.01691    3.05147
   2.79079    0.01529   -0.28724    0.01720    3.06512
   2.79880    0.01504   -0.27510    0.01751    3.07902
   2.80681    0.01480   -0.26315    0.01782    3.09316
   2.81481    0.01456   -0.25140    0.01813    3.10755
   2.82282    0.01432   -0.23984    0.01846    3.12220
   2.83083    0.01410   -0.22847    0.01880    3.13711
   2.83884    0.01387   -0.21727    0.01914    3.15230
   2.84685    0.01366   -0.20625    0.01950    3.16776
   2.85485    0.01344   -0.19540    0.01986    3.18352
   2.86286    0.01324   -0.18472    0.02024    3.19957
   2.87087    0.01304   -0.17420    0.02063    3.21593
   2.87888    0.01284   -0.16384    0.02103    3.23261
   2.88689    0.01264   -0.15364    0.02144    3.24960
   2.89490    0.01245   -0.14359    0.02186    3.26694
   2.90290    0.01227   -0.13370    0.02230    3.28461
   2.91091    0.01209   -0.12395    0.02275    3.30265
   2.91892    0.01191   -0.11434    0.02322    3.32105
   2.92693    0.01174   -0.10487    0.02370    3.33983
   2.93493    0.01157   -0.09554    0.02420    3.35900
   2.94294    0.01140   -0.08634    0.02471    3.37857
   2.95095    0.01124   -0.07728    0.02524    3.39856
   2.95896    0.01108   -0.06834    0.02579    3.41898
   2.96697    0.01093   -0.05953    0.02636    3.43985
   2.97497    0.01077   -0.05084    0.02694    3.46118
   2.98298    0.01062   -0.04228    0.02755    3.48299
   2.99099    0.01048   -0.03383    0.02818    3.50530
   2.99900    0.01034   -0.02549    0.02883    3.52811
   3.00701    0.01019   -0.01728    0.02951    3.55146
    3.0150     0.0101    -0.0092     0.0302     3.5754
  3.023     0.9922E-2  -.1169E-2  0.3095E-1   3.600   
    3.0310     0.0098     0.0067     0.0317     3.6249
    3.0390     0.0097     0.0145     0.0325     3.6506
    3.0470     0.0095     0.0222     0.0333     3.6769
    3.0551     0.0094     0.0298     0.0342     3.7039
    3.0631     0.0093     0.0373     0.0351     3.7316
    3.0711     0.0092     0.0446     0.0360     3.7601
    3.0791     0.0090     0.0519     0.0370     3.7892
    3.0871     0.0089     0.0591     0.0380     3.8192
    3.0951     0.0088     0.0662     0.0390     3.8500
    3.1031     0.0087     0.0733     0.0401     3.8817
    3.1111     0.0086     0.0802     0.0413     3.9142
    3.1191     0.0085     0.0870     0.0425     3.9477
    3.1271     0.0084     0.0938     0.0437     3.9822
    3.1351     0.0083     0.1005     0.0451     4.0178
    3.1431     0.0082     0.1071     0.0465     4.0544
    3.1512     0.0081     0.1136     0.0479     4.0922
    3.1592     0.0080     0.1200     0.0495     4.1311
    3.1672     0.0079     0.1263     0.0511     4.1714
    3.1752     0.0078     0.1326     0.0528     4.2130
    3.1832     0.0077     0.1388     0.0546     4.2559
    3.1912     0.0076     0.1450     0.0566     4.3004
    3.1992     0.0075     0.1510     0.0586     4.3465
    3.2072     0.0074     0.1570     0.0607     4.3942
    3.2152     0.0073     0.1629     0.0630     4.4436
    3.2232     0.0073     0.1688     0.0654     4.4950
    3.2312     0.0072     0.1745     0.0680     4.5484
    3.2392     0.0071     0.1803     0.0708     4.6039
    3.2472     0.0070     0.1859     0.0737     4.6616
    3.2553     0.0069     0.1915     0.0769     4.7218
    3.2633     0.0069     0.1970     0.0803     4.7846
    3.2713     0.0068     0.2025     0.0839     4.8503
    3.2793     0.0067     0.2078     0.0878     4.9189
    3.2873     0.0066     0.2132     0.0921     4.9907
    3.2953     0.0066     0.2185     0.0966     5.0661
    3.3033     0.0065     0.2237     0.1016     5.1453
    3.3113     0.0064     0.2288     0.1070     5.2286
    3.3193     0.0063     0.2339     0.1129     5.3164
    3.3273     0.0063     0.2390     0.1194     5.4091
    3.3353     0.0062     0.2440     0.1265     5.5072
    3.3433     0.0061     0.2489     0.1343     5.6112
    3.3514     0.0061     0.2538     0.1430     5.7218
    3.3594     0.0060     0.2586     0.1526     5.8397
  3.367     0.5941E-2  0.2634     0.1634      5.966   
  3.375     0.5878E-2  0.2682     0.1755      6.101   
  3.383     0.5816E-2  0.2728     0.1892      6.246   
  3.391     0.5755E-2  0.2775     0.2047      6.402   
  3.399     0.5695E-2  0.2821     0.2224      6.572   
  3.407     0.5636E-2  0.2866     0.2429      6.757   
  3.415     0.5578E-2  0.2911     0.2667      6.959   
  3.423     0.5521E-2  0.2955     0.2945      7.182   
  3.431     0.5464E-2  0.2999     0.3276      7.428   
  3.439     0.5409E-2  0.3043     0.3671      7.703   
  3.447     0.5354E-2  0.3086     0.4152      8.011   
  3.455     0.5300E-2  0.3128     0.4744      8.361   
  3.463     0.5246E-2  0.3171     0.5489      8.762   
  3.471     0.5194E-2  0.3212     0.6442      9.228   
  3.479     0.5142E-2  0.3254     0.7695      9.776   
  3.487     0.5091E-2  0.3295     0.9391      10.43   
  3.495     0.5041E-2  0.3335      1.177      11.24   
  3.504     0.4991E-2  0.3376      1.527      12.25   
  3.512     0.4942E-2  0.3415      2.072      13.56   
  3.520     0.4894E-2  0.3455      2.988      15.31   
  3.528     0.4847E-2  0.3494      4.695      17.75   
  3.536     0.4800E-2  0.3532      8.336      21.12   
  3.544     0.4754E-2  0.3571      17.25      24.34   
  3.552     0.4708E-2  0.3608      34.17      15.51   
  3.560     0.4663E-2  0.3646      28.56     -8.221   
  3.568     0.4619E-2  0.3683      13.51     -10.16   
  3.576     0.4575E-2  0.3720      7.135     -6.260   
  3.584     0.4532E-2  0.3756      4.571     -2.863   
    3.5916     0.0045     0.3793     3.5042    -0.1610
    3.5996     0.0044     0.3828     3.2171     2.1946
  3.608     0.4406E-2  0.3864      3.592      4.527   
  3.616     0.4365E-2  0.3899      4.994      7.120   
  3.624     0.4324E-2  0.3934      8.826      9.859   
  3.632     0.4285E-2  0.3968      17.88      8.572   
  3.640     0.4245E-2  0.4002      20.08     -5.393   
  3.648     0.4206E-2  0.4036      10.09     -9.543   
  3.656     0.4168E-2  0.4070      5.062     -7.305   
  3.664     0.4130E-2  0.4103      2.989     -5.108   
    3.6717     0.0041     0.4136     2.0037    -3.4697
    3.6797     0.0041     0.4168     1.4705    -2.2340
    3.6877     0.0040     0.4201     1.1530    -1.2611
    3.6957     0.0040     0.4233     0.9511    -0.4619
    3.7037     0.0039     0.4265     0.8172     0.2198
    3.7117     0.0039     0.4296     0.7267     0.8207
    3.7197     0.0039     0.4327     0.6657     1.3660
    3.7277     0.0038     0.4358     0.6265     1.8741
    3.7357     0.0038     0.4389     0.6044     2.3594
    3.7437     0.0038     0.4419     0.5970     2.8335
  3.752     0.3745E-2  0.4449     0.6032      3.307   
  3.760     0.3712E-2  0.4479     0.6235      3.792   
  3.768     0.3680E-2  0.4509     0.6594      4.297   
  3.776     0.3649E-2  0.4538     0.7140      4.837   
  3.784     0.3617E-2  0.4567     0.7927      5.426   
  3.792     0.3587E-2  0.4596     0.9043      6.087   
  3.800     0.3556E-2  0.4625      1.063      6.846   
  3.808     0.3526E-2  0.4653      1.295      7.745   
  3.816     0.3496E-2  0.4681      1.643      8.846   
  3.824     0.3467E-2  0.4709      2.197      10.24   
  3.832     0.3437E-2  0.4737      3.141      12.10   
  3.840     0.3409E-2  0.4764      4.918      14.65   
  3.848     0.3380E-2  0.4791      8.734      18.16   
  3.856     0.3352E-2  0.4818      18.11      21.49   
  3.864     0.3324E-2  0.4845      35.95      12.05   
  3.872     0.3297E-2  0.4871      29.95     -13.18   
  3.880     0.3270E-2  0.4898      13.95     -15.44   
  3.888     0.3243E-2  0.4924      7.096     -11.60   
  3.896     0.3217E-2  0.4950      4.205     -8.403   
  3.904     0.3190E-2  0.4975      2.797     -6.094   
  3.912     0.3165E-2  0.5001      2.025     -4.384   
  3.920     0.3139E-2  0.5026      1.564     -3.060   
  3.928     0.3114E-2  0.5051      1.272     -1.988   
  3.936     0.3089E-2  0.5076      1.081     -1.084   
  3.944     0.3064E-2  0.5100     0.9533     -.2951   
  3.952     0.3040E-2  0.5125     0.8692     0.4167   
  3.960     0.3015E-2  0.5149     0.8168      1.078   
  3.968     0.2991E-2  0.5173     0.7893      1.710   
  3.976     0.2968E-2  0.5197     0.7829      2.330   
  3.984     0.2944E-2  0.5221     0.7963      2.953   
  3.992     0.2921E-2  0.5244     0.8298      3.594   
  4.000     0.2898E-2  0.5268     0.8857      4.269   
# 
# 02/16/2017 at 18:55 YAMBO_PL @ aiken [start]
# 02/16/2017 at 18:55                  [end]
#  
# Timing   [Min/Max/Average]: 35s/35s/35s
#
# .-Input file : INPUTS/07_bse_pl_resonant_111
# | optics                       # [R OPT] Optics
# | bse                          # [R BSE] Bethe Salpeter Equation.
# | bsk                          # [R BSK] Bethe Salpeter Equation kernel
# | bss                          # [R BSS] Bethe Salpeter Equation solver
# | em1s                         # [R Xs] Static Inverse Dielectric Matrix
# | rim_cut                      # [R RIM CUT] Coulomb potential
# | photolum                     # [R] Photo-Luminescence
# | BoseTemp= 0.000000     eV    # Bosonic Temperature
# | DBsIOoff= "DIP"              # [IO] Space-separated list of DB with NO I/O. DB=(DIP,X,HF,COLLs,J,GF,CARRIERs,W,SC,BS,ALL)
# | FFTGvecs= 10           Ha    # [FFT] Plane-waves
# | RandQpts= 1000000            # [RIM] Number of random q-points in the BZ
# | RandGvec= 1            RL    # [RIM] Coulomb interaction RS components
# | CUTGeo= "box z"              # [CUT] Coulomb Cutoff geometry: box/cylinder/sphere X/Y/Z/XY..
# | % CUTBox
# |   0.00000 |  0.00000 | 38.00000 |        # [CUT] [au] Box sides
# | %
# | CUTRadius= 0.000000          # [CUT] [au] Sphere/Cylinder radius
# | CUTCylLen= 0.000000          # [CUT] [au] Cylinder length
# | Chimod= "hartree"            # [X] IP/Hartree/ALDA/LRC/BSfxc
# | BSEmod= "retarded"           # [BSE] resonant/retarded/coupling
# | BSKmod= "SEX"                # [BSE] IP/Hartree/HF/ALDA/SEX/BSfxc
# | BSSmod= "d"                  # [BSS] (h)aydock/(d)iagonalization/(i)nversion/(t)ddft`
# | BSENGexx= 10           Ha    # [BSK] Exchange components
# | BSENGBlk= 1010         mHa   # [BSK] Screened interaction block size
# | #WehCpl                      # [BSK] eh interaction included also in coupling
# | % PL_weights
# |  1.000000 | 1.000000 | 1.000000 |        # [PL] [cc] Weights of the carthesian components of the emitted radiation
# | %
# | % KfnQP_E
# |  1.038620 | 1.000000 | 1.000000 |        # [EXTQP BSK BSS] E parameters  (c/v) eV|adim|adim
# | %
# | KfnRTdb= "f @ 0 fs < ./03_ypp_carriers/ndb.RT_carriers" # [EXTRT BSK BSS] Database
# | RfnRTdb= "f @ 0 fs < ./03_ypp_carriers/ndb.RT_carriers" # [EXTRT R] Database
# | % BEnRange
# | -4.000000 | 4.000000 | eV    # [BSS] Energy range
# | %
# | % BDmRange
# |    0.0100 |   0.0100 | eV    # [BSS] Damping range
# | %
# | BEnSteps= 1000               # [BSS] Energy steps
# | % BLongDir
# | 0.1000E-4 | 0.000    | 0.000    |        # [BSS] [cc] Electric Field
# | %
# | % BSEBands
# |  25 | 28 |                   # [BSK] Bands range
# | %
# | % BndsRnXs
# |    1 |  60 |                 # [Xs] Polarization function bands
# | %
# | NGsBlkXs= 1010         mHa   # [Xs] Response block size
# | GrFnTpXs= "R"                # [Xs] Green`s function (T)ordered,(R)etarded,(r)senant,(a)ntiresonant [T, R, r, Ta, Ra]
# | % DmRngeXs
# |   0.10000 |  0.10000 | eV    # [Xs] Damping range
# | %
# | % LongDrXs
# | 0.1000E-4 | 0.000    | 0.000    |        # [Xs] [cc] Electric Field
# | %
