#                                                                     
#  /$$     /$$ /$$$$$$  /$$      /$$ /$$$$$$$   /$$$$$$               
# |  $$   /$$//$$__  $$| $$$    /$$$| $$__  $$ /$$__  $$              
#  \  $$ /$$/| $$  \ $$| $$$$  /$$$$| $$  \ $$| $$  \ $$              
#   \  $$$$/ | $$$$$$$$| $$ $$/$$ $$| $$$$$$$ | $$  | $$              
#    \  $$/  | $$__  $$| $$  $$$| $$| $$__  $$| $$  | $$              
#     | $$   | $$  | $$| $$\  $ | $$| $$  \ $$| $$  | $$              
#     | $$   | $$  | $$| $$ \/  | $$| $$$$$$$/|  $$$$$$/              
#     |__/   |__/  |__/|__/     |__/|_______/  \______/               
#                                                                     
# Version 5.1.0 Revision 22208 Hash (prev commit) a391fb0cb           
#                Branch is phys/dichroism                             
#         MPI+OpenMP+SLK+SLEPC+HDF5_MPI_IO Build                      
#               http://www.yambo-code.org                             
#
# Dichroism @ Q(1):  0.999999975E-5   0.00000000      0.00000000    [q->0 direction]
#
# [GEN] GF Energies                               : Perdew, Burke & Ernzerhof(X)+Perdew, Burke & Ernzerhof(C)
# [GEN] Green`s Function                          : Retarded
#
# [GEN] Gauge                                     : Length
# [GEN] [r,Vnl] included                          : yes
#
# DIP band range                                  :   1  20
# DIP band range limits                           :  20   1
# DIP e/h energy range                            :  -1.00000000     -1.00000000    [eV]
# RL vectors in the sum                           :   3695
# [r,Vnl] included                                : yes
# Bands ordered                                   : no
# Direct v evaluation                             : no
# Approach used                                   : G-space v
# Dipoles computed                                : R V P
# Wavefunctions                                   : Perdew, Burke & Ernzerhof(X)+Perdew, Burke & Ernzerhof(C)
#
#
#    E[1] [eV]          Im(CD)             Re(CD)
#
        0.000000          -0.66129E-09       -0.101472E-7
        0.010000          -0.66159E-09       -0.101474E-7
        0.020000          -0.66186E-09       -0.101478E-7
        0.030000          -0.66217E-09       -0.101477E-7
        0.040000          -0.66246E-09       -0.101481E-7
        0.050000          -0.66276E-09       -0.101479E-7
        0.060000          -0.66306E-09       -0.101477E-7
        0.070000          -0.66336E-09       -0.101487E-7
        0.080000          -0.66366E-09       -0.101487E-7
        0.090000          -0.66397E-09       -0.101487E-7
        0.100000          -0.66427E-09       -0.101491E-7
        0.110000          -0.66458E-09       -0.101494E-7
        0.120000          -0.66489E-09       -0.101493E-7
        0.130000          -0.66519E-09       -0.101501E-7
        0.140000          -0.66550E-09       -0.101500E-7
        0.150000          -0.66583E-09       -0.101511E-7
        0.160000          -0.66614E-09       -0.101510E-7
        0.170000          -0.66646E-09       -0.101517E-7
        0.180000          -0.66679E-09       -0.101520E-7
        0.190000          -0.66710E-09       -0.101523E-7
        0.200000          -0.66742E-09       -0.101531E-7
        0.210000          -0.66775E-09       -0.101540E-7
        0.220000          -0.66808E-09       -0.101542E-7
        0.230000          -0.66841E-09       -0.101546E-7
        0.240000          -0.66874E-09       -0.101555E-7
        0.250000          -0.66908E-09       -0.101562E-7
        0.260000          -0.66942E-09       -0.101568E-7
        0.270000          -0.66974E-09       -0.101580E-7
        0.280000          -0.67008E-09       -0.101581E-7
        0.290000          -0.67043E-09       -0.101593E-7
        0.300000          -0.67076E-09       -0.101600E-7
        0.310000          -0.67111E-09       -0.101608E-7
        0.320000          -0.67145E-09       -0.101616E-7
        0.330000          -0.67180E-09       -0.101630E-7
        0.340000          -0.67216E-09       -0.101639E-7
        0.350000          -0.67250E-09       -0.101650E-7
        0.360000          -0.67286E-09       -0.101656E-7
        0.370000          -0.67321E-09       -0.101674E-7
        0.380000          -0.67356E-09       -0.101678E-7
        0.390000          -0.67393E-09       -0.101695E-7
        0.400000          -0.67429E-09       -0.101698E-7
        0.410000          -0.67466E-09       -0.101710E-7
        0.420000          -0.67501E-09       -0.101723E-7
        0.430000          -0.67539E-09       -0.101737E-7
        0.440000          -0.67576E-09       -0.101755E-7
        0.450000          -0.67613E-09       -0.101762E-7
        0.460000          -0.67650E-09       -0.101779E-7
        0.470000          -0.67688E-09       -0.101791E-7
        0.480000          -0.67726E-09       -0.101801E-7
        0.490000          -0.67763E-09       -0.101817E-7
        0.500000          -0.67801E-09       -0.101835E-7
        0.510000          -0.67840E-09       -0.101843E-7
        0.520000          -0.67879E-09       -0.101862E-7
        0.530000          -0.67917E-09       -0.101872E-7
        0.540000          -0.67956E-09       -0.101896E-7
        0.550000          -0.67995E-09       -0.101905E-7
        0.560000          -0.68035E-09       -0.101924E-7
        0.570000          -0.68074E-09       -0.101945E-7
        0.580000          -0.68114E-09       -0.101958E-7
        0.590000          -0.68155E-09       -0.101977E-7
        0.600000          -0.68195E-09       -0.101997E-7
        0.610000          -0.68236E-09       -0.102015E-7
        0.620000          -0.68275E-09       -0.102032E-7
        0.630000          -0.68317E-09       -0.102048E-7
        0.640000          -0.68358E-09       -0.102065E-7
        0.650000          -0.68400E-09       -0.102085E-7
        0.660000          -0.68441E-09       -0.102103E-7
        0.670000          -0.68483E-09       -0.102122E-7
        0.680000          -0.68524E-09       -0.102141E-7
        0.690000          -0.68568E-09       -0.102161E-7
        0.700000          -0.68609E-09       -0.102182E-7
        0.710000          -0.68652E-09       -0.102205E-7
        0.720000          -0.68695E-09       -0.102222E-7
        0.730000          -0.68738E-09       -0.102246E-7
        0.740000          -0.68782E-09       -0.102271E-7
        0.750000          -0.68825E-09       -0.102285E-7
        0.760000          -0.68869E-09       -0.102305E-7
        0.770000          -0.68914E-09       -0.102331E-7
        0.780000          -0.68958E-09       -0.102357E-7
        0.790000          -0.69002E-09       -0.102378E-7
        0.800000          -0.69047E-09       -0.102404E-7
        0.810000          -0.69093E-09       -0.102431E-7
        0.820000          -0.69138E-09       -0.102449E-7
        0.830000          -0.69183E-09       -0.102477E-7
        0.840000          -0.69228E-09       -0.102494E-7
        0.850000          -0.69275E-09       -0.102522E-7
        0.860000          -0.69321E-09       -0.102553E-7
        0.870000          -0.69368E-09       -0.102572E-7
        0.880000          -0.69414E-09       -0.102597E-7
        0.890000          -0.69461E-09       -0.102629E-7
        0.900000          -0.69509E-09       -0.102658E-7
        0.910000          -0.69556E-09       -0.102682E-7
        0.920000          -0.69604E-09       -0.102711E-7
        0.930000          -0.69652E-09       -0.102735E-7
        0.940000          -0.69700E-09       -0.102767E-7
        0.950000          -0.69748E-09       -0.102792E-7
        0.960000          -0.69797E-09       -0.102822E-7
        0.970000          -0.69846E-09       -0.102851E-7
        0.980000          -0.69895E-09       -0.102881E-7
        0.990000          -0.69944E-09       -0.102909E-7
        1.000000          -0.69995E-09       -0.102939E-7
        1.010000          -0.70045E-09       -0.102973E-7
        1.020000          -0.70095E-09       -0.103001E-7
        1.030000          -0.70146E-09       -0.103034E-7
        1.040000          -0.70197E-09       -0.103060E-7
        1.050000          -0.70248E-09       -0.103095E-7
        1.060000          -0.70299E-09       -0.103126E-7
        1.070000          -0.70352E-09       -0.103156E-7
        1.080000          -0.70403E-09       -0.103186E-7
        1.090000          -0.70455E-09       -0.103222E-7
        1.100000          -0.70508E-09       -0.103255E-7
        1.110000          -0.70561E-09       -0.103290E-7
        1.120000          -0.70614E-09       -0.103325E-7
        1.130000          -0.70667E-09       -0.103356E-7
        1.140000          -0.70721E-09       -0.103394E-7
        1.150000          -0.70775E-09       -0.103430E-7
        1.160000          -0.70829E-09       -0.103466E-7
        1.170000          -0.70883E-09       -0.103501E-7
        1.180000          -0.70938E-09       -0.103537E-7
        1.190000          -0.70993E-09       -0.103571E-7
        1.200000          -0.71048E-09       -0.103604E-7
        1.210000          -0.71104E-09       -0.103650E-7
        1.220000          -0.71160E-09       -0.103677E-7
        1.230000          -0.71216E-09       -0.103724E-7
        1.240000          -0.71274E-09       -0.103760E-7
        1.250000          -0.71329E-09       -0.103798E-7
        1.260000          -0.71387E-09       -0.103834E-7
        1.270000          -0.71444E-09       -0.103881E-7
        1.280000          -0.71502E-09       -0.103913E-7
        1.290000          -0.71561E-09       -0.103950E-7
        1.300000          -0.71618E-09       -0.103992E-7
        1.310000          -0.71677E-09       -0.104031E-7
        1.320000          -0.71736E-09       -0.104074E-7
        1.330000          -0.71796E-09       -0.104114E-7
        1.340000          -0.71854E-09       -0.104160E-7
        1.350000          -0.71915E-09       -0.104197E-7
        1.360000          -0.71975E-09       -0.104245E-7
        1.370000          -0.72036E-09       -0.104284E-7
        1.380000          -0.72097E-09       -0.104324E-7
        1.390000          -0.72158E-09       -0.104369E-7
        1.400000          -0.72220E-09       -0.104417E-7
        1.410000          -0.72281E-09       -0.104465E-7
        1.420000          -0.72344E-09       -0.104502E-7
        1.430000          -0.72405E-09       -0.104549E-7
        1.440000          -0.72468E-09       -0.104598E-7
        1.450000          -0.72533E-09       -0.104636E-7
        1.460000          -0.72595E-09       -0.104685E-7
        1.470000          -0.72658E-09       -0.104732E-7
        1.480000          -0.72723E-09       -0.104774E-7
        1.490000          -0.72788E-09       -0.104825E-7
        1.500000          -0.72853E-09       -0.104870E-7
        1.510000          -0.72918E-09       -0.104921E-7
        1.520000          -0.72984E-09       -0.104963E-7
        1.530000          -0.73050E-09       -0.105010E-7
        1.540000          -0.73116E-09       -0.105071E-7
        1.550000          -0.73184E-09       -0.105113E-7
        1.560000          -0.73250E-09       -0.105164E-7
        1.570000          -0.73317E-09       -0.105211E-7
        1.580000          -0.73385E-09       -0.105264E-7
        1.590000          -0.73453E-09       -0.105317E-7
        1.600000          -0.73522E-09       -0.105369E-7
        1.610000          -0.73590E-09       -0.105424E-7
        1.620000          -0.73660E-09       -0.105467E-7
        1.630000          -0.73729E-09       -0.105529E-7
        1.640000          -0.73799E-09       -0.105570E-7
        1.650000          -0.73869E-09       -0.105632E-7
        1.660000          -0.73940E-09       -0.105689E-7
        1.670000          -0.74012E-09       -0.105745E-7
        1.680000          -0.74083E-09       -0.105789E-7
        1.690000          -0.74155E-09       -0.105844E-7
        1.700000          -0.74226E-09       -0.105905E-7
        1.710000          -0.74299E-09       -0.105962E-7
        1.720000          -0.74373E-09       -0.106018E-7
        1.730000          -0.74445E-09       -0.106074E-7
        1.740000          -0.74520E-09       -0.106132E-7
        1.750000          -0.74594E-09       -0.106190E-7
        1.760000          -0.74668E-09       -0.106243E-7
        1.770000          -0.74744E-09       -0.106303E-7
        1.780000          -0.74819E-09       -0.106364E-7
        1.790000          -0.74895E-09       -0.106419E-7
        1.800000          -0.74971E-09       -0.106481E-7
        1.810000          -0.75048E-09       -0.106548E-7
        1.820000          -0.75125E-09       -0.106605E-7
        1.830000          -0.75202E-09       -0.106666E-7
        1.840000          -0.75280E-09       -0.106726E-7
        1.850000          -0.75359E-09       -0.106790E-7
        1.860000          -0.75437E-09       -0.106852E-7
        1.870000          -0.75516E-09       -0.106914E-7
        1.880000          -0.75596E-09       -0.106971E-7
        1.890000          -0.75677E-09       -0.107042E-7
        1.900000          -0.75756E-09       -0.107106E-7
        1.910000          -0.75837E-09       -0.107167E-7
        1.920000          -0.75920E-09       -0.107233E-7
        1.930000          -0.76001E-09       -0.107295E-7
        1.940000          -0.76083E-09       -0.107362E-7
        1.950000          -0.76166E-09       -0.107430E-7
        1.960000          -0.76249E-09       -0.107496E-7
        1.970000          -0.76334E-09       -0.107565E-7
        1.980000          -0.76417E-09       -0.107635E-7
        1.990000          -0.76502E-09       -0.107704E-7
        2.000000          -0.76586E-09       -0.107773E-7
        2.010000          -0.76672E-09       -0.107838E-7
        2.020000          -0.76759E-09       -0.107908E-7
        2.030000          -0.76845E-09       -0.107980E-7
        2.040000          -0.76932E-09       -0.108047E-7
        2.050000          -0.77019E-09       -0.108122E-7
        2.060000          -0.77107E-09       -0.108188E-7
        2.070000          -0.77196E-09       -0.108267E-7
        2.080000          -0.77286E-09       -0.108338E-7
        2.090000          -0.77374E-09       -0.108407E-7
        2.100000          -0.77465E-09       -0.108478E-7
        2.110000          -0.77555E-09       -0.108554E-7
        2.120000          -0.77646E-09       -0.108634E-7
        2.130000          -0.77737E-09       -0.108708E-7
        2.140000          -0.77830E-09       -0.108781E-7
        2.150000          -0.77922E-09       -0.108855E-7
        2.160000          -0.78016E-09       -0.108938E-7
        2.170000          -0.78108E-09       -0.109010E-7
        2.180000          -0.78202E-09       -0.109088E-7
        2.190000          -0.78297E-09       -0.109166E-7
        2.200000          -0.78393E-09       -0.109251E-7
        2.210000          -0.78488E-09       -0.109323E-7
        2.220000          -0.78585E-09       -0.109404E-7
        2.230000          -0.78681E-09       -0.109486E-7
        2.240000          -0.78779E-09       -0.109565E-7
        2.250000          -0.78876E-09       -0.109647E-7
        2.260000          -0.78974E-09       -0.109727E-7
        2.270000          -0.79075E-09       -0.109810E-7
        2.280000          -0.79173E-09       -0.109897E-7
        2.290000          -0.79274E-09       -0.109977E-7
        2.300000          -0.79375E-09       -0.110058E-7
        2.310000          -0.79476E-09       -0.110145E-7
        2.320000          -0.79577E-09       -0.110228E-7
        2.330000          -0.79681E-09       -0.110314E-7
        2.340000          -0.79783E-09       -0.110402E-7
        2.350000          -0.79887E-09       -0.110489E-7
        2.360000          -0.79992E-09       -0.110575E-7
        2.370000          -0.80097E-09       -0.110663E-7
        2.380000          -0.80202E-09       -0.110750E-7
        2.390000          -0.80309E-09       -0.110839E-7
        2.400000          -0.80414E-09       -0.110932E-7
        2.410000          -0.80523E-09       -0.111019E-7
        2.420000          -0.80630E-09       -0.111110E-7
        2.430000          -0.80739E-09       -0.111202E-7
        2.440000          -0.80848E-09       -0.111289E-7
        2.450000          -0.80958E-09       -0.111382E-7
        2.460000          -0.81069E-09       -0.111478E-7
        2.470000          -0.81180E-09       -0.111573E-7
        2.480000          -0.81292E-09       -0.111671E-7
        2.490000          -0.81405E-09       -0.111764E-7
        2.500000          -0.81517E-09       -0.111858E-7
        2.510000          -0.81632E-09       -0.111958E-7
        2.520000          -0.81746E-09       -0.112052E-7
        2.530000          -0.81862E-09       -0.112146E-7
        2.540000          -0.81979E-09       -0.112244E-7
        2.550000          -0.82093E-09       -0.112348E-7
        2.560000          -0.82212E-09       -0.112439E-7
        2.570000          -0.82330E-09       -0.112545E-7
        2.580000          -0.82448E-09       -0.112644E-7
        2.590000          -0.82568E-09       -0.112749E-7
        2.600000          -0.82689E-09       -0.112852E-7
        2.610000          -0.82809E-09       -0.112952E-7
        2.620000          -0.82930E-09       -0.113057E-7
        2.630000          -0.83053E-09       -0.113156E-7
        2.640000          -0.83176E-09       -0.113259E-7
        2.650000          -0.83300E-09       -0.113369E-7
        2.660000          -0.83425E-09       -0.113475E-7
        2.670000          -0.83550E-09       -0.113583E-7
        2.680000          -0.83677E-09       -0.113684E-7
        2.690000          -0.83803E-09       -0.113794E-7
        2.700000          -0.83932E-09       -0.113901E-7
        2.710000          -0.84059E-09       -0.114014E-7
        2.720000          -0.84190E-09       -0.114123E-7
        2.730000          -0.84319E-09       -0.114231E-7
        2.740000          -0.84450E-09       -0.114350E-7
        2.750000          -0.84582E-09       -0.114459E-7
        2.760000          -0.84714E-09       -0.114567E-7
        2.770000          -0.84848E-09       -0.114676E-7
        2.780000          -0.84982E-09       -0.114793E-7
        2.790000          -0.85117E-09       -0.114912E-7
        2.800000          -0.85253E-09       -0.115032E-7
        2.810000          -0.85391E-09       -0.115150E-7
        2.820000          -0.85528E-09       -0.115265E-7
        2.830000          -0.85666E-09       -0.115387E-7
        2.840000          -0.85805E-09       -0.115504E-7
        2.850000          -0.85947E-09       -0.115624E-7
        2.860000          -0.86087E-09       -0.115741E-7
        2.870000          -0.86229E-09       -0.115858E-7
        2.880000          -0.86373E-09       -0.115988E-7
        2.890000          -0.86517E-09       -0.116104E-7
        2.900000          -0.86660E-09       -0.116221E-7
        2.910000          -0.86806E-09       -0.116352E-7
        2.920000          -0.86954E-09       -0.116484E-7
        2.930000          -0.87101E-09       -0.116607E-7
        2.940000          -0.87250E-09       -0.116731E-7
        2.950000          -0.87399E-09       -0.116861E-7
        2.960000          -0.87549E-09       -0.116984E-7
        2.970000          -0.87701E-09       -0.117112E-7
        2.980000          -0.87853E-09       -0.117250E-7
        2.990000          -0.88007E-09       -0.117378E-7
        3.000000          -0.88161E-09       -0.117511E-7
        3.010000          -0.88317E-09       -0.117643E-7
        3.020000          -0.88474E-09       -0.117773E-7
        3.030000          -0.88631E-09       -0.117908E-7
        3.040000          -0.88789E-09       -0.118044E-7
        3.050000          -0.88949E-09       -0.118180E-7
        3.060000          -0.89109E-09       -0.118312E-7
        3.070000          -0.89271E-09       -0.118453E-7
        3.080000          -0.89435E-09       -0.118598E-7
        3.090000          -0.89598E-09       -0.118726E-7
        3.100000          -0.89762E-09       -0.118869E-7
        3.110000          -0.89929E-09       -0.119014E-7
        3.120000          -0.90097E-09       -0.119158E-7
        3.130000          -0.90265E-09       -0.119301E-7
        3.140000          -0.90434E-09       -0.119444E-7
        3.150000          -0.90605E-09       -0.119589E-7
        3.160000          -0.90777E-09       -0.119739E-7
        3.170000          -0.90950E-09       -0.119883E-7
        3.180000          -0.91123E-09       -0.120031E-7
        3.190000          -0.91299E-09       -0.120181E-7
        3.200000          -0.91476E-09       -0.120330E-7
        3.210000          -0.91653E-09       -0.120480E-7
        3.220000          -0.91834E-09       -0.120638E-7
        3.230000          -0.92013E-09       -0.120787E-7
        3.240000          -0.92194E-09       -0.120942E-7
        3.250000          -0.92377E-09       -0.121093E-7
        3.260000          -0.92561E-09       -0.121256E-7
        3.270000          -0.92746E-09       -0.121414E-7
        3.280000          -0.92933E-09       -0.121570E-7
        3.290000          -0.93121E-09       -0.121727E-7
        3.300000          -0.93310E-09       -0.121890E-7
        3.310000          -0.93502E-09       -0.122047E-7
        3.320000          -0.93693E-09       -0.122209E-7
        3.330000          -0.93886E-09       -0.122375E-7
        3.340000          -0.94080E-09       -0.122534E-7
        3.350000          -0.94277E-09       -0.122700E-7
        3.360000          -0.94474E-09       -0.122868E-7
        3.370000          -0.94673E-09       -0.123036E-7
        3.380000          -0.94872E-09       -0.123202E-7
        3.390000          -0.95075E-09       -0.123378E-7
        3.400000          -0.95278E-09       -0.123553E-7
        3.410000          -0.95484E-09       -0.123723E-7
        3.420000          -0.95690E-09       -0.123896E-7
        3.430000          -0.95898E-09       -0.124070E-7
        3.440000          -0.96106E-09       -0.124249E-7
        3.450000          -0.96317E-09       -0.124424E-7
        3.460000          -0.96529E-09       -0.124595E-7
        3.470000          -0.96743E-09       -0.124780E-7
        3.480000          -0.96960E-09       -0.124967E-7
        3.490000          -0.97175E-09       -0.125146E-7
        3.500000          -0.97394E-09       -0.125323E-7
        3.510000          -0.97613E-09       -0.125509E-7
        3.520000          -0.97835E-09       -0.125703E-7
        3.530000          -0.98059E-09       -0.125880E-7
        3.540000          -0.98285E-09       -0.126080E-7
        3.550000          -0.98511E-09       -0.126265E-7
        3.560000          -0.98741E-09       -0.126454E-7
        3.570000          -0.98970E-09       -0.126646E-7
        3.580000          -0.99203E-09       -0.126842E-7
        3.590000          -0.99436E-09       -0.127034E-7
        3.600000          -0.99672E-09       -0.127228E-7
        3.610000          -0.99909E-09       -0.127437E-7
        3.620000          -0.100148E-8       -0.127627E-7
        3.630000          -0.100389E-8       -0.127830E-7
        3.640000          -0.100634E-8       -0.128030E-7
        3.650000          -0.100878E-8       -0.128236E-7
        3.660000          -0.101124E-8       -0.128436E-7
        3.670000          -0.101373E-8       -0.128642E-7
        3.680000          -0.101625E-8       -0.128847E-7
        3.690000          -0.101877E-8       -0.129061E-7
        3.700000          -0.102131E-8       -0.129275E-7
        3.710000          -0.102388E-8       -0.129489E-7
        3.720000          -0.102646E-8       -0.129701E-7
        3.730000          -0.102908E-8       -0.129911E-7
        3.740000          -0.103170E-8       -0.130134E-7
        3.750000          -0.103434E-8       -0.130347E-7
        3.760000          -0.103701E-8       -0.130568E-7
        3.770000          -0.103972E-8       -0.130791E-7
        3.780000          -0.104242E-8       -0.131016E-7
        3.790000          -0.104516E-8       -0.131236E-7
        3.800000          -0.104791E-8       -0.131464E-7
        3.810000          -0.105069E-8       -0.131692E-7
        3.820000          -0.105350E-8       -0.131915E-7
        3.830000          -0.105632E-8       -0.132150E-7
        3.840000          -0.105918E-8       -0.132384E-7
        3.850000          -0.106205E-8       -0.132618E-7
        3.860000          -0.106495E-8       -0.132852E-7
        3.870000          -0.106788E-8       -0.133088E-7
        3.880000          -0.107081E-8       -0.133337E-7
        3.890000          -0.107379E-8       -0.133572E-7
        3.900000          -0.107678E-8       -0.133817E-7
        3.910000          -0.107979E-8       -0.134066E-7
        3.920000          -0.108284E-8       -0.134312E-7
        3.930000          -0.108592E-8       -0.134556E-7
        3.940000          -0.108901E-8       -0.134811E-7
        3.950000          -0.109214E-8       -0.135060E-7
        3.960000          -0.109528E-8       -0.135319E-7
        3.970000          -0.109845E-8       -0.135580E-7
        3.980000          -0.110167E-8       -0.135832E-7
        3.990000          -0.110491E-8       -0.136090E-7
        4.000000          -0.110816E-8       -0.136351E-7
        4.010000          -0.111143E-8       -0.136613E-7
        4.020000          -0.111477E-8       -0.136879E-7
        4.030000          -0.111812E-8       -0.137151E-7
        4.040000          -0.112150E-8       -0.137419E-7
        4.050000          -0.112490E-8       -0.137694E-7
        4.060000          -0.112835E-8       -0.137968E-7
        4.070000          -0.113180E-8       -0.138246E-7
        4.080000          -0.113531E-8       -0.138522E-7
        4.090000          -0.113883E-8       -0.138799E-7
        4.100000          -0.114240E-8       -0.139089E-7
        4.110000          -0.114598E-8       -0.139368E-7
        4.120000          -0.114962E-8       -0.139660E-7
        4.130000          -0.115328E-8       -0.139944E-7
        4.140000          -0.115696E-8       -0.140241E-7
        4.150000          -0.116069E-8       -0.140531E-7
        4.160000          -0.116446E-8       -0.140831E-7
        4.170000          -0.116824E-8       -0.141124E-7
        4.180000          -0.117208E-8       -0.141427E-7
        4.190000          -0.117595E-8       -0.141734E-7
        4.200000          -0.117985E-8       -0.142038E-7
        4.210000          -0.118378E-8       -0.142347E-7
        4.220000          -0.118778E-8       -0.142658E-7
        4.230000          -0.119177E-8       -0.142972E-7
        4.240000          -0.119584E-8       -0.143287E-7
        4.250000          -0.119992E-8       -0.143602E-7
        4.260000          -0.120405E-8       -0.143922E-7
        4.270000          -0.120821E-8       -0.144250E-7
        4.280000          -0.121243E-8       -0.144576E-7
        4.290000          -0.121667E-8       -0.144900E-7
        4.300000          -0.122097E-8       -0.145234E-7
        4.310000          -0.122528E-8       -0.145568E-7
        4.320000          -0.122968E-8       -0.145903E-7
        4.330000          -0.123409E-8       -0.146244E-7
        4.340000          -0.123854E-8       -0.146583E-7
        4.350000          -0.124305E-8       -0.146930E-7
        4.360000          -0.124761E-8       -0.147275E-7
        4.370000          -0.125220E-8       -0.147633E-7
        4.380000          -0.125685E-8       -0.147988E-7
        4.390000          -0.126154E-8       -0.148341E-7
        4.400000          -0.126627E-8       -0.148701E-7
        4.410000          -0.127105E-8       -0.149061E-7
        4.420000          -0.127589E-8       -0.149429E-7
        4.430000          -0.128076E-8       -0.149796E-7
        4.440000          -0.128571E-8       -0.150169E-7
        4.450000          -0.129067E-8       -0.150551E-7
        4.460000          -0.129571E-8       -0.150930E-7
        4.470000          -0.130081E-8       -0.151301E-7
        4.480000          -0.130594E-8       -0.151696E-7
        4.490000          -0.131112E-8       -0.152082E-7
        4.500000          -0.131639E-8       -0.152466E-7
        4.510000          -0.132169E-8       -0.152868E-7
        4.520000          -0.132704E-8       -0.153270E-7
        4.530000          -0.133247E-8       -0.153675E-7
        4.540000          -0.133794E-8       -0.154080E-7
        4.550000          -0.134347E-8       -0.154487E-7
        4.560000          -0.134907E-8       -0.154901E-7
        4.570000          -0.135471E-8       -0.155315E-7
        4.580000          -0.136044E-8       -0.155733E-7
        4.590000          -0.136621E-8       -0.156162E-7
        4.600000          -0.137204E-8       -0.156589E-7
        4.610000          -0.137795E-8       -0.157019E-7
        4.620000          -0.138394E-8       -0.157459E-7
        4.630000          -0.138996E-8       -0.157896E-7
        4.640000          -0.139608E-8       -0.158335E-7
        4.650000          -0.140225E-8       -0.158788E-7
        4.660000          -0.140847E-8       -0.159240E-7
        4.670000          -0.141480E-8       -0.159702E-7
        4.680000          -0.142119E-8       -0.160159E-7
        4.690000          -0.142765E-8       -0.160619E-7
        4.700000          -0.143418E-8       -0.161092E-7
        4.710000          -0.144079E-8       -0.161571E-7
        4.720000          -0.144748E-8       -0.162044E-7
        4.730000          -0.145425E-8       -0.162527E-7
        4.740000          -0.146108E-8       -0.163011E-7
        4.750000          -0.146801E-8       -0.163505E-7
        4.760000          -0.147501E-8       -0.163996E-7
        4.770000          -0.148210E-8       -0.164501E-7
        4.780000          -0.148927E-8       -0.165012E-7
        4.790000          -0.149652E-8       -0.165518E-7
        4.800000          -0.150387E-8       -0.166031E-7
        4.810000          -0.151129E-8       -0.166553E-7
        4.820000          -0.151882E-8       -0.167081E-7
        4.830000          -0.152643E-8       -0.167605E-7
        4.840000          -0.153416E-8       -0.168145E-7
        4.850000          -0.154197E-8       -0.168692E-7
        4.860000          -0.154986E-8       -0.169231E-7
        4.870000          -0.155785E-8       -0.169784E-7
        4.880000          -0.156596E-8       -0.170338E-7
        4.890000          -0.157415E-8       -0.170906E-7
        4.900000          -0.158247E-8       -0.171474E-7
        4.910000          -0.159088E-8       -0.172050E-7
        4.920000          -0.159941E-8       -0.172630E-7
        4.930000          -0.160802E-8       -0.173220E-7
        4.940000          -0.161676E-8       -0.173813E-7
        4.950000          -0.162564E-8       -0.174410E-7
        4.960000          -0.163459E-8       -0.175015E-7
        4.970000          -0.164368E-8       -0.175623E-7
        4.980000          -0.165288E-8       -0.176246E-7
        4.990000          -0.166221E-8       -0.176861E-7
        5.000000          -0.167166E-8       -0.177494E-7
        5.010000          -0.168123E-8       -0.178124E-7
        5.020000          -0.169094E-8       -0.178768E-7
        5.030000          -0.170078E-8       -0.179425E-7
        5.040000          -0.171076E-8       -0.180078E-7
        5.050000          -0.172087E-8       -0.180744E-7
        5.060000          -0.173112E-8       -0.181413E-7
        5.070000          -0.174149E-8       -0.182096E-7
        5.080000          -0.175203E-8       -0.182784E-7
        5.090000          -0.176272E-8       -0.183471E-7
        5.100000          -0.177355E-8       -0.184180E-7
        5.110000          -0.178453E-8       -0.184887E-7
        5.120000          -0.179567E-8       -0.185603E-7
        5.130000          -0.180698E-8       -0.186329E-7
        5.140000          -0.181845E-8       -0.187061E-7
        5.150000          -0.183005E-8       -0.187799E-7
        5.160000          -0.184185E-8       -0.188549E-7
        5.170000          -0.185380E-8       -0.189309E-7
        5.180000          -0.186595E-8       -0.190076E-7
        5.190000          -0.187827E-8       -0.190845E-7
        5.200000          -0.189078E-8       -0.191636E-7
        5.210000          -0.190348E-8       -0.192428E-7
        5.220000          -0.191636E-8       -0.193229E-7
        5.230000          -0.192944E-8       -0.194040E-7
        5.240000          -0.194270E-8       -0.194858E-7
        5.250000          -0.195618E-8       -0.195689E-7
        5.260000          -0.196988E-8       -0.196531E-7
        5.270000          -0.198377E-8       -0.197389E-7
        5.280000          -0.199789E-8       -0.198245E-7
        5.290000          -0.201223E-8       -0.199125E-7
        5.300000          -0.202679E-8       -0.200002E-7
        5.310000          -0.204158E-8       -0.200891E-7
        5.320000          -0.205662E-8       -0.201797E-7
        5.330000          -0.207189E-8       -0.202714E-7
        5.340000          -0.208740E-8       -0.203637E-7
        5.350000          -0.210318E-8       -0.204579E-7
        5.360000          -0.211920E-8       -0.205524E-7
        5.370000          -0.213551E-8       -0.206484E-7
        5.380000          -0.215205E-8       -0.207456E-7
        5.390000          -0.216890E-8       -0.208449E-7
        5.400000          -0.218601E-8       -0.209443E-7
        5.410000          -0.220341E-8       -0.210455E-7
        5.420000          -0.222113E-8       -0.211471E-7
        5.430000          -0.223914E-8       -0.212509E-7
        5.440000          -0.225746E-8       -0.213561E-7
        5.450000          -0.227610E-8       -0.214628E-7
        5.460000          -0.229507E-8       -0.215704E-7
        5.470000          -0.231436E-8       -0.216805E-7
        5.480000          -0.233399E-8       -0.217908E-7
        5.490000          -0.235399E-8       -0.219031E-7
        5.500000          -0.237436E-8       -0.220169E-7
        5.510000          -0.239505E-8       -0.221324E-7
        5.520000          -0.241614E-8       -0.222491E-7
        5.530000          -0.243763E-8       -0.223676E-7
        5.540000          -0.245949E-8       -0.224874E-7
        5.550000          -0.248178E-8       -0.226094E-7
        5.560000          -0.250446E-8       -0.227315E-7
        5.570000          -0.252761E-8       -0.228576E-7
        5.580000          -0.255114E-8       -0.229851E-7
        5.590000          -0.257515E-8       -0.231132E-7
        5.600000          -0.259966E-8       -0.232436E-7
        5.610000          -0.262459E-8       -0.233766E-7
        5.620000          -0.265000E-8       -0.235109E-7
        5.630000          -0.267595E-8       -0.236469E-7
        5.640000          -0.270240E-8       -0.237852E-7
        5.650000          -0.272937E-8       -0.239256E-7
        5.660000          -0.275689E-8       -0.240686E-7
        5.670000          -0.278501E-8       -0.242131E-7
        5.680000          -0.281365E-8       -0.243595E-7
        5.690000          -0.284288E-8       -0.245093E-7
        5.700000          -0.287272E-8       -0.246608E-7
        5.710000          -0.290318E-8       -0.248140E-7
        5.720000          -0.293431E-8       -0.249704E-7
        5.730000          -0.296610E-8       -0.251284E-7
        5.740000          -0.299856E-8       -0.252899E-7
        5.750000          -0.303171E-8       -0.254531E-7
        5.760000          -0.306559E-8       -0.256192E-7
        5.770000          -0.310021E-8       -0.257878E-7
        5.780000          -0.313557E-8       -0.259594E-7
        5.790000          -0.317177E-8       -0.261336E-7
        5.800000          -0.320874E-8       -0.263108E-7
        5.810000          -0.324659E-8       -0.264909E-7
        5.820000          -0.328527E-8       -0.266738E-7
        5.830000          -0.332487E-8       -0.268603E-7
        5.840000          -0.336538E-8       -0.270491E-7
        5.850000          -0.340682E-8       -0.272425E-7
        5.860000          -0.344927E-8       -0.274372E-7
        5.870000          -0.349274E-8       -0.276371E-7
        5.880000          -0.353721E-8       -0.278398E-7
        5.890000          -0.358280E-8       -0.280458E-7
        5.900000          -0.362948E-8       -0.282557E-7
        5.910000          -0.367733E-8       -0.284693E-7
        5.920000          -0.372641E-8       -0.286868E-7
        5.930000          -0.377667E-8       -0.289077E-7
        5.940000          -0.382822E-8       -0.291330E-7
        5.950000          -0.388113E-8       -0.293632E-7
        5.960000          -0.393538E-8       -0.295958E-7
        5.970000          -0.399104E-8       -0.298339E-7
        5.980000          -0.404819E-8       -0.300771E-7
        5.990000          -0.410688E-8       -0.303247E-7
        6.000000          -0.416713E-8       -0.305767E-7
        6.010000          -0.422900E-8       -0.308333E-7
        6.020000          -0.429261E-8       -0.310957E-7
        6.030000          -0.435794E-8       -0.313625E-7
        6.040000          -0.442511E-8       -0.316351E-7
        6.050000          -0.449422E-8       -0.319125E-7
        6.060000          -0.456527E-8       -0.321959E-7
        6.070000          -0.463842E-8       -0.324854E-7
        6.080000          -0.471367E-8       -0.327802E-7
        6.090000          -0.479117E-8       -0.330814E-7
        6.100000          -0.487097E-8       -0.333895E-7
        6.110000          -0.495314E-8       -0.337033E-7
        6.120000          -0.503784E-8       -0.340240E-7
        6.130000          -0.512513E-8       -0.343516E-7
        6.140000          -0.521525E-8       -0.346870E-7
        6.150000          -0.530811E-8       -0.350299E-7
        6.160000          -0.540392E-8       -0.353792E-7
        6.170000          -0.550285E-8       -0.357368E-7
        6.180000          -0.560501E-8       -0.361026E-7
        6.190000          -0.571055E-8       -0.364775E-7
        6.200000          -0.581964E-8       -0.368599E-7
        6.210000          -0.593237E-8       -0.372524E-7
        6.220000          -0.604898E-8       -0.376535E-7
        6.230000          -0.616964E-8       -0.380641E-7
        6.240000          -0.629451E-8       -0.384845E-7
        6.250000          -0.642382E-8       -0.389154E-7
        6.260000          -0.655783E-8       -0.393573E-7
        6.270000          -0.669664E-8       -0.398093E-7
        6.280000          -0.684061E-8       -0.402735E-7
        6.290000          -0.698999E-8       -0.407491E-7
        6.300000          -0.714503E-8       -0.412378E-7
        6.310000          -0.730595E-8       -0.417387E-7
        6.320000          -0.747322E-8       -0.422533E-7
        6.330000          -0.764703E-8       -0.427808E-7
        6.340000          -0.782782E-8       -0.433224E-7
        6.350000          -0.801600E-8       -0.438796E-7
        6.360000          -0.821182E-8       -0.444521E-7
        6.370000          -0.841587E-8       -0.450406E-7
        6.380000          -0.862857E-8       -0.456454E-7
        6.390000          -0.885043E-8       -0.462680E-7
        6.400000          -0.908192E-8       -0.469087E-7
        6.410000          -0.932371E-8       -0.475679E-7
        6.420000          -0.957633E-8       -0.482472E-7
        6.430000          -0.984058E-8       -0.489470E-7
        6.440000          -0.101170E-7       -0.496683E-7
        6.450000          -0.104065E-7       -0.504110E-7
        6.460000          -0.107099E-7       -0.511802E-7
        6.470000          -0.110282E-7       -0.519708E-7
        6.480000          -0.113621E-7       -0.527882E-7
        6.490000          -0.117129E-7       -0.536322E-7
        6.500000          -0.120817E-7       -0.545041E-7
        6.510000          -0.124698E-7       -0.554048E-7
        6.520000          -0.128785E-7       -0.563372E-7
        6.530000          -0.133092E-7       -0.573018E-7
        6.540000          -0.137637E-7       -0.583012E-7
        6.550000          -0.142437E-7       -0.593344E-7
        6.560000          -0.147513E-7       -0.604061E-7
        6.570000          -0.152883E-7       -0.615167E-7
        6.580000          -0.158573E-7       -0.626696E-7
        6.590000          -0.164608E-7       -0.638643E-7
        6.600000          -0.171016E-7       -0.651057E-7
        6.610000          -0.177829E-7       -0.663959E-7
        6.620000          -0.185081E-7       -0.677365E-7
        6.630000          -0.192811E-7       -0.691308E-7
        6.640000          -0.201060E-7       -0.705815E-7
        6.650000          -0.209876E-7       -0.720914E-7
        6.660000          -0.219310E-7       -0.736645E-7
        6.670000          -0.229425E-7       -0.753038E-7
        6.680000          -0.240282E-7       -0.770130E-7
        6.690000          -0.251956E-7       -0.787964E-7
        6.700000          -0.264529E-7       -0.806583E-7
        6.710000          -0.278094E-7       -0.826008E-7
        6.720000          -0.292756E-7       -0.846300E-7
        6.730000          -0.308632E-7       -0.867511E-7
        6.740000          -0.325856E-7       -0.889664E-7
        6.750000          -0.344580E-7       -0.912826E-7
        6.760000          -0.364979E-7       -0.937023E-7
        6.770000          -0.387246E-7       -0.962315E-7
        6.780000          -0.411607E-7       -0.988724E-7
        6.790000          -0.438321E-7       -0.101629E-6
        6.800000          -0.467682E-7       -0.104503E-6
        6.810000          -0.500030E-7       -0.107496E-6
        6.820000          -0.535749E-7       -0.110605E-6
        6.830000          -0.575292E-7       -0.113827E-6
        6.840000          -0.619170E-7       -0.117152E-6
        6.850000          -0.667976E-7       -0.120567E-6
        6.860000          -0.722383E-7       -0.124050E-6
        6.870000          -0.783164E-7       -0.127567E-6
        6.880000          -0.851188E-7       -0.131075E-6
        6.890000          -0.927434E-7       -0.134508E-6
        6.900000          -0.101298E-6       -0.137776E-6
        6.910000          -0.110899E-6       -0.140759E-6
        6.920000          -0.121665E-6       -0.143294E-6
        6.930000          -0.133713E-6       -0.145167E-6
        6.940000          -0.147141E-6       -0.146098E-6
        6.950000          -0.162009E-6       -0.145730E-6
        6.960000          -0.178309E-6       -0.143625E-6
        6.970000          -0.195917E-6       -0.139258E-6
        6.980000          -0.214544E-6       -0.132045E-6
        6.990000          -0.233672E-6       -0.121388E-6
        7.000000          -0.252508E-6       -0.106770E-6
        7.010000          -0.269975E-6       -0.878869E-7
        7.020000          -0.284774E-6       -0.648083E-7
        7.030000          -0.295551E-6       -0.381104E-7
        7.039999          -0.301151E-6       -0.892966E-8
        7.050000          -0.300884E-6        0.211590E-7
        7.059999          -0.294721E-6        0.503873E-7
        7.070000          -0.283301E-6        0.771392E-7
        7.079999          -0.267768E-6        0.100225E-6
        7.090000          -0.249501E-6        0.119008E-6
        7.099999          -0.229841E-6        0.133392E-6
        7.110000          -0.209918E-6        0.143676E-6
        7.119999          -0.190567E-6        0.150396E-6
        7.130000          -0.172333E-6        0.154181E-6
        7.140000          -0.155516E-6        0.155647E-6
        7.150000          -0.140241E-6        0.155347E-6
        7.160000          -0.126509E-6        0.153747E-6
        7.170000          -0.114249E-6        0.151219E-6
        7.180000          -0.103347E-6        0.148056E-6
        7.190000          -0.936759E-7        0.144479E-6
        7.200000          -0.851027E-7        0.140656E-6
        7.210000          -0.775017E-7        0.136710E-6
        7.220000          -0.707554E-7        0.132728E-6
        7.230000          -0.647588E-7        0.128775E-6
        7.240000          -0.594186E-7        0.124893E-6
        7.250000          -0.546524E-7        0.121111E-6
        7.260000          -0.503889E-7        0.117452E-6
        7.270000          -0.465656E-7        0.113925E-6
        7.280000          -0.431289E-7        0.110536E-6
        7.290000          -0.400318E-7        0.107287E-6
        7.300000          -0.372341E-7        0.104180E-6
        7.310000          -0.347004E-7        0.101209E-6
        7.320000          -0.324007E-7        0.983730E-7
        7.330000          -0.303083E-7        0.956634E-7
        7.340000          -0.284004E-7        0.930782E-7
        7.350000          -0.266568E-7        0.906112E-7
        7.360000          -0.250600E-7        0.882556E-7
        7.370000          -0.235947E-7        0.860062E-7
        7.380000          -0.222474E-7        0.838594E-7
        7.390000          -0.210062E-7        0.818058E-7
        7.400000          -0.198608E-7        0.798442E-7
        7.410000          -0.188017E-7        0.779685E-7
        7.420000          -0.178209E-7        0.761728E-7
        7.430000          -0.169111E-7        0.744538E-7
        7.440000          -0.160658E-7        0.728075E-7
        7.450000          -0.152793E-7        0.712286E-7
        7.460000          -0.145463E-7        0.697156E-7
        7.470000          -0.138624E-7        0.682624E-7
        7.480000          -0.132231E-7        0.668680E-7
        7.489999          -0.126250E-7        0.655285E-7
        7.500000          -0.120646E-7        0.642408E-7
        7.510000          -0.115390E-7        0.630034E-7
        7.520000          -0.110453E-7        0.618111E-7
        7.530000          -0.105812E-7        0.606645E-7
        7.540000          -0.101444E-7        0.595585E-7
        7.550000          -0.973271E-8        0.584941E-7
        7.560000          -0.934448E-8        0.574673E-7
        7.570000          -0.897787E-8        0.564775E-7
        7.580000          -0.863143E-8        0.555201E-7
        7.590000          -0.830361E-8        0.545965E-7
        7.600000          -0.799329E-8        0.537044E-7
        7.610000          -0.769925E-8        0.528419E-7
        7.620000          -0.742031E-8        0.520097E-7
        7.630000          -0.715559E-8        0.512016E-7
        7.640000          -0.690398E-8        0.504221E-7
        7.650000          -0.666484E-8        0.496664E-7
        7.660000          -0.643724E-8        0.489359E-7
        7.670000          -0.622058E-8        0.482254E-7
        7.680000          -0.601411E-8        0.475386E-7
        7.690000          -0.581726E-8        0.468725E-7
        7.700000          -0.562940E-8        0.462261E-7
        7.710000          -0.545002E-8        0.455995E-7
        7.720000          -0.527865E-8        0.449912E-7
        7.730000          -0.511482E-8        0.444004E-7
        7.740000          -0.495811E-8        0.438265E-7
        7.750000          -0.480806E-8        0.432691E-7
        7.760000          -0.466443E-8        0.427285E-7
        7.770000          -0.452675E-8        0.422012E-7
        7.780000          -0.439474E-8        0.416891E-7
        7.789999          -0.426807E-8        0.411917E-7
        7.800000          -0.414655E-8        0.407075E-7
        7.809999          -0.402979E-8        0.402363E-7
        7.820000          -0.391765E-8        0.397771E-7
        7.829999          -0.380988E-8        0.393305E-7
        7.840000          -0.370618E-8        0.388962E-7
        7.849999          -0.360644E-8        0.384718E-7
        7.860000          -0.351039E-8        0.380597E-7
        7.870000          -0.341787E-8        0.376568E-7
        7.880000          -0.332874E-8        0.372657E-7
        7.890000          -0.324282E-8        0.368817E-7
        7.900000          -0.316002E-8        0.365097E-7
        7.910000          -0.308008E-8        0.361473E-7
        7.920000          -0.300291E-8        0.357929E-7
        7.930000          -0.292846E-8        0.354471E-7
        7.940000          -0.285647E-8        0.351098E-7
        7.950000          -0.278697E-8        0.347818E-7
        7.960000          -0.271978E-8        0.344604E-7
        7.970000          -0.265477E-8        0.341474E-7
        7.980000          -0.259195E-8        0.338403E-7
        7.990000          -0.253107E-8        0.335415E-7
        8.000000          -0.247221E-8        0.332500E-7
        8.010000          -0.241515E-8        0.329653E-7
        8.020000          -0.235991E-8        0.326862E-7
        8.030000          -0.230636E-8        0.324141E-7
        8.040000          -0.225444E-8        0.321488E-7
        8.050000          -0.220409E-8        0.318890E-7
        8.059999          -0.215524E-8        0.316355E-7
        8.070000          -0.210784E-8        0.313875E-7
        8.080000          -0.206184E-8        0.311450E-7
        8.090000          -0.201717E-8        0.309081E-7
        8.099999          -0.197379E-8        0.306762E-7
        8.110000          -0.193163E-8        0.304502E-7
        8.120000          -0.189065E-8        0.302295E-7
        8.130000          -0.185079E-8        0.300136E-7
        8.139999          -0.181205E-8        0.298017E-7
        8.150000          -0.177432E-8        0.295952E-7
        8.160000          -0.173771E-8        0.293928E-7
        8.170000          -0.170196E-8        0.291946E-7
        8.179999          -0.166719E-8        0.290013E-7
        8.190000          -0.163333E-8        0.288117E-7
        8.200000          -0.160035E-8        0.286264E-7
        8.209999          -0.156817E-8        0.284462E-7
        8.219999          -0.153685E-8        0.282692E-7
        8.230000          -0.150630E-8        0.280960E-7
        8.240001          -0.147650E-8        0.279264E-7
        8.250000          -0.144742E-8        0.277614E-7
        8.260000          -0.141903E-8        0.275996E-7
        8.270000          -0.139133E-8        0.274409E-7
        8.280000          -0.136426E-8        0.272860E-7
        8.290000          -0.133787E-8        0.271348E-7
        8.300000          -0.131206E-8        0.269866E-7
        8.310000          -0.128682E-8        0.268422E-7
        8.320000          -0.126213E-8        0.267006E-7
        8.330000          -0.123803E-8        0.265620E-7
        8.340000          -0.121447E-8        0.264267E-7
        8.350000          -0.119142E-8        0.262941E-7
        8.360000          -0.116881E-8        0.261641E-7
        8.370000          -0.114672E-8        0.260379E-7
        8.380000          -0.112507E-8        0.259140E-7
        8.390000          -0.110389E-8        0.257943E-7
        8.400000          -0.108312E-8        0.256754E-7
        8.410000          -0.106276E-8        0.255610E-7
        8.420000          -0.104287E-8        0.254482E-7
        8.430000          -0.102329E-8        0.253383E-7
        8.440000          -0.100410E-8        0.252306E-7
        8.450000          -0.98532E-09        0.251256E-7
        8.460000          -0.96686E-09        0.250233E-7
        8.469999          -0.94871E-09        0.249235E-7
        8.480000          -0.93095E-09        0.248264E-7
        8.490000          -0.91351E-09        0.247307E-7
        8.500000          -0.89634E-09        0.246386E-7
        8.509999          -0.87948E-09        0.245480E-7
        8.520000          -0.86290E-09        0.244592E-7
        8.530000          -0.84662E-09        0.243734E-7
        8.540000          -0.83059E-09        0.242892E-7
        8.549999          -0.81485E-09        0.242082E-7
        8.559999          -0.79934E-09        0.241278E-7
        8.570000          -0.78408E-09        0.240507E-7
        8.580000          -0.76904E-09        0.239757E-7
        8.589999          -0.75426E-09        0.239016E-7
        8.600000          -0.73967E-09        0.238312E-7
        8.610001          -0.72531E-09        0.237621E-7
        8.620000          -0.71118E-09        0.236944E-7
        8.630000          -0.69722E-09        0.236292E-7
        8.640000          -0.68344E-09        0.235644E-7
        8.650001          -0.66987E-09        0.235037E-7
        8.660000          -0.65646E-09        0.234444E-7
        8.670000          -0.64326E-09        0.233862E-7
        8.680000          -0.63021E-09        0.233299E-7
        8.690001          -0.61731E-09        0.232757E-7
        8.700000          -0.60456E-09        0.232250E-7
        8.710000          -0.59199E-09        0.231733E-7
        8.720000          -0.57951E-09        0.231250E-7
        8.730000          -0.56724E-09        0.230767E-7
        8.740000          -0.55506E-09        0.230332E-7
        8.750000          -0.54302E-09        0.229885E-7
        8.760000          -0.53108E-09        0.229470E-7
        8.770000          -0.51929E-09        0.229064E-7
        8.780000          -0.50762E-09        0.228675E-7
        8.790000          -0.49604E-09        0.228313E-7
        8.800000          -0.48457E-09        0.227960E-7
        8.809999          -0.47320E-09        0.227629E-7
        8.820000          -0.46192E-09        0.227289E-7
        8.830000          -0.45076E-09        0.226999E-7
        8.840000          -0.43969E-09        0.226722E-7
        8.849999          -0.42869E-09        0.226433E-7
        8.860000          -0.41776E-09        0.226173E-7
        8.870000          -0.40691E-09        0.225938E-7
        8.880000          -0.39611E-09        0.225710E-7
        8.889999          -0.38543E-09        0.225492E-7
        8.900000          -0.37481E-09        0.225308E-7
        8.910000          -0.36424E-09        0.225116E-7
        8.919999          -0.35370E-09        0.224946E-7
        8.929999          -0.34324E-09        0.224798E-7
        8.940000          -0.33283E-09        0.224674E-7
        8.950000          -0.32247E-09        0.224538E-7
        8.959999          -0.31215E-09        0.224440E-7
        8.970000          -0.30185E-09        0.224353E-7
        8.980000          -0.29162E-09        0.224272E-7
        8.990000          -0.28140E-09        0.224200E-7
        9.000000          -0.27126E-09        0.224162E-7
        9.010000          -0.26112E-09        0.224137E-7
        9.020000          -0.25099E-09        0.224114E-7
        9.030000          -0.24090E-09        0.224108E-7
        9.040000          -0.23081E-09        0.224120E-7
        9.050000          -0.22073E-09        0.224129E-7
        9.060000          -0.21071E-09        0.224184E-7
        9.070000          -0.20067E-09        0.224224E-7
        9.080000          -0.19064E-09        0.224307E-7
        9.090000          -0.18060E-09        0.224379E-7
        9.100000          -0.17059E-09        0.224479E-7
        9.110000          -0.16057E-09        0.224594E-7
        9.120000          -0.15052E-09        0.224717E-7
        9.130000          -0.14048E-09        0.224857E-7
        9.140000          -0.13044E-09        0.224998E-7
        9.150000          -0.12038E-09        0.225178E-7
        9.160000          -0.11031E-09        0.225359E-7
        9.170000          -0.10023E-09        0.225550E-7
        9.179999          -0.90133E-10        0.225757E-7
        9.190000          -0.79958E-10        0.225975E-7
        9.200000          -0.69820E-10        0.226218E-7
        9.210000          -0.59638E-10        0.226476E-7
        9.219999          -0.49419E-10        0.226746E-7
        9.230000          -0.39170E-10        0.227016E-7
        9.240000          -0.28852E-10        0.227309E-7
        9.250000          -0.18540E-10        0.227615E-7
        9.259999          -0.81666E-11        0.227950E-7
        9.270000           0.22793E-11        0.228278E-7
        9.280000           0.12767E-10        0.228639E-7
        9.290000           0.23290E-10        0.229006E-7
        9.299999           0.33833E-10        0.229387E-7
        9.309999           0.44471E-10        0.229790E-7
        9.320000           0.55159E-10        0.230198E-7
        9.330000           0.65909E-10        0.230633E-7
        9.340000           0.76730E-10        0.231067E-7
        9.350000           0.87650E-10        0.231519E-7
        9.360001           0.98609E-10        0.232001E-7
        9.370000           0.10965E-09        0.232481E-7
        9.380000           0.12076E-09        0.232981E-7
        9.390000           0.13198E-09        0.233482E-7
        9.400001           0.14326E-09        0.234017E-7
        9.410000           0.15465E-09        0.234566E-7
        9.420000           0.16608E-09        0.235131E-7
        9.430000           0.17764E-09        0.235699E-7
        9.440000           0.18930E-09        0.236303E-7
        9.450000           0.20105E-09        0.236900E-7
        9.460000           0.21286E-09        0.237522E-7
        9.470000           0.22485E-09        0.238175E-7
        9.480000           0.23691E-09        0.238818E-7
        9.490000           0.24908E-09        0.239493E-7
        9.500000           0.26138E-09        0.240191E-7
        9.510000           0.27379E-09        0.240907E-7
        9.520000           0.28637E-09        0.241623E-7
        9.530000           0.29900E-09        0.242339E-7
        9.540000           0.31183E-09        0.243107E-7
        9.550000           0.32476E-09        0.243861E-7
        9.559999           0.33783E-09        0.244656E-7
        9.570000           0.35103E-09        0.245463E-7
        9.580000           0.36441E-09        0.246283E-7
        9.590000           0.37790E-09        0.247126E-7
        9.599999           0.39161E-09        0.247976E-7
        9.610000           0.40539E-09        0.248863E-7
        9.620000           0.41935E-09        0.249748E-7
        9.629999           0.43353E-09        0.250672E-7
        9.639999           0.44787E-09        0.251587E-7
        9.650000           0.46240E-09        0.252535E-7
        9.660000           0.47704E-09        0.253495E-7
        9.669999           0.49191E-09        0.254480E-7
        9.679999           0.50699E-09        0.255496E-7
        9.690000           0.52227E-09        0.256509E-7
        9.700000           0.53766E-09        0.257553E-7
        9.710000           0.55335E-09        0.258618E-7
        9.720000           0.56923E-09        0.259694E-7
        9.730000           0.58531E-09        0.260794E-7
        9.740000           0.60163E-09        0.261914E-7
        9.750000           0.61817E-09        0.263059E-7
        9.760000           0.63493E-09        0.264224E-7
        9.770000           0.65194E-09        0.265403E-7
        9.780000           0.66918E-09        0.266615E-7
        9.790000           0.68670E-09        0.267825E-7
        9.800000           0.70442E-09        0.269086E-7
        9.810000           0.72246E-09        0.270354E-7
        9.820000           0.74075E-09        0.271645E-7
        9.830000           0.75929E-09        0.272953E-7
        9.840000           0.77812E-09        0.274290E-7
        9.850000           0.79730E-09        0.275655E-7
        9.860000           0.81673E-09        0.277041E-7
        9.870000           0.83645E-09        0.278447E-7
        9.880000           0.85654E-09        0.279869E-7
        9.889999           0.87690E-09        0.281331E-7
        9.900000           0.89759E-09        0.282813E-7
        9.910000           0.91868E-09        0.284309E-7
        9.920000           0.94006E-09        0.285849E-7
        9.929999           0.96175E-09        0.287393E-7
        9.940000           0.98391E-09        0.288992E-7
        9.950000           0.100635E-8        0.290594E-7
        9.960000           0.102924E-8        0.292229E-7
        9.969999           0.105245E-8        0.293882E-7
        9.980000           0.107614E-8        0.295586E-7
        9.990000           0.110021E-8        0.297298E-7
        10.00000           0.112469E-8        0.299044E-7
        10.01000           0.114961E-8        0.300825E-7
        10.02000           0.117501E-8        0.302629E-7
        10.03000           0.120082E-8        0.304452E-7
        10.04000           0.122714E-8        0.306337E-7
        10.05000           0.125388E-8        0.308226E-7
        10.06000           0.128121E-8        0.310150E-7
        10.07000           0.130896E-8        0.312107E-7
        10.08000           0.133727E-8        0.314099E-7
        10.09000           0.136614E-8        0.316122E-7
        10.10000           0.139552E-8        0.318178E-7
        10.11000           0.142546E-8        0.320281E-7
        10.12000           0.145601E-8        0.322395E-7
        10.13000           0.148716E-8        0.324560E-7
        10.14000           0.151890E-8        0.326761E-7
        10.15000           0.155128E-8        0.329001E-7
        10.16000           0.158430E-8        0.331255E-7
        10.17000           0.161804E-8        0.333584E-7
        10.18000           0.165240E-8        0.335917E-7
        10.19000           0.168747E-8        0.338305E-7
        10.20000           0.172328E-8        0.340731E-7
        10.21000           0.175984E-8        0.343197E-7
        10.22000           0.179719E-8        0.345706E-7
        10.23000           0.183528E-8        0.348260E-7
        10.24000           0.187424E-8        0.350852E-7
        10.25000           0.191398E-8        0.353479E-7
        10.26000           0.195464E-8        0.356175E-7
        10.27000           0.199617E-8        0.358879E-7
        10.28000           0.203862E-8        0.361662E-7
        10.29000           0.208199E-8        0.364493E-7
        10.30000           0.212639E-8        0.367349E-7
        10.31000           0.217173E-8        0.370271E-7
        10.32000           0.221814E-8        0.373217E-7
        10.33000           0.226565E-8        0.376254E-7
        10.34000           0.231418E-8        0.379319E-7
        10.35000           0.236396E-8        0.382459E-7
        10.36000           0.241484E-8        0.385635E-7
        10.37000           0.246700E-8        0.388861E-7
        10.38000           0.252033E-8        0.392158E-7
        10.39000           0.257502E-8        0.395503E-7
        10.40000           0.263102E-8        0.398909E-7
        10.41000           0.268843E-8        0.402393E-7
        10.42000           0.274727E-8        0.405916E-7
        10.43000           0.280761E-8        0.409499E-7
        10.44000           0.286942E-8        0.413178E-7
        10.45000           0.293287E-8        0.416912E-7
        10.46000           0.299798E-8        0.420690E-7
        10.47000           0.306481E-8        0.424565E-7
        10.48000           0.313339E-8        0.428490E-7
        10.49000           0.320380E-8        0.432517E-7
        10.50000           0.327611E-8        0.436602E-7
        10.51000           0.335037E-8        0.440771E-7
        10.52000           0.342672E-8        0.445005E-7
        10.53000           0.350515E-8        0.449332E-7
        10.54000           0.358587E-8        0.453751E-7
        10.55000           0.366882E-8        0.458227E-7
        10.56000           0.375421E-8        0.462804E-7
        10.57000           0.384204E-8        0.467477E-7
        10.58000           0.393241E-8        0.472248E-7
        10.59000           0.402558E-8        0.477101E-7
        10.60000           0.412149E-8        0.482048E-7
        10.61000           0.422033E-8        0.487093E-7
        10.62000           0.432220E-8        0.492263E-7
        10.63000           0.442733E-8        0.497520E-7
        10.64000           0.453576E-8        0.502897E-7
        10.65000           0.464755E-8        0.508373E-7
        10.66000           0.476296E-8        0.513982E-7
        10.67000           0.488221E-8        0.519700E-7
        10.68000           0.500541E-8        0.525534E-7
        10.69000           0.513280E-8        0.531495E-7
        10.70000           0.526450E-8        0.537585E-7
        10.71000           0.540060E-8        0.543813E-7
        10.72000           0.554163E-8        0.550179E-7
        10.73000           0.568761E-8        0.556691E-7
        10.74000           0.583886E-8        0.563347E-7
        10.75000           0.599560E-8        0.570151E-7
        10.76000           0.615805E-8        0.577127E-7
        10.77000           0.632669E-8        0.584243E-7
        10.78000           0.650172E-8        0.591532E-7
        10.79000           0.668364E-8        0.599029E-7
        10.80000           0.687254E-8        0.606672E-7
        10.81000           0.706898E-8        0.614507E-7
        10.82000           0.727344E-8        0.622538E-7
        10.83000           0.748633E-8        0.630758E-7
        10.84000           0.770804E-8        0.639200E-7
        10.85000           0.793931E-8        0.647861E-7
        10.86000           0.818048E-8        0.656734E-7
        10.87000           0.843225E-8        0.665833E-7
        10.88000           0.869529E-8        0.675191E-7
        10.89000           0.897029E-8        0.684807E-7
        10.90000           0.925811E-8        0.694646E-7
        10.91000           0.955951E-8        0.704806E-7
        10.92000           0.987548E-8        0.715220E-7
        10.93000           0.102068E-7        0.725941E-7
        10.94000           0.105547E-7        0.736966E-7
        10.95000           0.109204E-7        0.748324E-7
        10.96000           0.113052E-7        0.759989E-7
        10.97000           0.117102E-7        0.772029E-7
        10.98000           0.121372E-7        0.784442E-7
        10.99000           0.125879E-7        0.797221E-7
        11.00000           0.130640E-7        0.810418E-7
        11.01000           0.135677E-7        0.824028E-7
        11.02000           0.141008E-7        0.838061E-7
        11.03000           0.146664E-7        0.852579E-7
        11.04000           0.152669E-7        0.867573E-7
        11.05000           0.159053E-7        0.883115E-7
        11.06000           0.165849E-7        0.899133E-7
        11.07000           0.173097E-7        0.915765E-7
        11.08000           0.180833E-7        0.932959E-7
        11.09000           0.189111E-7        0.950778E-7
        11.10000           0.197977E-7        0.969254E-7
        11.11000           0.207497E-7        0.988423E-7
        11.12000           0.217728E-7        0.100831E-6
        11.13000           0.228746E-7        0.102898E-6
        11.14000           0.240644E-7        0.105043E-6
        11.15000           0.253506E-7        0.107269E-6
        11.16000           0.267442E-7        0.109587E-6
        11.17000           0.282577E-7        0.111995E-6
        11.18000           0.299049E-7        0.114502E-6
        11.19000           0.317019E-7        0.117101E-6
        11.20000           0.336670E-7        0.119808E-6
        11.21000           0.358210E-7        0.122620E-6
        11.22000           0.381880E-7        0.125540E-6
        11.23000           0.407955E-7        0.128570E-6
        11.24000           0.436757E-7        0.131702E-6
        11.25000           0.468654E-7        0.134942E-6
        11.26000           0.504065E-7        0.138277E-6
        11.27000           0.543477E-7        0.141700E-6
        11.28000           0.587443E-7        0.145185E-6
        11.29000           0.636611E-7        0.148704E-6
        11.30000           0.691670E-7        0.152223E-6
        11.31000           0.753439E-7        0.155682E-6
        11.32000           0.822791E-7        0.159007E-6
        11.33000           0.900620E-7        0.162085E-6
        11.34000           0.987879E-7        0.164777E-6
        11.35000           0.108539E-6        0.166889E-6
        11.36000           0.119381E-6        0.168189E-6
        11.37000           0.131337E-6        0.168369E-6
        11.38000           0.144357E-6        0.167057E-6
        11.39000           0.158288E-6        0.163824E-6
        11.40000           0.172814E-6        0.158219E-6
        11.41000           0.187431E-6        0.149813E-6
        11.42000           0.201416E-6        0.138298E-6
        11.43000           0.213850E-6        0.123594E-6
        11.44000           0.223721E-6        0.105974E-6
        11.45000           0.230079E-6        0.861202E-7
        11.46000           0.232251E-6        0.650939E-7
        11.47000           0.230017E-6        0.441782E-7
        11.48000           0.223663E-6        0.246331E-7
        11.49000           0.213901E-6        0.749214E-8
        11.50000           0.201703E-6       -0.661952E-8
        11.51000           0.188082E-6       -0.174790E-7
        11.52000           0.173933E-6       -0.251977E-7
        11.53000           0.159959E-6       -0.301043E-7
        11.54000           0.146640E-6       -0.326375E-7
        11.55000           0.134269E-6       -0.332504E-7
        11.56000           0.122985E-6       -0.323607E-7
        11.57000           0.112823E-6       -0.303331E-7
        11.58000           0.103763E-6       -0.274667E-7
        11.59000           0.957312E-7       -0.239938E-7
        11.60000           0.886433E-7       -0.200963E-7
        11.61000           0.824061E-7       -0.159101E-7
        11.62000           0.769309E-7       -0.115348E-7
        11.63000           0.721295E-7       -0.704682E-8
        11.64000           0.679266E-7       -0.249973E-8
        11.65000           0.642511E-7        0.206889E-8
        11.66000           0.610423E-7        0.664057E-8
        11.67000           0.582477E-7        0.111911E-7
        11.68000           0.558187E-7        0.157160E-7
        11.69000           0.537168E-7        0.202119E-7
        11.70000           0.519065E-7        0.246694E-7
        11.71000           0.503585E-7        0.290942E-7
        11.72000           0.490481E-7        0.334930E-7
        11.73000           0.479528E-7        0.378674E-7
        11.74000           0.470538E-7        0.422237E-7
        11.75000           0.463357E-7        0.465681E-7
        11.76000           0.457855E-7        0.509100E-7
        11.77000           0.453910E-7        0.552518E-7
        11.78000           0.451439E-7        0.596032E-7
        11.79000           0.450361E-7        0.639724E-7
        11.80000           0.450607E-7        0.683663E-7
        11.81000           0.452140E-7        0.727952E-7
        11.82000           0.454920E-7        0.772629E-7
        11.83000           0.458920E-7        0.817842E-7
        11.84000           0.464121E-7        0.863540E-7
        11.85000           0.470523E-7        0.909970E-7
        11.86000           0.478133E-7        0.957173E-7
        11.87000           0.486965E-7        0.100517E-6
        11.88000           0.497041E-7        0.105414E-6
        11.89000           0.508389E-7        0.110408E-6
        11.90000           0.521056E-7        0.115518E-6
        11.91000           0.535086E-7        0.120751E-6
        11.92000           0.550549E-7        0.126116E-6
        11.93000           0.567523E-7        0.131625E-6
        11.94000           0.586080E-7        0.137289E-6
        11.95000           0.606319E-7        0.143119E-6
        11.96000           0.628358E-7        0.149129E-6
        11.97000           0.652311E-7        0.155328E-6
        11.98000           0.678333E-7        0.161735E-6
        11.99000           0.706579E-7        0.168364E-6
        12.00000           0.737225E-7        0.175229E-6
        12.01000           0.770478E-7        0.182346E-6
        12.02000           0.806575E-7        0.189733E-6
        12.03000           0.845762E-7        0.197403E-6
        12.04000           0.888352E-7        0.205382E-6
        12.05000           0.934653E-7        0.213684E-6
        12.06000           0.985068E-7        0.222330E-6
        12.07000           0.104000E-6        0.231344E-6
        12.08000           0.109995E-6        0.240745E-6
        12.09000           0.116546E-6        0.250557E-6
        12.10000           0.123716E-6        0.260808E-6
        12.11000           0.131576E-6        0.271518E-6
        12.12000           0.140208E-6        0.282710E-6
        12.13000           0.149708E-6        0.294394E-6
        12.14000           0.160181E-6        0.306606E-6
        12.15000           0.171754E-6        0.319352E-6
        12.16000           0.184566E-6        0.332647E-6
        12.17000           0.198786E-6        0.346488E-6
        12.18000           0.214604E-6        0.360873E-6
        12.19000           0.232236E-6        0.375771E-6
        12.20000           0.251936E-6        0.391132E-6
        12.21000           0.273998E-6        0.406894E-6
        12.22000           0.298750E-6        0.422908E-6
        12.23000           0.326577E-6        0.439025E-6
        12.24000           0.357905E-6        0.454978E-6
        12.25000           0.393205E-6        0.470401E-6
        12.26000           0.433005E-6        0.484829E-6
        12.27000           0.477829E-6        0.497577E-6
        12.28000           0.528218E-6        0.507751E-6
        12.29000           0.584646E-6        0.514187E-6
        12.30000           0.647428E-6        0.515379E-6
        12.31000           0.716611E-6        0.509464E-6
        12.32000           0.791765E-6        0.494192E-6
        12.33000           0.871739E-6        0.467028E-6
        12.34000           0.954456E-6        0.425347E-6
        12.35000           0.103663E-5        0.366825E-6
        12.36000           0.111371E-5        0.290009E-6
        12.37000           0.118020E-5        0.195008E-6
        12.38000           0.123030E-5        0.840722E-7
        12.39000           0.125894E-5       -0.381684E-7
        12.40000           0.126304E-5       -0.165147E-6
        12.41000           0.124221E-5       -0.289452E-6
        12.42000           0.119894E-5       -0.404198E-6
        12.43000           0.113786E-5       -0.504241E-6
        12.44000           0.106463E-5       -0.586737E-6
        12.45000           0.984840E-6       -0.651084E-6
        12.46000           0.903262E-6       -0.698362E-6
        12.47000           0.823460E-6       -0.730679E-6
        12.48000           0.747780E-6       -0.750559E-6
        12.49000           0.677599E-6       -0.760528E-6
        12.50000           0.613516E-6       -0.762853E-6
        12.51000           0.555620E-6       -0.759477E-6
        12.52000           0.503678E-6       -0.751964E-6
        12.53000           0.457283E-6       -0.741551E-6
        12.54000           0.415936E-6       -0.729185E-6
        12.55000           0.379119E-6       -0.715584E-6
        12.56000           0.346331E-6       -0.701288E-6
        12.57000           0.317105E-6       -0.686680E-6
        12.58000           0.291013E-6       -0.672055E-6
        12.59000           0.267671E-6       -0.657608E-6
        12.60000           0.246748E-6       -0.643476E-6
        12.61000           0.227947E-6       -0.629765E-6
        12.62000           0.211009E-6       -0.616528E-6
        12.63000           0.195714E-6       -0.603805E-6
        12.64000           0.181868E-6       -0.591613E-6
        12.65000           0.169299E-6       -0.579962E-6
        12.66000           0.157861E-6       -0.568841E-6
        12.67000           0.147427E-6       -0.558251E-6
        12.68000           0.137885E-6       -0.548171E-6
        12.69000           0.129136E-6       -0.538584E-6
        12.70000           0.121098E-6       -0.529472E-6
        12.71000           0.113694E-6       -0.520815E-6
        12.72000           0.106860E-6       -0.512596E-6
        12.73000           0.100538E-6       -0.504793E-6
        12.74000           0.946768E-7       -0.497387E-6
        12.75000           0.892321E-7       -0.490357E-6
        12.76000           0.841633E-7       -0.483688E-6
        12.77000           0.794357E-7       -0.477361E-6
        12.78000           0.750167E-7       -0.471361E-6
        12.79000           0.708787E-7       -0.465671E-6
        12.80000           0.669970E-7       -0.460278E-6
        12.81000           0.633483E-7       -0.455164E-6
        12.82000           0.599126E-7       -0.450321E-6
        12.83000           0.566715E-7       -0.445732E-6
        12.84000           0.536094E-7       -0.441389E-6
        12.85000           0.507098E-7       -0.437282E-6
        12.86000           0.479613E-7       -0.433398E-6
        12.87000           0.453487E-7       -0.429732E-6
        12.88000           0.428641E-7       -0.426266E-6
        12.89000           0.404949E-7       -0.423004E-6
        12.90000           0.382327E-7       -0.419930E-6
        12.91000           0.360695E-7       -0.417041E-6
        12.92000           0.339973E-7       -0.414325E-6
        12.93000           0.320082E-7       -0.411785E-6
        12.94000           0.300955E-7       -0.409406E-6
        12.95000           0.282535E-7       -0.407183E-6
        12.96000           0.264771E-7       -0.405126E-6
        12.97000           0.247597E-7       -0.403212E-6
        12.98000           0.230977E-7       -0.401447E-6
        12.99000           0.214856E-7       -0.399820E-6
        13.00000           0.199205E-7       -0.398328E-6
        13.01000           0.183962E-7       -0.396983E-6
        13.02000           0.169108E-7       -0.395766E-6
        13.03000           0.154600E-7       -0.394672E-6
        13.04000           0.140404E-7       -0.393713E-6
        13.05000           0.126487E-7       -0.392875E-6
        13.06000           0.112824E-7       -0.392160E-6
        13.07000           0.993803E-8       -0.391569E-6
        13.08000           0.861289E-8       -0.391097E-6
        13.09000           0.730386E-8       -0.390744E-6
        13.10000           0.600941E-8       -0.390504E-6
        13.11000           0.472608E-8       -0.390388E-6
        13.12000           0.345160E-8       -0.390384E-6
        13.13000           0.218348E-8       -0.390493E-6
        13.14000           0.91936E-09       -0.390718E-6
        13.15000          -0.34214E-09       -0.391064E-6
        13.16000          -0.160588E-8       -0.391523E-6
        13.17000          -0.287205E-8       -0.392093E-6
        13.18000          -0.414379E-8       -0.392783E-6
        13.19000          -0.542323E-8       -0.393590E-6
        13.20000          -0.671354E-8       -0.394511E-6
        13.21000          -0.801666E-8       -0.395557E-6
        13.22000          -0.933456E-8       -0.396719E-6
        13.23000          -0.106708E-7       -0.398003E-6
        13.24000          -0.120269E-7       -0.399412E-6
        13.25000          -0.134076E-7       -0.400942E-6
        13.26000          -0.148132E-7       -0.402610E-6
        13.27000          -0.162489E-7       -0.404402E-6
        13.28000          -0.177161E-7       -0.406325E-6
        13.29000          -0.192201E-7       -0.408384E-6
        13.30000          -0.207631E-7       -0.410582E-6
        13.31000          -0.223486E-7       -0.412924E-6
        13.32000          -0.239811E-7       -0.415408E-6
        13.33000          -0.256634E-7       -0.418053E-6
        13.34000          -0.274024E-7       -0.420849E-6
        13.35000          -0.292004E-7       -0.423800E-6
        13.36000          -0.310631E-7       -0.426911E-6
        13.37000          -0.329963E-7       -0.430200E-6
        13.38000          -0.350067E-7       -0.433664E-6
        13.39000          -0.370989E-7       -0.437314E-6
        13.40000          -0.392793E-7       -0.441145E-6
        13.41000          -0.415579E-7       -0.445176E-6
        13.42000          -0.439396E-7       -0.449413E-6
        13.43000          -0.464353E-7       -0.453858E-6
        13.44000          -0.490527E-7       -0.458532E-6
        13.45000          -0.518019E-7       -0.463427E-6
        13.46000          -0.546971E-7       -0.468573E-6
        13.47000          -0.577469E-7       -0.473963E-6
        13.48000          -0.609671E-7       -0.479627E-6
        13.49000          -0.643725E-7       -0.485563E-6
        13.50000          -0.679771E-7       -0.491778E-6
        13.51000          -0.718012E-7       -0.498317E-6
        13.52000          -0.758630E-7       -0.505160E-6
        13.53000          -0.801876E-7       -0.512340E-6
        13.54000          -0.847979E-7       -0.519879E-6
        13.55000          -0.897185E-7       -0.527783E-6
        13.56000          -0.949854E-7       -0.536087E-6
        13.57000          -0.100628E-6       -0.544790E-6
        13.58000          -0.106689E-6       -0.553936E-6
        13.59000          -0.113207E-6       -0.563537E-6
        13.60000          -0.120230E-6       -0.573615E-6
        13.61000          -0.127818E-6       -0.584208E-6
        13.62000          -0.136031E-6       -0.595325E-6
        13.63000          -0.144935E-6       -0.607008E-6
        13.64000          -0.154614E-6       -0.619282E-6
        13.65000          -0.165152E-6       -0.632179E-6
        13.66000          -0.176663E-6       -0.645709E-6
        13.67000          -0.189252E-6       -0.659910E-6
        13.68000          -0.203068E-6       -0.674813E-6
        13.69000          -0.218253E-6       -0.690434E-6
        13.70000          -0.235003E-6       -0.706768E-6
        13.71000          -0.253493E-6       -0.723833E-6
        13.72000          -0.274002E-6       -0.741622E-6
        13.73000          -0.296767E-6       -0.760116E-6
        13.74000          -0.322128E-6       -0.779226E-6
        13.75000          -0.350423E-6       -0.798891E-6
        13.76000          -0.382086E-6       -0.818955E-6
        13.77000          -0.417566E-6       -0.839194E-6
        13.78000          -0.457438E-6       -0.859325E-6
        13.79000          -0.502254E-6       -0.878943E-6
        13.80000          -0.552685E-6       -0.897395E-6
        13.81000          -0.609406E-6       -0.913950E-6
        13.82000          -0.673140E-6       -0.927520E-6
        13.83000          -0.744470E-6       -0.936697E-6
        13.84000          -0.823905E-6       -0.939628E-6
        13.85000          -0.911599E-6       -0.934115E-6
        13.86000          -0.100721E-5       -0.917278E-6
        13.87000          -0.110952E-5       -0.886052E-6
        13.88000          -0.121618E-5       -0.836944E-6
        13.89000          -0.132346E-5       -0.766831E-6
        13.90000          -0.142587E-5       -0.673421E-6
        13.91000          -0.151654E-5       -0.556177E-6
        13.92000          -0.158805E-5       -0.417193E-6
        13.93000          -0.163334E-5       -0.261578E-6
        13.94000          -0.164746E-5       -0.972959E-7
        13.95000          -0.162891E-5        0.661970E-7
        13.96000          -0.157987E-5        0.219495E-6
        13.97000          -0.150575E-5        0.355171E-6
        13.98000          -0.141366E-5        0.468600E-6
        13.99000          -0.131107E-5        0.558245E-6
        14.00000          -0.120462E-5        0.624947E-6
        14.01000          -0.109943E-5        0.671203E-6
        14.02000          -0.999006E-6        0.700212E-6
        14.03000          -0.905472E-6        0.715363E-6
        14.04000          -0.819807E-6        0.719732E-6
        14.05000          -0.742335E-6        0.715995E-6
        14.06000          -0.672845E-6        0.706330E-6
        14.07000          -0.610786E-6        0.692487E-6
        14.08000          -0.555559E-6        0.675784E-6
        14.09000          -0.506459E-6        0.657237E-6
        14.10000          -0.462849E-6        0.637637E-6
        14.11000          -0.424079E-6        0.617485E-6
        14.12000          -0.389567E-6        0.597246E-6
        14.13000          -0.358793E-6        0.577147E-6
        14.14000          -0.331316E-6        0.557438E-6
        14.15000          -0.306729E-6        0.538198E-6
        14.16000          -0.284687E-6        0.519573E-6
        14.17000          -0.264873E-6        0.501600E-6
        14.18000          -0.247035E-6        0.484277E-6
        14.19000          -0.230943E-6        0.467634E-6
        14.20000          -0.216399E-6        0.451674E-6
        14.21000          -0.203232E-6        0.436359E-6
        14.22000          -0.191297E-6        0.421710E-6
        14.23000          -0.180462E-6        0.407648E-6
        14.24000          -0.170620E-6        0.394199E-6
        14.25000          -0.161664E-6        0.381309E-6
        14.26000          -0.153519E-6        0.368962E-6
        14.27000          -0.146116E-6        0.357122E-6
        14.28000          -0.139386E-6        0.345763E-6
        14.29000          -0.133278E-6        0.334868E-6
        14.30000          -0.127748E-6        0.324418E-6
        14.31000          -0.122759E-6        0.314366E-6
        14.32000          -0.118272E-6        0.304720E-6
        14.33000          -0.114273E-6        0.295449E-6
        14.34000          -0.110732E-6        0.286524E-6
        14.35000          -0.107642E-6        0.277989E-6
        14.36000          -0.104991E-6        0.269793E-6
        14.37000          -0.102770E-6        0.261944E-6
        14.38000          -0.100981E-6        0.254458E-6
        14.39000          -0.996214E-7        0.247373E-6
        14.40000          -0.986895E-7        0.240667E-6
        14.41000          -0.981854E-7        0.234422E-6
        14.42000          -0.980968E-7        0.228681E-6
        14.43000          -0.983959E-7        0.223503E-6
        14.44000          -0.990412E-7        0.219002E-6
        14.45000          -0.999524E-7        0.215233E-6
        14.46000          -0.101010E-6        0.212297E-6
        14.47000          -0.102048E-6        0.210262E-6
        14.48000          -0.102852E-6        0.209155E-6
        14.49000          -0.103176E-6        0.208922E-6
        14.50000          -0.102784E-6        0.209394E-6
        14.51000          -0.101489E-6        0.210359E-6
        14.52000          -0.992023E-7        0.211484E-6
        14.53000          -0.959608E-7        0.212464E-6
        14.54000          -0.919140E-7        0.213008E-6
        14.55000          -0.872902E-7        0.212926E-6
        14.56000          -0.823437E-7        0.212150E-6
        14.57000          -0.773102E-7        0.210686E-6
        14.58000          -0.723713E-7        0.208596E-6
        14.59000          -0.676629E-7        0.206002E-6
        14.60000          -0.632585E-7        0.203017E-6
        14.61000          -0.591961E-7        0.199747E-6
        14.62000          -0.554828E-7        0.196289E-6
        14.63000          -0.521086E-7        0.192712E-6
        14.64000          -0.490492E-7        0.189099E-6
        14.65000          -0.462785E-7        0.185468E-6
        14.66000          -0.437685E-7        0.181869E-6
        14.67000          -0.414893E-7        0.178323E-6
        14.68000          -0.394165E-7        0.174846E-6
        14.69000          -0.375257E-7        0.171445E-6
        14.70000          -0.357973E-7        0.168121E-6
        14.71000          -0.342103E-7        0.164895E-6
        14.72000          -0.327500E-7        0.161749E-6
        14.73000          -0.314019E-7        0.158706E-6
        14.74000          -0.301538E-7        0.155740E-6
        14.75000          -0.289951E-7        0.152867E-6
        14.76000          -0.279158E-7        0.150073E-6
        14.77000          -0.269078E-7        0.147366E-6
        14.78000          -0.259651E-7        0.144735E-6
        14.79000          -0.250801E-7        0.142180E-6
        14.80000          -0.242489E-7        0.139697E-6
        14.81000          -0.234649E-7        0.137288E-6
        14.82000          -0.227252E-7        0.134939E-6
        14.83000          -0.220265E-7        0.132662E-6
        14.84000          -0.213637E-7        0.130449E-6
        14.85000          -0.207348E-7        0.128290E-6
        14.86000          -0.201376E-7        0.126188E-6
        14.87000          -0.195689E-7        0.124144E-6
        14.88000          -0.190270E-7        0.122153E-6
        14.89000          -0.185106E-7        0.120211E-6
        14.90000          -0.180170E-7        0.118310E-6
        14.91000          -0.175455E-7        0.116465E-6
        14.92000          -0.170935E-7        0.114662E-6
        14.93000          -0.166606E-7        0.112903E-6
        14.94000          -0.162458E-7        0.111187E-6
        14.95000          -0.158471E-7        0.109506E-6
        14.96000          -0.154646E-7        0.107866E-6
        14.97000          -0.150969E-7        0.106269E-6
        14.98000          -0.147427E-7        0.104700E-6
        14.99000          -0.144022E-7        0.103170E-6
        15.00000          -0.140740E-7        0.101668E-6
        15.01000          -0.137574E-7        0.100200E-6
        15.02000          -0.134523E-7        0.987656E-7
        15.03000          -0.131578E-7        0.973631E-7
        15.04000          -0.128735E-7        0.959896E-7
        15.05000          -0.125987E-7        0.946432E-7
        15.06000          -0.123332E-7        0.933198E-7
        15.07000          -0.120764E-7        0.920301E-7
        15.08000          -0.118278E-7        0.907613E-7
        15.09000          -0.115873E-7        0.895171E-7
        15.10000          -0.113546E-7        0.882971E-7
        15.11000          -0.111288E-7        0.871008E-7
        15.12000          -0.109104E-7        0.859270E-7
        15.13000          -0.106985E-7        0.847763E-7
        15.14000          -0.104931E-7        0.836469E-7
        15.15000          -0.102938E-7        0.825378E-7
        15.16000          -0.101005E-7        0.814497E-7
        15.17000          -0.991241E-8        0.803787E-7
        15.18000          -0.973026E-8        0.793283E-7
        15.19000          -0.955323E-8        0.782960E-7
        15.20000          -0.938095E-8        0.772796E-7
        15.21000          -0.921388E-8        0.762834E-7
        15.22000          -0.905126E-8        0.753040E-7
        15.23000          -0.889333E-8        0.743410E-7
        15.24000          -0.873948E-8        0.733939E-7
        15.25000          -0.858992E-8        0.724623E-7
        15.26000          -0.844453E-8        0.715433E-7
        15.27000          -0.830307E-8        0.706412E-7
        15.28000          -0.816519E-8        0.697524E-7
        15.29000          -0.803113E-8        0.688775E-7
        15.30000          -0.790028E-8        0.680168E-7
        15.31000          -0.777300E-8        0.671717E-7
        15.32000          -0.764903E-8        0.663402E-7
        15.33000          -0.752815E-8        0.655164E-7
        15.34000          -0.741065E-8        0.647088E-7
        15.35000          -0.729596E-8        0.639127E-7
        15.36000          -0.718400E-8        0.631264E-7
        15.37000          -0.707481E-8        0.623512E-7
        15.38000          -0.696848E-8        0.615900E-7
        15.39000          -0.686505E-8        0.608389E-7
        15.40000          -0.676353E-8        0.600986E-7
        15.41000          -0.666494E-8        0.593674E-7
        15.42000          -0.656865E-8        0.586461E-7
        15.43000          -0.647463E-8        0.579354E-7
        15.44000          -0.638303E-8        0.572371E-7
        15.45000          -0.629347E-8        0.565427E-7
        15.46000          -0.620621E-8        0.558604E-7
        15.47000          -0.612097E-8        0.551864E-7
        15.48000          -0.603774E-8        0.545222E-7
        15.49000          -0.595654E-8        0.538669E-7
        15.50000          -0.587721E-8        0.532181E-7
        15.51000          -0.579965E-8        0.525778E-7
        15.52000          -0.572388E-8        0.519485E-7
        15.53000          -0.565013E-8        0.513240E-7
        15.54000          -0.557781E-8        0.507087E-7
        15.55000          -0.550727E-8        0.500975E-7
        15.56000          -0.543837E-8        0.494965E-7
        15.57000          -0.537091E-8        0.489019E-7
        15.58000          -0.530535E-8        0.483131E-7
        15.59000          -0.524107E-8        0.477354E-7
        15.60000          -0.517836E-8        0.471616E-7
        15.61000          -0.511704E-8        0.465962E-7
        15.62000          -0.505712E-8        0.460322E-7
        15.63000          -0.499857E-8        0.454777E-7
        15.64000          -0.494134E-8        0.449309E-7
        15.65000          -0.488547E-8        0.443863E-7
        15.66000          -0.483083E-8        0.438498E-7
        15.67000          -0.477744E-8        0.433197E-7
        15.68000          -0.472539E-8        0.427939E-7
        15.69000          -0.467421E-8        0.422723E-7
        15.70000          -0.462453E-8        0.417603E-7
        15.71000          -0.457582E-8        0.412520E-7
        15.72000          -0.452839E-8        0.407427E-7
        15.73000          -0.448200E-8        0.402444E-7
        15.74000          -0.443659E-8        0.397499E-7
        15.75000          -0.439239E-8        0.392608E-7
        15.76000          -0.434914E-8        0.387758E-7
        15.77000          -0.430692E-8        0.382929E-7
        15.78000          -0.426569E-8        0.378185E-7
        15.79000          -0.422537E-8        0.373463E-7
        15.80000          -0.418605E-8        0.368788E-7
        15.81000          -0.414754E-8        0.364142E-7
        15.82000          -0.411000E-8        0.359529E-7
        15.83000          -0.407346E-8        0.354989E-7
        15.84000          -0.403772E-8        0.350444E-7
        15.85000          -0.400290E-8        0.345971E-7
        15.86000          -0.396901E-8        0.341511E-7
        15.87000          -0.393564E-8        0.337116E-7
        15.88000          -0.390332E-8        0.332746E-7
        15.89000          -0.387184E-8        0.328410E-7
        15.90000          -0.384116E-8        0.324120E-7
        15.91000          -0.381116E-8        0.319843E-7
        15.92000          -0.378195E-8        0.315587E-7
        15.93000          -0.375361E-8        0.311389E-7
        15.94000          -0.372595E-8        0.307185E-7
        15.95000          -0.369899E-8        0.303064E-7
        15.96000          -0.367288E-8        0.298948E-7
        15.97000          -0.364734E-8        0.294834E-7
        15.98000          -0.362254E-8        0.290783E-7
        15.99000          -0.359845E-8        0.286742E-7
        16.00000          -0.357499E-8        0.282729E-7
        16.01000          -0.355238E-8        0.278727E-7
        16.02000          -0.353034E-8        0.274787E-7
        16.03000          -0.350897E-8        0.270831E-7
        16.04000          -0.348827E-8        0.266911E-7
        16.05000          -0.346824E-8        0.263028E-7
        16.06000          -0.344878E-8        0.259148E-7
        16.07000          -0.343004E-8        0.255285E-7
        16.08000          -0.341187E-8        0.251465E-7
        16.09000          -0.339436E-8        0.247652E-7
        16.10000          -0.337744E-8        0.243877E-7
        16.11000          -0.336118E-8        0.240064E-7
        16.12000          -0.334555E-8        0.236326E-7
        16.13000          -0.333049E-8        0.232594E-7
        16.14000          -0.331597E-8        0.228842E-7
        16.15000          -0.330210E-8        0.225169E-7
        16.16000          -0.328887E-8        0.221460E-7
        16.17000          -0.327617E-8        0.217802E-7
        16.18000          -0.326405E-8        0.214123E-7
        16.19000          -0.325260E-8        0.210487E-7
        16.20000          -0.324172E-8        0.206854E-7
        16.21000          -0.323130E-8        0.203232E-7
        16.22000          -0.322155E-8        0.199615E-7
        16.23000          -0.321234E-8        0.196016E-7
        16.24000          -0.320378E-8        0.192421E-7
        16.25000          -0.319584E-8        0.188844E-7
        16.26000          -0.318837E-8        0.185283E-7
        16.27000          -0.318148E-8        0.181714E-7
        16.28000          -0.317526E-8        0.178167E-7
        16.29000          -0.316951E-8        0.174624E-7
        16.30000          -0.316437E-8        0.171096E-7
        16.31000          -0.315986E-8        0.167547E-7
        16.32000          -0.315596E-8        0.164028E-7
        16.33000          -0.315252E-8        0.160503E-7
        16.34000          -0.314979E-8        0.157008E-7
        16.35000          -0.314761E-8        0.153487E-7
        16.36000          -0.314600E-8        0.149969E-7
        16.37000          -0.314497E-8        0.146485E-7
        16.38000          -0.314464E-8        0.142974E-7
        16.39000          -0.314487E-8        0.139457E-7
        16.40000          -0.314564E-8        0.135973E-7
        16.41000          -0.314715E-8        0.132489E-7
        16.42000          -0.314916E-8        0.128981E-7
        16.43000          -0.315190E-8        0.125475E-7
        16.44000          -0.315524E-8        0.121975E-7
        16.45000          -0.315915E-8        0.118479E-7
        16.46000          -0.316383E-8        0.114972E-7
        16.47000          -0.316910E-8        0.111456E-7
        16.48000          -0.317508E-8        0.107959E-7
        16.49000          -0.318169E-8        0.104418E-7
        16.50000          -0.318905E-8        0.100909E-7
        16.51000          -0.319700E-8        0.973704E-8
        16.52000          -0.320567E-8        0.938345E-8
        16.53000          -0.321515E-8        0.902990E-8
        16.54000          -0.322531E-8        0.867447E-8
        16.55000          -0.323620E-8        0.831772E-8
        16.56000          -0.324793E-8        0.796114E-8
        16.57000          -0.326031E-8        0.760348E-8
        16.58000          -0.327353E-8        0.724264E-8
        16.59000          -0.328757E-8        0.688369E-8
        16.60000          -0.330244E-8        0.652186E-8
        16.61000          -0.331808E-8        0.615774E-8
        16.62000          -0.333463E-8        0.579347E-8
        16.63000          -0.335201E-8        0.542688E-8
        16.64000          -0.337034E-8        0.505996E-8
        16.65000          -0.338954E-8        0.468954E-8
        16.66000          -0.340968E-8        0.431889E-8
        16.67000          -0.343078E-8        0.394425E-8
        16.68000          -0.345287E-8        0.357126E-8
        16.69000          -0.347602E-8        0.319231E-8
        16.70000          -0.350020E-8        0.281335E-8
        16.71000          -0.352541E-8        0.243101E-8
        16.72000          -0.355176E-8        0.204712E-8
        16.73000          -0.357921E-8        0.165941E-8
        16.74000          -0.360787E-8        0.127068E-8
        16.75000          -0.363771E-8        0.87829E-09
        16.76000          -0.366874E-8        0.48585E-09
        16.77000          -0.370109E-8        0.85976E-10
        16.78000          -0.373479E-8       -0.31608E-09
        16.79000          -0.376982E-8       -0.72006E-09
        16.80000          -0.380632E-8       -0.112749E-8
        16.81000          -0.384423E-8       -0.154018E-8
        16.82000          -0.388362E-8       -0.195452E-8
        16.83000          -0.392467E-8       -0.237330E-8
        16.84000          -0.396725E-8       -0.279706E-8
        16.85000          -0.401156E-8       -0.322395E-8
        16.86000          -0.405760E-8       -0.365430E-8
        16.87000          -0.410547E-8       -0.408990E-8
        16.88000          -0.415525E-8       -0.453069E-8
        16.89000          -0.420696E-8       -0.497566E-8
        16.90000          -0.426074E-8       -0.542673E-8
        16.91000          -0.431658E-8       -0.588151E-8
        16.92000          -0.437467E-8       -0.634210E-8
        16.93000          -0.443518E-8       -0.680944E-8
        16.94000          -0.449796E-8       -0.728067E-8
        16.95000          -0.456330E-8       -0.775980E-8
        16.96000          -0.463129E-8       -0.824437E-8
        16.97000          -0.470203E-8       -0.873675E-8
        16.98000          -0.477574E-8       -0.923416E-8
        16.99000          -0.485246E-8       -0.973957E-8
        17.00000          -0.493232E-8       -0.102526E-7
        17.01000          -0.501553E-8       -0.107735E-7
        17.02000          -0.510224E-8       -0.113019E-7
        17.03000          -0.519269E-8       -0.118388E-7
        17.04000          -0.528695E-8       -0.123835E-7
        17.05000          -0.538547E-8       -0.129383E-7
        17.06000          -0.548811E-8       -0.135029E-7
        17.07000          -0.559552E-8       -0.140773E-7
        17.08000          -0.570768E-8       -0.146598E-7
        17.09000          -0.582507E-8       -0.152544E-7
        17.10000          -0.594773E-8       -0.158588E-7
        17.11000          -0.607628E-8       -0.164776E-7
        17.12000          -0.621089E-8       -0.171087E-7
        17.13000          -0.635208E-8       -0.177496E-7
        17.14000          -0.650028E-8       -0.184053E-7
        17.15000          -0.665574E-8       -0.190740E-7
        17.16000          -0.681887E-8       -0.197572E-7
        17.17000          -0.699105E-8       -0.204547E-7
        17.18000          -0.717180E-8       -0.211686E-7
        17.19000          -0.736274E-8       -0.219002E-7
        17.20000          -0.756397E-8       -0.226479E-7
        17.21000          -0.777605E-8       -0.234144E-7
        17.22000          -0.800134E-8       -0.241991E-7
        17.23000          -0.823907E-8       -0.250022E-7
        17.24000          -0.849130E-8       -0.258283E-7
        17.25000          -0.875904E-8       -0.266746E-7
        17.26000          -0.904381E-8       -0.275440E-7
        17.27000          -0.934668E-8       -0.284369E-7
        17.28000          -0.966996E-8       -0.293554E-7
        17.29000          -0.100152E-7       -0.302982E-7
        17.30000          -0.103848E-7       -0.312699E-7
        17.31000          -0.107816E-7       -0.322680E-7
        17.32000          -0.112076E-7       -0.332985E-7
        17.33000          -0.116663E-7       -0.343570E-7
        17.34000          -0.121614E-7       -0.354479E-7
        17.35000          -0.126967E-7       -0.365716E-7
        17.36000          -0.132775E-7       -0.377296E-7
        17.37000          -0.139092E-7       -0.389179E-7
        17.38000          -0.145968E-7       -0.401431E-7
        17.39000          -0.153487E-7       -0.413983E-7
        17.40000          -0.161725E-7       -0.426863E-7
        17.41000          -0.170752E-7       -0.440001E-7
        17.42000          -0.180683E-7       -0.453386E-7
        17.43000          -0.191616E-7       -0.466945E-7
        17.44000          -0.203666E-7       -0.480573E-7
        17.45000          -0.216947E-7       -0.494143E-7
        17.46000          -0.231560E-7       -0.507464E-7
        17.47000          -0.247565E-7       -0.520302E-7
        17.48000          -0.265020E-7       -0.532347E-7
        17.49000          -0.283853E-7       -0.543239E-7
        17.50000          -0.303915E-7       -0.552649E-7
        17.51000          -0.324808E-7       -0.560047E-7
        17.52000          -0.346112E-7       -0.565193E-7
        17.53000          -0.366979E-7       -0.567835E-7
        17.54000          -0.386631E-7       -0.568116E-7
        17.55000          -0.404107E-7       -0.566467E-7
        17.56000          -0.418718E-7       -0.563737E-7
        17.57000          -0.430070E-7       -0.561136E-7
        17.58000          -0.438265E-7       -0.559912E-7
        17.59000          -0.443892E-7       -0.561196E-7
        17.60000          -0.447850E-7       -0.565862E-7
        17.61000          -0.451266E-7       -0.574340E-7
        17.62000          -0.455222E-7       -0.586763E-7
        17.63000          -0.460589E-7       -0.602915E-7
        17.64000          -0.468253E-7       -0.622462E-7
        17.65000          -0.478731E-7       -0.645029E-7
        17.66000          -0.492548E-7       -0.670191E-7
        17.67000          -0.510104E-7       -0.697574E-7
        17.68000          -0.531798E-7       -0.726840E-7
        17.69000          -0.557993E-7       -0.757648E-7
        17.70000          -0.589120E-7       -0.789676E-7
        17.71000          -0.625679E-7       -0.822600E-7
        17.72000          -0.668220E-7       -0.856003E-7
        17.73000          -0.717373E-7       -0.889400E-7
        17.74000          -0.773890E-7       -0.922160E-7
        17.75000          -0.838601E-7       -0.953437E-7
        17.76000          -0.912371E-7       -0.982139E-7
        17.77000          -0.996128E-7       -0.100676E-6
        17.78000          -0.109065E-6       -0.102541E-6
        17.79000          -0.119661E-6       -0.103561E-6
        17.80000          -0.131419E-6       -0.103423E-6
        17.81000          -0.144293E-6       -0.101750E-6
        17.82000          -0.158117E-6       -0.981066E-7
        17.83000          -0.172582E-6       -0.920277E-7
        17.84000          -0.187168E-6       -0.830765E-7
        17.85000          -0.201144E-6       -0.709279E-7
        17.86000          -0.213569E-6       -0.555057E-7
        17.87000          -0.223414E-6       -0.370729E-7
        17.88000          -0.229707E-6       -0.163249E-7
        17.89000          -0.231764E-6        0.567307E-8
        17.90000          -0.229349E-6        0.276118E-7
        17.91000          -0.222742E-6        0.482115E-7
        17.92000          -0.212667E-6        0.664265E-7
        17.93000          -0.200100E-6        0.816189E-7
        17.94000          -0.186064E-6        0.935536E-7
        17.95000          -0.171472E-6        0.102335E-6
        17.96000          -0.157031E-6        0.108304E-6
        17.97000          -0.143235E-6        0.111893E-6
        17.98000          -0.130373E-6        0.113562E-6
        17.99000          -0.118597E-6        0.113739E-6
        18.00000          -0.107943E-6        0.112790E-6
        18.01000          -0.983878E-7        0.111017E-6
        18.02000          -0.898587E-7        0.108658E-6
        18.03000          -0.822747E-7        0.105899E-6
        18.04000          -0.755383E-7        0.102879E-6
        18.05000          -0.695609E-7        0.997055E-7
        18.06000          -0.642525E-7        0.964521E-7
        18.07000          -0.595364E-7        0.931766E-7
        18.08000          -0.553400E-7        0.899168E-7
        18.09000          -0.516015E-7        0.867007E-7
        18.10000          -0.482646E-7        0.835484E-7
        18.11000          -0.452826E-7        0.804698E-7
        18.12000          -0.426125E-7        0.774722E-7
        18.13000          -0.402187E-7        0.745591E-7
        18.14000          -0.380694E-7        0.717325E-7
        18.15000          -0.361375E-7        0.689904E-7
        18.16000          -0.343993E-7        0.663298E-7
        18.17000          -0.328349E-7        0.637487E-7
        18.18000          -0.314254E-7        0.612438E-7
        18.19000          -0.301563E-7        0.588103E-7
        18.20000          -0.290136E-7        0.564442E-7
        18.21000          -0.279859E-7        0.541397E-7
        18.22000          -0.270630E-7        0.518942E-7
        18.23000          -0.262356E-7        0.497025E-7
        18.24000          -0.254966E-7        0.475600E-7
        18.25000          -0.248392E-7        0.454626E-7
        18.26000          -0.242571E-7        0.434065E-7
        18.27000          -0.237457E-7        0.413866E-7
        18.28000          -0.233007E-7        0.393996E-7
        18.29000          -0.229183E-7        0.374412E-7
        18.30000          -0.225955E-7        0.355096E-7
        18.31000          -0.223296E-7        0.335976E-7
        18.32000          -0.221187E-7        0.317043E-7
        18.33000          -0.219610E-7        0.298247E-7
        18.34000          -0.218553E-7        0.279564E-7
        18.35000          -0.218008E-7        0.260950E-7
        18.36000          -0.217973E-7        0.242375E-7
        18.37000          -0.218444E-7        0.223795E-7
        18.38000          -0.219428E-7        0.205191E-7
        18.39000          -0.220931E-7        0.186520E-7
        18.40000          -0.222963E-7        0.167753E-7
        18.41000          -0.225545E-7        0.148849E-7
        18.42000          -0.228692E-7        0.129765E-7
        18.43000          -0.232432E-7        0.110475E-7
        18.44000          -0.236794E-7        0.909548E-8
        18.45000          -0.241815E-7        0.711324E-8
        18.46000          -0.247536E-7        0.509957E-8
        18.47000          -0.254007E-7        0.304947E-8
        18.48000          -0.261284E-7        0.95906E-09
        18.49000          -0.269433E-7       -0.117578E-8
        18.50000          -0.278529E-7       -0.335785E-8
        18.51000          -0.288660E-7       -0.559447E-8
        18.52000          -0.299922E-7       -0.788777E-8
        18.53000          -0.312434E-7       -0.102430E-7
        18.54000          -0.326323E-7       -0.126629E-7
        18.55000          -0.341743E-7       -0.151517E-7
        18.56000          -0.358863E-7       -0.177141E-7
        18.57000          -0.377887E-7       -0.203532E-7
        18.58000          -0.399039E-7       -0.230696E-7
        18.59000          -0.422590E-7       -0.258646E-7
        18.60000          -0.448838E-7       -0.287374E-7
        18.61000          -0.478142E-7       -0.316855E-7
        18.62000          -0.510897E-7       -0.347003E-7
        18.63000          -0.547580E-7       -0.377723E-7
        18.64000          -0.588712E-7       -0.408822E-7
        18.65000          -0.634914E-7       -0.440046E-7
        18.66000          -0.686868E-7       -0.471027E-7
        18.67000          -0.745335E-7       -0.501214E-7
        18.68000          -0.811177E-7       -0.529907E-7
        18.69000          -0.885275E-7       -0.556096E-7
        18.70000          -0.968577E-7       -0.578449E-7
        18.71000          -0.106192E-6       -0.595225E-7
        18.72000          -0.116606E-6       -0.604144E-7
        18.73000          -0.128130E-6       -0.602315E-7
        18.74000          -0.140745E-6       -0.586220E-7
        18.75000          -0.154325E-6       -0.551702E-7
        18.76000          -0.168613E-6       -0.494209E-7
        18.77000          -0.183157E-6       -0.409257E-7
        18.78000          -0.197299E-6       -0.293177E-7
        18.79000          -0.210161E-6       -0.144301E-7
        18.80000          -0.220729E-6        0.359481E-8
        18.81000          -0.227988E-6        0.241991E-7
        18.82000          -0.231135E-6        0.464230E-7
        18.83000          -0.229768E-6        0.689983E-7
        18.84000          -0.224005E-6        0.905975E-7
        18.85000          -0.214451E-6        0.110055E-6
        18.86000          -0.202039E-6        0.126581E-6
        18.87000          -0.187825E-6        0.139802E-6
        18.88000          -0.172789E-6        0.149741E-6
        18.89000          -0.157735E-6        0.156676E-6
        18.90000          -0.143228E-6        0.161044E-6
        18.91000          -0.129634E-6        0.163320E-6
        18.92000          -0.117137E-6        0.163959E-6
        18.93000          -0.105807E-6        0.163362E-6
        18.94000          -0.956260E-7        0.161861E-6
        18.95000          -0.865339E-7        0.159722E-6
        18.96000          -0.784398E-7        0.157151E-6
        18.97000          -0.712483E-7        0.154305E-6
        18.98000          -0.648589E-7        0.151299E-6
        18.99000          -0.591803E-7        0.148220E-6
        19.00000          -0.541251E-7        0.145130E-6
        19.01000          -0.496180E-7        0.142073E-6
        19.02000          -0.455894E-7        0.139079E-6
        19.03000          -0.419802E-7        0.136169E-6
        19.04000          -0.387389E-7        0.133357E-6
        19.05000          -0.358189E-7        0.130651E-6
        19.06000          -0.331819E-7        0.128055E-6
        19.07000          -0.307931E-7        0.125570E-6
        19.08000          -0.286234E-7        0.123194E-6
        19.09000          -0.266466E-7        0.120928E-6
        19.10000          -0.248408E-7        0.118768E-6
        19.11000          -0.231862E-7        0.116711E-6
        19.12000          -0.216664E-7        0.114751E-6
        19.13000          -0.202658E-7        0.112886E-6
        19.14000          -0.189719E-7        0.111113E-6
        19.15000          -0.177729E-7        0.109425E-6
        19.16000          -0.166591E-7        0.107821E-6
        19.17000          -0.156211E-7        0.106295E-6
        19.18000          -0.146513E-7        0.104847E-6
        19.19000          -0.137424E-7        0.103469E-6
        19.20000          -0.128883E-7        0.102161E-6
        19.21000          -0.120831E-7        0.100919E-6
        19.22000          -0.113220E-7        0.997412E-7
        19.23000          -0.106000E-7        0.986241E-7
        19.24000          -0.991330E-8        0.975661E-7
        19.25000          -0.925776E-8        0.965629E-7
        19.26000          -0.863008E-8        0.956160E-7
        19.27000          -0.802686E-8        0.947210E-7
        19.28000          -0.744528E-8        0.938769E-7
        19.29000          -0.688232E-8        0.930822E-7
        19.30000          -0.633552E-8        0.923359E-7
        19.31000          -0.580223E-8        0.916365E-7
        19.32000          -0.528013E-8        0.909844E-7
        19.33000          -0.476681E-8        0.903763E-7
        19.34000          -0.426011E-8        0.898130E-7
        19.35000          -0.375766E-8        0.892938E-7
        19.36000          -0.325740E-8        0.888173E-7
        19.37000          -0.275690E-8        0.883841E-7
        19.38000          -0.225404E-8        0.879938E-7
        19.39000          -0.174635E-8        0.876460E-7
        19.40000          -0.123143E-8        0.873421E-7
        19.41000          -0.70683E-09        0.870801E-7
        19.42000          -0.16969E-09        0.868623E-7
        19.43000           0.38273E-09        0.866880E-7
        19.44000           0.95370E-09        0.865575E-7
        19.45000           0.154644E-8        0.864719E-7
        19.46000           0.216484E-8        0.864324E-7
        19.47000           0.281275E-8        0.864392E-7
        19.48000           0.349490E-8        0.864941E-7
        19.49000           0.421612E-8        0.865967E-7
        19.50000           0.498225E-8        0.867492E-7
        19.51000           0.579941E-8        0.869518E-7
        19.52000           0.667498E-8        0.872062E-7
        19.53000           0.761680E-8        0.875133E-7
        19.54000           0.863447E-8        0.878731E-7
        19.55000           0.973813E-8        0.882866E-7
        19.56000           0.109403E-7        0.887546E-7
        19.57000           0.122543E-7        0.892744E-7
        19.58000           0.136965E-7        0.898447E-7
        19.59000           0.152846E-7        0.904625E-7
        19.60000           0.170401E-7        0.911228E-7
        19.61000           0.189863E-7        0.918183E-7
        19.62000           0.211511E-7        0.925357E-7
        19.63000           0.235647E-7        0.932598E-7
        19.64000           0.262624E-7        0.939686E-7
        19.65000           0.292813E-7        0.946283E-7
        19.66000           0.326635E-7        0.951974E-7
        19.67000           0.364497E-7        0.956175E-7
        19.68000           0.406817E-7        0.958127E-7
        19.69000           0.453921E-7        0.956836E-7
        19.70000           0.506021E-7        0.951029E-7
        19.71000           0.563043E-7        0.939162E-7
        19.72000           0.624533E-7        0.919384E-7
        19.73000           0.689398E-7        0.889678E-7
        19.74000           0.755775E-7        0.847969E-7
        19.75000           0.820802E-7        0.792532E-7
        19.76000           0.880656E-7        0.722475E-7
        19.77000           0.930841E-7        0.638209E-7
        19.78000           0.966749E-7        0.541998E-7
        19.79000           0.984607E-7        0.437907E-7
        19.80000           0.982349E-7        0.331501E-7
        19.81000           0.960196E-7        0.228738E-7
        19.82000           0.920609E-7        0.134992E-7
        19.83000           0.867611E-7        0.540114E-8
        19.84000           0.805899E-7       -0.123049E-8
        19.85000           0.739916E-7       -0.638361E-8
        19.86000           0.673364E-7       -0.101702E-7
        19.87000           0.608903E-7       -0.127788E-7
        19.88000           0.548276E-7       -0.144193E-7
        19.89000           0.492403E-7       -0.152969E-7
        19.90000           0.441663E-7       -0.155925E-7
        19.91000           0.396022E-7       -0.154596E-7
        19.92000           0.355242E-7       -0.150198E-7
        19.93000           0.318935E-7       -0.143675E-7
        19.94000           0.286686E-7       -0.135764E-7
        19.95000           0.258050E-7       -0.127008E-7
        19.96000           0.232619E-7       -0.117809E-7
        19.97000           0.210004E-7       -0.108455E-7
        19.98000           0.189865E-7       -0.991672E-8
        19.99000           0.171890E-7       -0.900737E-8
        20.00000           0.155814E-7       -0.812907E-8
# 
# 06/20/2023 at 00:07 yambo @ unimi-XPS-8930 [start]
# 06/20/2023 at 00:07                        [end]
#
# .-Input file  yambo.in
# | rim_cut                          # [R] Coulomb potential
# | optics                           # [R] Linear Response optical properties
# | dipoles                          # [R] Oscillator strenghts (or dipoles)
# | bse                              # [R][BSE] Bethe Salpeter Equation.
# | ElecTemp= 0.025861         eV    # Electronic Temperature
# | BoseTemp= 0.025861         eV    # Bosonic Temperature
# | DIP_Threads= 1                   # [OPENMP/X] Number of threads for dipoles
# | BS_nCPU_LinAlg_INV= 1            # [PARALLEL] CPUs for Linear Algebra (if -1 it is automatically set)
# | BS_nCPU_LinAlg_DIAGO= 1          # [PARALLEL] CPUs for Linear Algebra (if -1 it is automatically set)
# | X_Threads= 1                     # [OPENMP/X] Number of threads for response functions
# | K_Threads= 1                     # [OPENMP/BSK] Number of threads for response functions
# | RandQpts=0                       # [RIM] Number of random q-points in the BZ
# | RandGvec= 1                RL    # [RIM] Coulomb interaction RS components
# | CUTGeo= "ws xyz"                 # [CUT] Coulomb Cutoff geometry: box/cylinder/sphere/ws/slab X/Y/Z/XY..
# | % CUTBox
# |  0.000000 | 0.000000 | 0.000000 |        # [CUT] [au] Box sides
# | %
# | CUTRadius= 0.000000              # [CUT] [au] Sphere/Cylinder radius
# | CUTCylLen= 0.000000              # [CUT] [au] Cylinder length
# | CUTwsGvec= 0.700000              # [CUT] WS cutoff: number of G to be modified
# | BSKmod= "IP"                     # [BSE] IP/Hartree/HF/ALDA/SEX/BSfxc
# | BSEmod= "retarded"               # [BSE] resonant/retarded/coupling
# | Lkind= "Lbar"                    # [BSE,X] bar(default)/full
# | DipBandsALL                    # [DIP] Compute all bands range, not only valence and conduction
# | DipComputed= "R V P"             # [DIP] [default R P V; extra P2 Spin Orb]
# | DbGdQsize= 1.000000              # [X,DbGd][o/o] Percentual of the total DbGd transitions to be used
# | BSENGexx= 28671            RL    # [BSK] Exchange components
# | % BSEQptR
# |  1 | 1 |                             # [BSK] Transferred momenta range
# | %
# | % BSEBands
# |   1 | 20 |                           # [BSK] Bands range
# | %
# | % BEnRange
# |   0.00000 | 20.00000 |         eV    # [BSS] Energy range
# | %
# | % BDmRange
# |  0.100000 | 0.100000 |         eV    # [BSS] Damping range
# | %
# | BEnSteps= 2001                   # [BSS] Energy steps
# | % BLongDir
# |  1.000000 | 0.000000 | 0.000000 |        # [BSS] [cc] Electric Field versor
# | %
# | BSEprop= "abs dichr jdos"        # [BSS] Can be any among abs/jdos/kerr/magn/dich/photolum/esrt
