#                                                                     
#  ____  ____     _       ____    ____  ______      ___               
# |_  _||_  _|   / \     |_   \  /   _||_   _ \   ."   `.             
#   \ \  / /    / _ \      |   \/   |    | |_) | /  .-.  \            
#    \ \/ /    / ___ \     | |\  /| |    |  __". | |   | |            
#    _|  |_  _/ /   \ \_  _| |_\/_| |_  _| |__) |\  `-"  /            
#   |______||____| |____||_____||_____||_______/  `.___."             
#                                                                     
#                                                                     
#                                                                     
#       Version 5.0.0 Revision 19355 Hash c56584a64                   
#                 Branch is devel-magnons                             
#            MPI+OpenMP+SLEPC+HDF5_MPI_IO Build                       
#                http://www.yambo-code.org                            
#
# Absorption @ Q(1):  0.100000000E-4   0.00000000      0.00000000    [q->0 direction]
#
# [GEN] GF Energies                               : Perdew, Burke & Ernzerhof(X)+Perdew, Burke & Ernzerhof(C)
# [GEN] Wavefunctions                             : Perdew, Burke & Ernzerhof(X)+Perdew, Burke & Ernzerhof(C)
# [GEN] Green`s Function                          : Retarded
# [GEN] Gauge                                     : Length
# [GEN] [r,Vnl] included                          : yes
#
# DIP band range                                  :   1  20
# DIP band range limits                           :  20   1
# DIP e/h energy range                            :  -1.00000000     -1.00000000    [eV]
# RL vectors in the sum                           :   3695
# [r,Vnl] included                                : yes
# Bands ordered                                   : no
# Direct v evaluation                             : no
# Approach used                                   : G-space v
# Dipoles computed                                : R V P
# Wavefunctions                                   : Perdew, Burke & Ernzerhof(X)+Perdew, Burke & Ernzerhof(C)
#
#
#    Diamagnetic term
#    A [nel]
#:    -2.12611919   
#
#    E/ev[1]            EPS-Im[2]          EPS-Re[3]
#
     0.00000000         0.00000000         1.48777917   
    0.100000000E-1     0.100664263E-4      1.48777968   
    0.200000000E-1     0.201330239E-4      1.48778119   
    0.300000000E-1     0.301999641E-4      1.48778370   
    0.400000000E-1     0.402674183E-4      1.48778722   
    0.500000000E-1     0.503355576E-4      1.48779175   
    0.600000000E-1     0.604045537E-4      1.48779728   
    0.700000000E-1     0.704745778E-4      1.48780383   
    0.800000000E-1     0.805458014E-4      1.48781137   
    0.900000000E-1     0.906183961E-4      1.48781993   
    0.100000000        0.100692534E-3      1.48782949   
    0.110000000        0.110768385E-3      1.48784005   
    0.120000000        0.120846123E-3      1.48785163   
    0.130000000        0.130925920E-3      1.48786421   
    0.140000000        0.141007946E-3      1.48787780   
    0.150000000        0.151092374E-3      1.48789239   
    0.160000000        0.161179377E-3      1.48790800   
    0.170000000        0.171269126E-3      1.48792461   
    0.180000000        0.181361795E-3      1.48794223   
    0.190000000        0.191457556E-3      1.48796086   
    0.200000000        0.201556581E-3      1.48798050   
    0.210000000        0.211659045E-3      1.48800115   
    0.220000000        0.221765119E-3      1.48802281   
    0.230000000        0.231874977E-3      1.48804548   
    0.240000000        0.241988794E-3      1.48806916   
    0.250000000        0.252106742E-3      1.48809385   
    0.260000000        0.262228996E-3      1.48811955   
    0.270000000        0.272355729E-3      1.48814627   
    0.280000000        0.282487117E-3      1.48817399   
    0.290000000        0.292623334E-3      1.48820273   
    0.300000000        0.302764554E-3      1.48823248   
    0.310000000        0.312910954E-3      1.48826325   
    0.320000000        0.323062709E-3      1.48829503   
    0.330000000        0.333219994E-3      1.48832783   
    0.340000000        0.343382985E-3      1.48836164   
    0.350000000        0.353551859E-3      1.48839646   
    0.360000000        0.363726792E-3      1.48843231   
    0.370000000        0.373907962E-3      1.48846917   
    0.380000000        0.384095546E-3      1.48850705   
    0.390000000        0.394289721E-3      1.48854594   
    0.400000000        0.404490666E-3      1.48858586   
    0.410000000        0.414698558E-3      1.48862679   
    0.420000000        0.424913577E-3      1.48866875   
    0.430000000        0.435135902E-3      1.48871173   
    0.440000000        0.445365711E-3      1.48875573   
    0.450000000        0.455603186E-3      1.48880075   
    0.460000000        0.465848506E-3      1.48884680   
    0.470000000        0.476101851E-3      1.48889387   
    0.480000000        0.486363404E-3      1.48894196   
    0.490000000        0.496633346E-3      1.48899108   
    0.500000000        0.506911858E-3      1.48904123   
    0.510000000        0.517199124E-3      1.48909241   
    0.520000000        0.527495326E-3      1.48914461   
    0.530000000        0.537800647E-3      1.48919785   
    0.540000000        0.548115272E-3      1.48925211   
    0.550000000        0.558439385E-3      1.48930741   
    0.560000000        0.568773170E-3      1.48936374   
    0.570000000        0.579116814E-3      1.48942110   
    0.580000000        0.589470502E-3      1.48947949   
    0.590000000        0.599834420E-3      1.48953892   
    0.600000000        0.610208757E-3      1.48959939   
    0.610000000        0.620593699E-3      1.48966089   
    0.620000000        0.630989434E-3      1.48972344   
    0.630000000        0.641396152E-3      1.48978702   
    0.640000000        0.651814041E-3      1.48985164   
    0.650000000        0.662243293E-3      1.48991731   
    0.660000000        0.672684096E-3      1.48998401   
    0.670000000        0.683136643E-3      1.49005177   
    0.680000000        0.693601125E-3      1.49012056   
    0.690000000        0.704077735E-3      1.49019041   
    0.700000000        0.714566666E-3      1.49026130   
    0.710000000        0.725068111E-3      1.49033324   
    0.720000000        0.735582266E-3      1.49040623   
    0.730000000        0.746109326E-3      1.49048027   
    0.740000000        0.756649485E-3      1.49055536   
    0.750000000        0.767202942E-3      1.49063151   
    0.760000000        0.777769893E-3      1.49070871   
    0.770000000        0.788350537E-3      1.49078697   
    0.780000000        0.798945072E-3      1.49086629   
    0.790000000        0.809553698E-3      1.49094667   
    0.800000000        0.820176615E-3      1.49102811   
    0.810000000        0.830814024E-3      1.49111061   
    0.820000000        0.841466128E-3      1.49119417   
    0.830000000        0.852133129E-3      1.49127880   
    0.840000000        0.862815231E-3      1.49136450   
    0.850000000        0.873512638E-3      1.49145126   
    0.860000000        0.884225556E-3      1.49153910   
    0.870000000        0.894954190E-3      1.49162800   
    0.880000000        0.905698749E-3      1.49171798   
    0.890000000        0.916459439E-3      1.49180904   
    0.900000000        0.927236469E-3      1.49190116   
    0.910000000        0.938030050E-3      1.49199437   
    0.920000000        0.948840392E-3      1.49208866   
    0.930000000        0.959667707E-3      1.49218403   
    0.940000000        0.970512206E-3      1.49228048   
    0.950000000        0.981374105E-3      1.49237802   
    0.960000000        0.992253616E-3      1.49247664   
    0.970000000        0.100315096E-2      1.49257635   
    0.980000000        0.101406634E-2      1.49267715   
    0.990000000        0.102499999E-2      1.49277904   
     1.00000000        0.103595212E-2      1.49288203   
     1.01000000        0.104692295E-2      1.49298611   
     1.02000000        0.105791270E-2      1.49309128   
     1.03000000        0.106892160E-2      1.49319756   
     1.04000000        0.107994986E-2      1.49330494   
     1.05000000        0.109099772E-2      1.49341342   
     1.06000000        0.110206539E-2      1.49352301   
     1.07000000        0.111315310E-2      1.49363370   
     1.08000000        0.112426108E-2      1.49374550   
     1.09000000        0.113538956E-2      1.49385842   
     1.10000000        0.114653876E-2      1.49397244   
     1.11000000        0.115770893E-2      1.49408759   
     1.12000000        0.116890028E-2      1.49420385   
     1.13000000        0.118011307E-2      1.49432122   
     1.14000000        0.119134750E-2      1.49443972   
     1.15000000        0.120260384E-2      1.49455935   
     1.16000000        0.121388231E-2      1.49468010   
     1.17000000        0.122518314E-2      1.49480198   
     1.18000000        0.123650659E-2      1.49492498   
     1.19000000        0.124785289E-2      1.49504913   
     1.20000000        0.125922229E-2      1.49517440   
     1.21000000        0.127061502E-2      1.49530082   
     1.22000000        0.128203134E-2      1.49542837   
     1.23000000        0.129347149E-2      1.49555706   
     1.24000000        0.130493571E-2      1.49568690   
     1.25000000        0.131642427E-2      1.49581789   
     1.26000000        0.132793740E-2      1.49595002   
     1.27000000        0.133947537E-2      1.49608331   
     1.28000000        0.135103842E-2      1.49621775   
     1.29000000        0.136262681E-2      1.49635335   
     1.30000000        0.137424080E-2      1.49649011   
     1.31000000        0.138588065E-2      1.49662803   
     1.32000000        0.139754661E-2      1.49676711   
     1.33000000        0.140923895E-2      1.49690736   
     1.34000000        0.142095794E-2      1.49704878   
     1.35000000        0.143270383E-2      1.49719138   
     1.36000000        0.144447690E-2      1.49733514   
     1.37000000        0.145627740E-2      1.49748009   
     1.38000000        0.146810562E-2      1.49762621   
     1.39000000        0.147996182E-2      1.49777352   
     1.40000000        0.149184628E-2      1.49792202   
     1.41000000        0.150375928E-2      1.49807170   
     1.42000000        0.151570108E-2      1.49822258   
     1.43000000        0.152767197E-2      1.49837465   
     1.44000000        0.153967222E-2      1.49852792   
     1.45000000        0.155170213E-2      1.49868239   
     1.46000000        0.156376197E-2      1.49883806   
     1.47000000        0.157585204E-2      1.49899494   
     1.48000000        0.158797261E-2      1.49915303   
     1.49000000        0.160012398E-2      1.49931233   
     1.50000000        0.161230645E-2      1.49947285   
     1.51000000        0.162452030E-2      1.49963458   
     1.52000000        0.163676583E-2      1.49979754   
     1.53000000        0.164904334E-2      1.49996172   
     1.54000000        0.166135313E-2      1.50012714   
     1.55000000        0.167369549E-2      1.50029378   
     1.56000000        0.168607075E-2      1.50046166   
     1.57000000        0.169847919E-2      1.50063077   
     1.58000000        0.171092114E-2      1.50080113   
     1.59000000        0.172339689E-2      1.50097273   
     1.60000000        0.173590677E-2      1.50114558   
     1.61000000        0.174845109E-2      1.50131969   
     1.62000000        0.176103016E-2      1.50149504   
     1.63000000        0.177364431E-2      1.50167166   
     1.64000000        0.178629386E-2      1.50184954   
     1.65000000        0.179897912E-2      1.50202868   
     1.66000000        0.181170044E-2      1.50220909   
     1.67000000        0.182445813E-2      1.50239078   
     1.68000000        0.183725253E-2      1.50257374   
     1.69000000        0.185008397E-2      1.50275798   
     1.70000000        0.186295279E-2      1.50294351   
     1.71000000        0.187585933E-2      1.50313032   
     1.72000000        0.188880393E-2      1.50331843   
     1.73000000        0.190178693E-2      1.50350783   
     1.74000000        0.191480867E-2      1.50369853   
     1.75000000        0.192786952E-2      1.50389053   
     1.76000000        0.194096982E-2      1.50408384   
     1.77000000        0.195410992E-2      1.50427846   
     1.78000000        0.196729019E-2      1.50447440   
     1.79000000        0.198051097E-2      1.50467165   
     1.80000000        0.199377265E-2      1.50487023   
     1.81000000        0.200707557E-2      1.50507013   
     1.82000000        0.202042011E-2      1.50527137   
     1.83000000        0.203380665E-2      1.50547394   
     1.84000000        0.204723555E-2      1.50567785   
     1.85000000        0.206070719E-2      1.50588310   
     1.86000000        0.207422195E-2      1.50608970   
     1.87000000        0.208778022E-2      1.50629766   
     1.88000000        0.210138239E-2      1.50650697   
     1.89000000        0.211502884E-2      1.50671764   
     1.90000000        0.212871996E-2      1.50692968   
     1.91000000        0.214245616E-2      1.50714308   
     1.92000000        0.215623782E-2      1.50735787   
     1.93000000        0.217006536E-2      1.50757403   
     1.94000000        0.218393918E-2      1.50779157   
     1.95000000        0.219785968E-2      1.50801051   
     1.96000000        0.221182729E-2      1.50823083   
     1.97000000        0.222584242E-2      1.50845256   
     1.98000000        0.223990548E-2      1.50867568   
     1.99000000        0.225401689E-2      1.50890022   
     2.00000000        0.226817710E-2      1.50912616   
     2.01000000        0.228238652E-2      1.50935352   
     2.02000000        0.229664559E-2      1.50958231   
     2.03000000        0.231095475E-2      1.50981252   
     2.04000000        0.232531443E-2      1.51004416   
     2.05000000        0.233972509E-2      1.51027725   
     2.06000000        0.235418718E-2      1.51051177   
     2.07000000        0.236870113E-2      1.51074774   
     2.08000000        0.238326742E-2      1.51098516   
     2.09000000        0.239788650E-2      1.51122404   
     2.10000000        0.241255884E-2      1.51146439   
     2.11000000        0.242728490E-2      1.51170620   
     2.12000000        0.244206517E-2      1.51194948   
     2.13000000        0.245690010E-2      1.51219425   
     2.14000000        0.247179020E-2      1.51244050   
     2.15000000        0.248673594E-2      1.51268824   
     2.16000000        0.250173781E-2      1.51293747   
     2.17000000        0.251679631E-2      1.51318821   
     2.18000000        0.253191193E-2      1.51344045   
     2.19000000        0.254708518E-2      1.51369421   
     2.20000000        0.256231657E-2      1.51394948   
     2.21000000        0.257760661E-2      1.51420628   
     2.22000000        0.259295581E-2      1.51446461   
     2.23000000        0.260836470E-2      1.51472448   
     2.24000000        0.262383381E-2      1.51498588   
     2.25000000        0.263936366E-2      1.51524884   
     2.26000000        0.265495480E-2      1.51551335   
     2.27000000        0.267060775E-2      1.51577942   
     2.28000000        0.268632308E-2      1.51604706   
     2.29000000        0.270210134E-2      1.51631627   
     2.30000000        0.271794307E-2      1.51658706   
     2.31000000        0.273384884E-2      1.51685943   
     2.32000000        0.274981921E-2      1.51713340   
     2.33000000        0.276585477E-2      1.51740896   
     2.34000000        0.278195609E-2      1.51768613   
     2.35000000        0.279812375E-2      1.51796491   
     2.36000000        0.281435834E-2      1.51824531   
     2.37000000        0.283066046E-2      1.51852734   
     2.38000000        0.284703070E-2      1.51881099   
     2.39000000        0.286346967E-2      1.51909629   
     2.40000000        0.287997799E-2      1.51938323   
     2.41000000        0.289655628E-2      1.51967182   
     2.42000000        0.291320515E-2      1.51996207   
     2.43000000        0.292992523E-2      1.52025399   
     2.44000000        0.294671717E-2      1.52054758   
     2.45000000        0.296358161E-2      1.52084285   
     2.46000000        0.298051920E-2      1.52113981   
     2.47000000        0.299753058E-2      1.52143846   
     2.48000000        0.301461643E-2      1.52173882   
     2.49000000        0.303177741E-2      1.52204089   
     2.50000000        0.304901420E-2      1.52234467   
     2.51000000        0.306632747E-2      1.52265018   
     2.52000000        0.308371793E-2      1.52295743   
     2.53000000        0.310118626E-2      1.52326641   
     2.54000000        0.311873316E-2      1.52357714   
     2.55000000        0.313635936E-2      1.52388963   
     2.56000000        0.315406556E-2      1.52420388   
     2.57000000        0.317185248E-2      1.52451991   
     2.58000000        0.318972087E-2      1.52483771   
     2.59000000        0.320767146E-2      1.52515731   
     2.60000000        0.322570500E-2      1.52547870   
     2.61000000        0.324382225E-2      1.52580189   
     2.62000000        0.326202395E-2      1.52612690   
     2.63000000        0.328031090E-2      1.52645373   
     2.64000000        0.329868386E-2      1.52678239   
     2.65000000        0.331714363E-2      1.52711289   
     2.66000000        0.333569099E-2      1.52744524   
     2.67000000        0.335432676E-2      1.52777944   
     2.68000000        0.337305174E-2      1.52811551   
     2.69000000        0.339186676E-2      1.52845345   
     2.70000000        0.341077264E-2      1.52879328   
     2.71000000        0.342977023E-2      1.52913500   
     2.72000000        0.344886037E-2      1.52947862   
     2.73000000        0.346804391E-2      1.52982415   
     2.74000000        0.348732173E-2      1.53017160   
     2.75000000        0.350669470E-2      1.53052099   
     2.76000000        0.352616370E-2      1.53087231   
     2.77000000        0.354572963E-2      1.53122557   
     2.78000000        0.356539340E-2      1.53158080   
     2.79000000        0.358515590E-2      1.53193800   
     2.80000000        0.360501808E-2      1.53229717   
     2.81000000        0.362498086E-2      1.53265833   
     2.82000000        0.364504520E-2      1.53302149   
     2.83000000        0.366521203E-2      1.53338666   
     2.84000000        0.368548233E-2      1.53375385   
     2.85000000        0.370585708E-2      1.53412307   
     2.86000000        0.372633727E-2      1.53449432   
     2.87000000        0.374692388E-2      1.53486763   
     2.88000000        0.376761794E-2      1.53524299   
     2.89000000        0.378842045E-2      1.53562043   
     2.90000000        0.380933247E-2      1.53599995   
     2.91000000        0.383035502E-2      1.53638156   
     2.92000000        0.385148916E-2      1.53676528   
     2.93000000        0.387273597E-2      1.53715111   
     2.94000000        0.389409653E-2      1.53753907   
     2.95000000        0.391557192E-2      1.53792917   
     2.96000000        0.393716325E-2      1.53832142   
     2.97000000        0.395887164E-2      1.53871583   
     2.98000000        0.398069822E-2      1.53911241   
     2.99000000        0.400264414E-2      1.53951117   
     3.00000000        0.402471056E-2      1.53991214   
     3.01000000        0.404689864E-2      1.54031531   
     3.02000000        0.406920957E-2      1.54072070   
     3.03000000        0.409164455E-2      1.54112833   
     3.04000000        0.411420479E-2      1.54153820   
     3.05000000        0.413689152E-2      1.54195033   
     3.06000000        0.415970598E-2      1.54236473   
     3.07000000        0.418264944E-2      1.54278141   
     3.08000000        0.420572315E-2      1.54320039   
     3.09000000        0.422892842E-2      1.54362168   
     3.10000000        0.425226653E-2      1.54404530   
     3.11000000        0.427573881E-2      1.54447125   
     3.12000000        0.429934660E-2      1.54489954   
     3.13000000        0.432309125E-2      1.54533021   
     3.14000000        0.434697411E-2      1.54576325   
     3.15000000        0.437099658E-2      1.54619867   
     3.16000000        0.439516006E-2      1.54663651   
     3.17000000        0.441946596E-2      1.54707676   
     3.18000000        0.444391572E-2      1.54751945   
     3.19000000        0.446851079E-2      1.54796458   
     3.20000000        0.449325265E-2      1.54841217   
     3.21000000        0.451814278E-2      1.54886225   
     3.22000000        0.454318269E-2      1.54931481   
     3.23000000        0.456837391E-2      1.54976988   
     3.24000000        0.459371798E-2      1.55022747   
     3.25000000        0.461921647E-2      1.55068760   
     3.26000000        0.464487097E-2      1.55115028   
     3.27000000        0.467068308E-2      1.55161552   
     3.28000000        0.469665442E-2      1.55208336   
     3.29000000        0.472278665E-2      1.55255379   
     3.30000000        0.474908142E-2      1.55302683   
     3.31000000        0.477554044E-2      1.55350251   
     3.32000000        0.480216540E-2      1.55398084   
     3.33000000        0.482895805E-2      1.55446183   
     3.34000000        0.485592014E-2      1.55494551   
     3.35000000        0.488305344E-2      1.55543188   
     3.36000000        0.491035975E-2      1.55592097   
     3.37000000        0.493784091E-2      1.55641279   
     3.38000000        0.496549876E-2      1.55690736   
     3.39000000        0.499333517E-2      1.55740470   
     3.40000000        0.502135204E-2      1.55790483   
     3.41000000        0.504955130E-2      1.55840776   
     3.42000000        0.507793488E-2      1.55891352   
     3.43000000        0.510650477E-2      1.55942211   
     3.44000000        0.513526297E-2      1.55993357   
     3.45000000        0.516421150E-2      1.56044790   
     3.46000000        0.519335242E-2      1.56096513   
     3.47000000        0.522268780E-2      1.56148528   
     3.48000000        0.525221977E-2      1.56200837   
     3.49000000        0.528195045E-2      1.56253441   
     3.50000000        0.531188203E-2      1.56306342   
     3.51000000        0.534201668E-2      1.56359543   
     3.52000000        0.537235665E-2      1.56413046   
     3.53000000        0.540290419E-2      1.56466853   
     3.54000000        0.543366159E-2      1.56520965   
     3.55000000        0.546463118E-2      1.56575385   
     3.56000000        0.549581529E-2      1.56630115   
     3.57000000        0.552721633E-2      1.56685157   
     3.58000000        0.555883671E-2      1.56740514   
     3.59000000        0.559067888E-2      1.56796187   
     3.60000000        0.562274533E-2      1.56852178   
     3.61000000        0.565503859E-2      1.56908491   
     3.62000000        0.568756121E-2      1.56965127   
     3.63000000        0.572031579E-2      1.57022088   
     3.64000000        0.575330495E-2      1.57079377   
     3.65000000        0.578653137E-2      1.57136997   
     3.66000000        0.581999776E-2      1.57194949   
     3.67000000        0.585370686E-2      1.57253236   
     3.68000000        0.588766146E-2      1.57311860   
     3.69000000        0.592186439E-2      1.57370824   
     3.70000000        0.595631850E-2      1.57430130   
     3.71000000        0.599102671E-2      1.57489782   
     3.72000000        0.602599198E-2      1.57549780   
     3.73000000        0.606121729E-2      1.57610129   
     3.74000000        0.609670569E-2      1.57670830   
     3.75000000        0.613246026E-2      1.57731886   
     3.76000000        0.616848412E-2      1.57793300   
     3.77000000        0.620478046E-2      1.57855075   
     3.78000000        0.624135249E-2      1.57917213   
     3.79000000        0.627820350E-2      1.57979717   
     3.80000000        0.631533679E-2      1.58042589   
     3.81000000        0.635275574E-2      1.58105834   
     3.82000000        0.639046376E-2      1.58169452   
     3.83000000        0.642846434E-2      1.58233449   
     3.84000000        0.646676100E-2      1.58297825   
     3.85000000        0.650535731E-2      1.58362585   
     3.86000000        0.654425692E-2      1.58427731   
     3.87000000        0.658346350E-2      1.58493266   
     3.88000000        0.662298081E-2      1.58559194   
     3.89000000        0.666281266E-2      1.58625517   
     3.90000000        0.670296290E-2      1.58692238   
     3.91000000        0.674343547E-2      1.58759362   
     3.92000000        0.678423433E-2      1.58826890   
     3.93000000        0.682536356E-2      1.58894827   
     3.94000000        0.686682724E-2      1.58963176   
     3.95000000        0.690862957E-2      1.59031939   
     3.96000000        0.695077478E-2      1.59101120   
     3.97000000        0.699326718E-2      1.59170724   
     3.98000000        0.703611115E-2      1.59240752   
     3.99000000        0.707931114E-2      1.59311209   
     4.00000000        0.712287167E-2      1.59382099   
     4.01000000        0.716679734E-2      1.59453424   
     4.02000000        0.721109280E-2      1.59525189   
     4.03000000        0.725576280E-2      1.59597397   
     4.04000000        0.730081217E-2      1.59670052   
     4.05000000        0.734624579E-2      1.59743158   
     4.06000000        0.739206866E-2      1.59816719   
     4.07000000        0.743828583E-2      1.59890738   
     4.08000000        0.748490244E-2      1.59965219   
     4.09000000        0.753192372E-2      1.60040167   
     4.10000000        0.757935500E-2      1.60115585   
     4.11000000        0.762720168E-2      1.60191478   
     4.12000000        0.767546925E-2      1.60267850   
     4.13000000        0.772416330E-2      1.60344704   
     4.14000000        0.777328952E-2      1.60422046   
     4.15000000        0.782285368E-2      1.60499879   
     4.16000000        0.787286166E-2      1.60578208   
     4.17000000        0.792331945E-2      1.60657037   
     4.18000000        0.797423311E-2      1.60736372   
     4.19000000        0.802560884E-2      1.60816215   
     4.20000000        0.807745292E-2      1.60896573   
     4.21000000        0.812977177E-2      1.60977449   
     4.22000000        0.818257188E-2      1.61058848   
     4.23000000        0.823585988E-2      1.61140776   
     4.24000000        0.828964252E-2      1.61223237   
     4.25000000        0.834392665E-2      1.61306236   
     4.26000000        0.839871926E-2      1.61389778   
     4.27000000        0.845402744E-2      1.61473868   
     4.28000000        0.850985844E-2      1.61558511   
     4.29000000        0.856621961E-2      1.61643712   
     4.30000000        0.862311844E-2      1.61729478   
     4.31000000        0.868056255E-2      1.61815812   
     4.32000000        0.873855972E-2      1.61902722   
     4.33000000        0.879711784E-2      1.61990211   
     4.34000000        0.885624497E-2      1.62078286   
     4.35000000        0.891594929E-2      1.62166952   
     4.36000000        0.897623916E-2      1.62256216   
     4.37000000        0.903712307E-2      1.62346082   
     4.38000000        0.909860969E-2      1.62436558   
     4.39000000        0.916070782E-2      1.62527648   
     4.40000000        0.922342644E-2      1.62619359   
     4.41000000        0.928677472E-2      1.62711698   
     4.42000000        0.935076195E-2      1.62804670   
     4.43000000        0.941539765E-2      1.62898282   
     4.44000000        0.948069149E-2      1.62992541   
     4.45000000        0.954665332E-2      1.63087452   
     4.46000000        0.961329319E-2      1.63183023   
     4.47000000        0.968062135E-2      1.63279261   
     4.48000000        0.974864823E-2      1.63376171   
     4.49000000        0.981738446E-2      1.63473762   
     4.50000000        0.988684090E-2      1.63572040   
     4.51000000        0.995702859E-2      1.63671013   
     4.52000000        0.100279588E-1      1.63770687   
     4.53000000        0.100996430E-1      1.63871071   
     4.54000000        0.101720930E-1      1.63972171   
     4.55000000        0.102453207E-1      1.64073996   
     4.56000000        0.103193382E-1      1.64176553   
     4.57000000        0.103941580E-1      1.64279849   
     4.58000000        0.104697928E-1      1.64383894   
     4.59000000        0.105462556E-1      1.64488695   
     4.60000000        0.106235594E-1      1.64594260   
     4.61000000        0.107017178E-1      1.64700598   
     4.62000000        0.107807446E-1      1.64807717   
     4.63000000        0.108606536E-1      1.64915626   
     4.64000000        0.109414593E-1      1.65024334   
     4.65000000        0.110231762E-1      1.65133850   
     4.66000000        0.111058193E-1      1.65244182   
     4.67000000        0.111894038E-1      1.65355340   
     4.68000000        0.112739451E-1      1.65467334   
     4.69000000        0.113594591E-1      1.65580172   
     4.70000000        0.114459621E-1      1.65693865   
     4.71000000        0.115334706E-1      1.65808423   
     4.72000000        0.116220014E-1      1.65923855   
     4.73000000        0.117115719E-1      1.66040172   
     4.74000000        0.118021995E-1      1.66157383   
     4.75000000        0.118939024E-1      1.66275501   
     4.76000000        0.119866989E-1      1.66394534   
     4.77000000        0.120806077E-1      1.66514495   
     4.78000000        0.121756482E-1      1.66635394   
     4.79000000        0.122718398E-1      1.66757242   
     4.80000000        0.123692027E-1      1.66880052   
     4.81000000        0.124677574E-1      1.67003834   
     4.82000000        0.125675247E-1      1.67128600   
     4.83000000        0.126685262E-1      1.67254363   
     4.84000000        0.127707836E-1      1.67381135   
     4.85000000        0.128743195E-1      1.67508929   
     4.86000000        0.129791567E-1      1.67637756   
     4.87000000        0.130853186E-1      1.67767631   
     4.88000000        0.131928291E-1      1.67898565   
     4.89000000        0.133017129E-1      1.68030574   
     4.90000000        0.134119949E-1      1.68163670   
     4.91000000        0.135237009E-1      1.68297867   
     4.92000000        0.136368569E-1      1.68433179   
     4.93000000        0.137514901E-1      1.68569621   
     4.94000000        0.138676277E-1      1.68707208   
     4.95000000        0.139852980E-1      1.68845954   
     4.96000000        0.141045299E-1      1.68985875   
     4.97000000        0.142253527E-1      1.69126986   
     4.98000000        0.143477967E-1      1.69269303   
     4.99000000        0.144718929E-1      1.69412842   
     5.00000000        0.145976730E-1      1.69557620   
     5.01000000        0.147251693E-1      1.69703654   
     5.02000000        0.148544153E-1      1.69850960   
     5.03000000        0.149854448E-1      1.69999555   
     5.04000000        0.151182930E-1      1.70149458   
     5.05000000        0.152529954E-1      1.70300687   
     5.06000000        0.153895890E-1      1.70453260   
     5.07000000        0.155281111E-1      1.70607195   
     5.08000000        0.156686004E-1      1.70762512   
     5.09000000        0.158110965E-1      1.70919231   
     5.10000000        0.159556397E-1      1.71077372   
     5.11000000        0.161022718E-1      1.71236954   
     5.12000000        0.162510354E-1      1.71397998   
     5.13000000        0.164019741E-1      1.71560526   
     5.14000000        0.165551329E-1      1.71724560   
     5.15000000        0.167105579E-1      1.71890120   
     5.16000000        0.168682963E-1      1.72057231   
     5.17000000        0.170283966E-1      1.72225914   
     5.18000000        0.171909087E-1      1.72396193   
     5.19000000        0.173558837E-1      1.72568092   
     5.20000000        0.175233741E-1      1.72741635   
     5.21000000        0.176934339E-1      1.72916848   
     5.22000000        0.178661184E-1      1.73093756   
     5.23000000        0.180414846E-1      1.73272385   
     5.24000000        0.182195910E-1      1.73452761   
     5.25000000        0.184004976E-1      1.73634911   
     5.26000000        0.185842662E-1      1.73818864   
     5.27000000        0.187709604E-1      1.74004648   
     5.28000000        0.189606454E-1      1.74192291   
     5.29000000        0.191533883E-1      1.74381824   
     5.30000000        0.193492581E-1      1.74573276   
     5.31000000        0.195483259E-1      1.74766678   
     5.32000000        0.197506647E-1      1.74962063   
     5.33000000        0.199563497E-1      1.75159462   
     5.34000000        0.201654582E-1      1.75358909   
     5.35000000        0.203780698E-1      1.75560437   
     5.36000000        0.205942665E-1      1.75764081   
     5.37000000        0.208141327E-1      1.75969877   
     5.38000000        0.210377552E-1      1.76177860   
     5.39000000        0.212652235E-1      1.76388068   
     5.40000000        0.214966299E-1      1.76600539   
     5.41000000        0.217320694E-1      1.76815312   
     5.42000000        0.219716397E-1      1.77032427   
     5.43000000        0.222154419E-1      1.77251924   
     5.44000000        0.224635799E-1      1.77473845   
     5.45000000        0.227161611E-1      1.77698233   
     5.46000000        0.229732959E-1      1.77925132   
     5.47000000        0.232350985E-1      1.78154586   
     5.48000000        0.235016866E-1      1.78386642   
     5.49000000        0.237731817E-1      1.78621347   
     5.50000000        0.240497091E-1      1.78858749   
     5.51000000        0.243313982E-1      1.79098898   
     5.52000000        0.246183827E-1      1.79341844   
     5.53000000        0.249108005E-1      1.79587641   
     5.54000000        0.252087941E-1      1.79836340   
     5.55000000        0.255125108E-1      1.80087998   
     5.56000000        0.258221029E-1      1.80342670   
     5.57000000        0.261377275E-1      1.80600414   
     5.58000000        0.264595473E-1      1.80861289   
     5.59000000        0.267877304E-1      1.81125357   
     5.60000000        0.271224508E-1      1.81392680   
     5.61000000        0.274638883E-1      1.81663322   
     5.62000000        0.278122292E-1      1.81937349   
     5.63000000        0.281676662E-1      1.82214828   
     5.64000000        0.285303987E-1      1.82495830   
     5.65000000        0.289006333E-1      1.82780426   
     5.66000000        0.292785841E-1      1.83068689   
     5.67000000        0.296644726E-1      1.83360695   
     5.68000000        0.300585286E-1      1.83656522   
     5.69000000        0.304609902E-1      1.83956250   
     5.70000000        0.308721043E-1      1.84259960   
     5.71000000        0.312921269E-1      1.84567738   
     5.72000000        0.317213237E-1      1.84879671   
     5.73000000        0.321599702E-1      1.85195848   
     5.74000000        0.326083525E-1      1.85516362   
     5.75000000        0.330667676E-1      1.85841308   
     5.76000000        0.335355239E-1      1.86170783   
     5.77000000        0.340149418E-1      1.86504888   
     5.78000000        0.345053543E-1      1.86843728   
     5.79000000        0.350071073E-1      1.87187409   
     5.80000000        0.355205607E-1      1.87536043   
     5.81000000        0.360460887E-1      1.87889741   
     5.82000000        0.365840806E-1      1.88248623   
     5.83000000        0.371349414E-1      1.88612810   
     5.84000000        0.376990931E-1      1.88982425   
     5.85000000        0.382769747E-1      1.89357599   
     5.86000000        0.388690438E-1      1.89738465   
     5.87000000        0.394757771E-1      1.90125160   
     5.88000000        0.400976716E-1      1.90517825   
     5.89000000        0.407352455E-1      1.90916609   
     5.90000000        0.413890394E-1      1.91321662   
     5.91000000        0.420596172E-1      1.91733141   
     5.92000000        0.427475678E-1      1.92151209   
     5.93000000        0.434535060E-1      1.92576034   
     5.94000000        0.441780742E-1      1.93007787   
     5.95000000        0.449219435E-1      1.93446650   
     5.96000000        0.456858156E-1      1.93892808   
     5.97000000        0.464704245E-1      1.94346453   
     5.98000000        0.472765380E-1      1.94807785   
     5.99000000        0.481049598E-1      1.95277010   
     6.00000000        0.489565315E-1      1.95754341   
     6.01000000        0.498321346E-1      1.96240002   
     6.02000000        0.507326931E-1      1.96734221   
     6.03000000        0.516591758E-1      1.97237238   
     6.04000000        0.526125987E-1      1.97749299   
     6.05000000        0.535940282E-1      1.98270663   
     6.06000000        0.546045839E-1      1.98801595   
     6.07000000        0.556454417E-1      1.99342374   
     6.08000000        0.567178375E-1      1.99893286   
     6.09000000        0.578230706E-1      2.00454632   
     6.10000000        0.589625080E-1      2.01026722   
     6.11000000        0.601375880E-1      2.01609880   
     6.12000000        0.613498255E-1      2.02204444   
     6.13000000        0.626008166E-1      2.02810763   
     6.14000000        0.638922435E-1      2.03429203   
     6.15000000        0.652258806E-1      2.04060145   
     6.16000000        0.666036005E-1      2.04703984   
     6.17000000        0.680273804E-1      2.05361135   
     6.18000000        0.694993091E-1      2.06032028   
     6.19000000        0.710215951E-1      2.06717112   
     6.20000000        0.725965744E-1      2.07416858   
     6.21000000        0.742267193E-1      2.08131755   
     6.22000000        0.759146487E-1      2.08862316   
     6.23000000        0.776631377E-1      2.09609076   
     6.24000000        0.794751298E-1      2.10372594   
     6.25000000        0.813537482E-1      2.11153457   
     6.26000000        0.833023101E-1      2.11952277   
     6.27000000        0.853243403E-1      2.12769695   
     6.28000000        0.874235879E-1      2.13606385   
     6.29000000        0.896040424E-1      2.14463050   
     6.30000000        0.918699534E-1      2.15340429   
     6.31000000        0.942258502E-1      2.16239297   
     6.32000000        0.966765649E-1      2.17160468   
     6.33000000        0.992272559E-1      2.18104796   
     6.34000000        0.101883435         2.19073178   
     6.35000000        0.104650998         2.20066559   
     6.36000000        0.107536253         2.21085931   
     6.37000000        0.110545959         2.22132338   
     6.38000000        0.113687366         2.23206881   
     6.39000000        0.116968252         2.24310718   
     6.40000000        0.120396975         2.25445070   
     6.41000000        0.123982524         2.26611226   
     6.42000000        0.127734575         2.27810545   
     6.43000000        0.131663554         2.29044463   
     6.44000000        0.135780710         2.30314496   
     6.45000000        0.140098191         2.31622248   
     6.46000000        0.144629132         2.32969414   
     6.47000000        0.149387751         2.34357788   
     6.48000000        0.154389455         2.35789271   
     6.49000000        0.159650964         2.37265876   
     6.50000000        0.165190442         2.38789736   
     6.51000000        0.171027649         2.40363115   
     6.52000000        0.177184109         2.41988415   
     6.53000000        0.183683302         2.43668184   
     6.54000000        0.190550873         2.45405132   
     6.55000000        0.197814878         2.47202136   
     6.56000000        0.205506052         2.49062257   
     6.57000000        0.213658119         2.50988746   
     6.58000000        0.222308140         2.52985065   
     6.59000000        0.231496910         2.55054897   
     6.60000000        0.241269409         2.57202160   
     6.61000000        0.251675315         2.59431023   
     6.62000000        0.262769596         2.61745925   
     6.63000000        0.274613177         2.64151584   
     6.64000000        0.287273720         2.66653020   
     6.65000000        0.300826503         2.69255565   
     6.66000000        0.315355452         2.71964881   
     6.67000000        0.330954315         2.74786970   
     6.68000000        0.347728033         2.77728182   
     6.69000000        0.365794317         2.80795224   
     6.70000000        0.385285495         2.83995154   
     6.71000000        0.406350644         2.87335372   
     6.72000000        0.429158083         2.90823593   
     6.73000000        0.453898288         2.94467810   
     6.74000000        0.480787286         2.98276224   
     6.75000000        0.510070636         3.02257145   
     6.76000000        0.542028083         3.06418853   
     6.77000000        0.576979011         3.10769389   
     6.78000000        0.615288814         3.15316275   
     6.79000000        0.657376346         3.20066121   
     6.80000000        0.703722592         3.25024088   
     6.81000000        0.754880711         3.30193156   
     6.82000000        0.811487600         3.35573133   
     6.83000000        0.874277047         3.41159311   
     6.84000000        0.944094445         3.46940662   
     6.85000000         1.02191286         3.52897407   
     6.86000000         1.10884982         3.58997770   
     6.87000000         1.20618377         3.65193642   
     6.88000000         1.31536784         3.71414840   
     6.89000000         1.43803751         3.77561567   
     6.90000000         1.57600593         3.83494602   
     6.91000000         1.73123735         3.89022802   
     6.92000000         1.90578385         3.93887553   
     6.93000000         2.10166378         3.97744229   
     6.94000000         2.32065144         4.00141523   
     6.95000000         2.56393956         4.00501121   
     6.96000000         2.83163161         3.98102948   
     6.97000000         3.12203130         3.92085393   
     6.98000000         3.43073666         3.81475188   
     6.99000000         3.74963772         3.65266221   
     7.00000000         4.06607398         3.42565891   
     7.01000000         4.36260534         3.12814303   
     7.02000000         4.61797895         2.76048728   
     7.03000000         4.80973389         2.33136803   
     7.04000000         4.91829816         1.85862929   
     7.05000000         4.93151369         1.36767284   
     7.06000000         4.84784907        0.887312504   
     7.07000000         4.67682481        0.444360222   
     7.08000000         4.43644374        0.589649365E-1
     7.09000000         4.14883758       -0.257728063   
     7.10000000         3.83591144       -0.503304572   
     7.11000000         3.51628843       -0.682023243   
     7.12000000         3.20393025       -0.802158576   
     7.13000000         2.90810304       -0.873641611   
     7.14000000         2.63410745       -0.906395946   
     7.15000000         2.38427121       -0.909383818   
     7.16000000         2.15889604       -0.890195873   
     7.17000000         1.95702411       -0.854985935   
     7.18000000         1.77699795       -0.808589591   
     7.19000000         1.61683962       -0.754719067   
     7.20000000         1.47449110       -0.696172340   
     7.21000000         1.34795634       -0.635025632   
     7.22000000         1.23537777       -0.572797189   
     7.23000000         1.13507099       -0.510580285   
     7.24000000         1.04553421       -0.449148075   
     7.25000000        0.965443236       -0.389034656   
     7.26000000        0.893638834       -0.330596916   
     7.27000000        0.829110772       -0.274061292   
     7.28000000        0.770980964       -0.219558895   
     7.29000000        0.718487136       -0.167151780   
     7.30000000        0.670967709       -0.116852515   
     7.31000000        0.627848218       -0.686387153E-1
     7.32000000        0.588629329       -0.224638111E-1
     7.33000000        0.552876397        0.217350092E-1
     7.34000000        0.520210441        0.640309597E-1
     7.35000000        0.490300381        0.104503389   
     7.36000000        0.462856391        0.143234681   
     7.37000000        0.437624215        0.180308033   
     7.38000000        0.414380307        0.215805873   
     7.39000000        0.392927684        0.249808770   
     7.40000000        0.373092379        0.282394688   
     7.41000000        0.354720405        0.313638516   
     7.42000000        0.337675161        0.343611779   
     7.43000000        0.321835203        0.372382499   
     7.44000000        0.307092324        0.400015152   
     7.45000000        0.293349914        0.426570701   
     7.46000000        0.280521535        0.452106673   
     7.47000000        0.268529692        0.476677282   
     7.48000000        0.257304773        0.500333556   
     7.49000000        0.246784126        0.523123497   
     7.50000000        0.236911254        0.545092234   
     7.51000000        0.227635123        0.566282182   
     7.52000000        0.218909546        0.586733201   
     7.53000000        0.210692654        0.606482748   
     7.54000000        0.202946426        0.625566029   
     7.55000000        0.195636282        0.644016139   
     7.56000000        0.188730717        0.661864195   
     7.57000000        0.182200989        0.679139470   
     7.58000000        0.176020831        0.695869507   
     7.59000000        0.170166208        0.712080237   
     7.60000000        0.164615093        0.727796079   
     7.61000000        0.159347273        0.743040048   
     7.62000000        0.154344174        0.757833840   
     7.63000000        0.149588706        0.772197919   
     7.64000000        0.145065124        0.786151603   
     7.65000000        0.140758906        0.799713130   
     7.66000000        0.136656640        0.812899736   
     7.67000000        0.132745925        0.825727715   
     7.68000000        0.129015283        0.838212480   
     7.69000000        0.125454076        0.850368618   
     7.70000000        0.122052438        0.862209944   
     7.71000000        0.118801205        0.873749551   
     7.72000000        0.115691858        0.884999850   
     7.73000000        0.112716473        0.895972614   
     7.74000000        0.109867665        0.906679020   
     7.75000000        0.107138554        0.917129681   
     7.76000000        0.104522715        0.927334683   
     7.77000000        0.102014150        0.937303615   
     7.78000000        0.996072517E-1     0.947045598   
     7.79000000        0.972967731E-1     0.956569314   
     7.80000000        0.950778012E-1     0.965883030   
     7.81000000        0.929457318E-1     0.974994624   
     7.82000000        0.908962466E-1     0.983911603   
     7.83000000        0.889252923E-1     0.992641129   
     7.84000000        0.870290615E-1      1.00119004   
     7.85000000        0.852039750E-1      1.00956485   
     7.86000000        0.834466658E-1      1.01777180   
     7.87000000        0.817539644E-1      1.02581684   
     7.88000000        0.801228848E-1      1.03370566   
     7.89000000        0.785506124E-1      1.04144372   
     7.90000000        0.770344920E-1      1.04903622   
     7.91000000        0.755720177E-1      1.05648816   
     7.92000000        0.741608222E-1      1.06380431   
     7.93000000        0.727986686E-1      1.07098925   
     7.94000000        0.714834415E-1      1.07804738   
     7.95000000        0.702131392E-1      1.08498290   
     7.96000000        0.689858667E-1      1.09179985   
     7.97000000        0.677998288E-1      1.09850213   
     7.98000000        0.666533240E-1      1.10509344   
     7.99000000        0.655447388E-1      1.11157737   
     8.00000000        0.644725421E-1      1.11795736   
     8.01000000        0.634352807E-1      1.12423671   
     8.02000000        0.624315740E-1      1.13041861   
     8.03000000        0.614601102E-1      1.13650612   
     8.04000000        0.605196423E-1      1.14250217   
     8.05000000        0.596089839E-1      1.14840962   
     8.06000000        0.587270062E-1      1.15423119   
     8.07000000        0.578726343E-1      1.15996951   
     8.08000000        0.570448445E-1      1.16562714   
     8.09000000        0.562426614E-1      1.17120650   
     8.10000000        0.554651548E-1      1.17670997   
     8.11000000        0.547114380E-1      1.18213983   
     8.12000000        0.539806646E-1      1.18749827   
     8.13000000        0.532720269E-1      1.19278743   
     8.14000000        0.525847537E-1      1.19800935   
     8.15000000        0.519181083E-1      1.20316603   
     8.16000000        0.512713866E-1      1.20825937   
     8.17000000        0.506439156E-1      1.21329124   
     8.18000000        0.500350517E-1      1.21826343   
     8.19000000        0.494441792E-1      1.22317768   
     8.20000000        0.488707090E-1      1.22803567   
     8.21000000        0.483140770E-1      1.23283902   
     8.22000000        0.477737431E-1      1.23758932   
     8.23000000        0.472491900E-1      1.24228809   
     8.24000000        0.467399219E-1      1.24693681   
     8.25000000        0.462454636E-1      1.25153693   
     8.26000000        0.457653595E-1      1.25608983   
     8.27000000        0.452991727E-1      1.26059686   
     8.28000000        0.448464839E-1      1.26505934   
     8.29000000        0.444068910E-1      1.26947854   
     8.30000000        0.439800077E-1      1.27385570   
     8.31000000        0.435654634E-1      1.27819202   
     8.32000000        0.431629020E-1      1.28248866   
     8.33000000        0.427719814E-1      1.28674676   
     8.34000000        0.423923731E-1      1.29096743   
     8.35000000        0.420237613E-1      1.29515173   
     8.36000000        0.416658422E-1      1.29930072   
     8.37000000        0.413183240E-1      1.30341539   
     8.38000000        0.409809259E-1      1.30749676   
     8.39000000        0.406533779E-1      1.31154577   
     8.40000000        0.403354200E-1      1.31556337   
     8.41000000        0.400268024E-1      1.31955047   
     8.42000000        0.397272843E-1      1.32350796   
     8.43000000        0.394366341E-1      1.32743670   
     8.44000000        0.391546288E-1      1.33133756   
     8.45000000        0.388810535E-1      1.33521135   
     8.46000000        0.386157015E-1      1.33905887   
     8.47000000        0.383583736E-1      1.34288092   
     8.48000000        0.381088777E-1      1.34667827   
     8.49000000        0.378670289E-1      1.35045167   
     8.50000000        0.376326491E-1      1.35420184   
     8.51000000        0.374055666E-1      1.35792951   
     8.52000000        0.371856157E-1      1.36163537   
     8.53000000        0.369726371E-1      1.36532012   
     8.54000000        0.367664768E-1      1.36898441   
     8.55000000        0.365669868E-1      1.37262892   
     8.56000000        0.363740240E-1      1.37625428   
     8.57000000        0.361874507E-1      1.37986112   
     8.58000000        0.360071340E-1      1.38345005   
     8.59000000        0.358329458E-1      1.38702168   
     8.60000000        0.356647627E-1      1.39057660   
     8.61000000        0.355024657E-1      1.39411540   
     8.62000000        0.353459398E-1      1.39763863   
     8.63000000        0.351950744E-1      1.40114685   
     8.64000000        0.350497628E-1      1.40464062   
     8.65000000        0.349099022E-1      1.40812048   
     8.66000000        0.347753934E-1      1.41158694   
     8.67000000        0.346461409E-1      1.41504053   
     8.68000000        0.345220525E-1      1.41848176   
     8.69000000        0.344030396E-1      1.42191113   
     8.70000000        0.342890166E-1      1.42532912   
     8.71000000        0.341799012E-1      1.42873624   
     8.72000000        0.340756140E-1      1.43213294   
     8.73000000        0.339760788E-1      1.43551971   
     8.74000000        0.338812221E-1      1.43889700   
     8.75000000        0.337909730E-1      1.44226527   
     8.76000000        0.337052637E-1      1.44562496   
     8.77000000        0.336240285E-1      1.44897652   
     8.78000000        0.335472047E-1      1.45232039   
     8.79000000        0.334747318E-1      1.45565700   
     8.80000000        0.334065518E-1      1.45898676   
     8.81000000        0.333426090E-1      1.46231010   
     8.82000000        0.332828498E-1      1.46562743   
     8.83000000        0.332272231E-1      1.46893916   
     8.84000000        0.331756797E-1      1.47224569   
     8.85000000        0.331281726E-1      1.47554743   
     8.86000000        0.330846569E-1      1.47884476   
     8.87000000        0.330450896E-1      1.48213808   
     8.88000000        0.330094295E-1      1.48542777   
     8.89000000        0.329776376E-1      1.48871422   
     8.90000000        0.329496765E-1      1.49199781   
     8.91000000        0.329255108E-1      1.49527890   
     8.92000000        0.329051066E-1      1.49855788   
     8.93000000        0.328884321E-1      1.50183511   
     8.94000000        0.328754569E-1      1.50511095   
     8.95000000        0.328661524E-1      1.50838577   
     8.96000000        0.328604915E-1      1.51165994   
     8.97000000        0.328584489E-1      1.51493380   
     8.98000000        0.328600007E-1      1.51820771   
     8.99000000        0.328651246E-1      1.52148204   
     9.00000000        0.328737999E-1      1.52475711   
     9.01000000        0.328860073E-1      1.52803330   
     9.02000000        0.329017290E-1      1.53131094   
     9.03000000        0.329209486E-1      1.53459038   
     9.04000000        0.329436512E-1      1.53787196   
     9.05000000        0.329698232E-1      1.54115603   
     9.06000000        0.329994527E-1      1.54444293   
     9.07000000        0.330325287E-1      1.54773300   
     9.08000000        0.330690421E-1      1.55102657   
     9.09000000        0.331089846E-1      1.55432400   
     9.10000000        0.331523497E-1      1.55762561   
     9.11000000        0.331991319E-1      1.56093174   
     9.12000000        0.332493273E-1      1.56424273   
     9.13000000        0.333029331E-1      1.56755892   
     9.14000000        0.333599478E-1      1.57088065   
     9.15000000        0.334203713E-1      1.57420824   
     9.16000000        0.334842048E-1      1.57754204   
     9.17000000        0.335514506E-1      1.58088239   
     9.18000000        0.336221125E-1      1.58422962   
     9.19000000        0.336961955E-1      1.58758406   
     9.20000000        0.337737058E-1      1.59094606   
     9.21000000        0.338546509E-1      1.59431596   
     9.22000000        0.339390397E-1      1.59769409   
     9.23000000        0.340268822E-1      1.60108080   
     9.24000000        0.341181898E-1      1.60447643   
     9.25000000        0.342129752E-1      1.60788131   
     9.26000000        0.343112522E-1      1.61129580   
     9.27000000        0.344130362E-1      1.61472024   
     9.28000000        0.345183437E-1      1.61815498   
     9.29000000        0.346271925E-1      1.62160036   
     9.30000000        0.347396017E-1      1.62505674   
     9.31000000        0.348555920E-1      1.62852446   
     9.32000000        0.349751850E-1      1.63200389   
     9.33000000        0.350984041E-1      1.63549539   
     9.34000000        0.352252738E-1      1.63899930   
     9.35000000        0.353558200E-1      1.64251599   
     9.36000000        0.354900701E-1      1.64604583   
     9.37000000        0.356280528E-1      1.64958918   
     9.38000000        0.357697984E-1      1.65314641   
     9.39000000        0.359153384E-1      1.65671790   
     9.40000000        0.360647059E-1      1.66030402   
     9.41000000        0.362179357E-1      1.66390515   
     9.42000000        0.363750638E-1      1.66752168   
     9.43000000        0.365361280E-1      1.67115399   
     9.44000000        0.367011673E-1      1.67480246   
     9.45000000        0.368702228E-1      1.67846751   
     9.46000000        0.370433368E-1      1.68214951   
     9.47000000        0.372205536E-1      1.68584888   
     9.48000000        0.374019188E-1      1.68956603   
     9.49000000        0.375874800E-1      1.69330135   
     9.50000000        0.377772866E-1      1.69705528   
     9.51000000        0.379713896E-1      1.70082823   
     9.52000000        0.381698419E-1      1.70462062   
     9.53000000        0.383726983E-1      1.70843290   
     9.54000000        0.385800155E-1      1.71226548   
     9.55000000        0.387918522E-1      1.71611883   
     9.56000000        0.390082689E-1      1.71999338   
     9.57000000        0.392293285E-1      1.72388959   
     9.58000000        0.394550958E-1      1.72780792   
     9.59000000        0.396856376E-1      1.73174884   
     9.60000000        0.399210231E-1      1.73571281   
     9.61000000        0.401613239E-1      1.73970033   
     9.62000000        0.404066136E-1      1.74371188   
     9.63000000        0.406569684E-1      1.74774795   
     9.64000000        0.409124668E-1      1.75180904   
     9.65000000        0.411731900E-1      1.75589566   
     9.66000000        0.414392216E-1      1.76000834   
     9.67000000        0.417106481E-1      1.76414760   
     9.68000000        0.419875584E-1      1.76831397   
     9.69000000        0.422700445E-1      1.77250799   
     9.70000000        0.425582011E-1      1.77673023   
     9.71000000        0.428521259E-1      1.78098123   
     9.72000000        0.431519200E-1      1.78526158   
     9.73000000        0.434576871E-1      1.78957184   
     9.74000000        0.437695346E-1      1.79391263   
     9.75000000        0.440875731E-1      1.79828453   
     9.76000000        0.444119167E-1      1.80268815   
     9.77000000        0.447426830E-1      1.80712414   
     9.78000000        0.450799933E-1      1.81159311   
     9.79000000        0.454239729E-1      1.81609572   
     9.80000000        0.457747507E-1      1.82063262   
     9.81000000        0.461324600E-1      1.82520450   
     9.82000000        0.464972380E-1      1.82981203   
     9.83000000        0.468692265E-1      1.83445591   
     9.84000000        0.472485717E-1      1.83913686   
     9.85000000        0.476354243E-1      1.84385561   
     9.86000000        0.480299400E-1      1.84861289   
     9.87000000        0.484322794E-1      1.85340946   
     9.88000000        0.488426081E-1      1.85824610   
     9.89000000        0.492610973E-1      1.86312360   
     9.90000000        0.496879234E-1      1.86804276   
     9.91000000        0.501232689E-1      1.87300440   
     9.92000000        0.505673219E-1      1.87800937   
     9.93000000        0.510202768E-1      1.88305853   
     9.94000000        0.514823343E-1      1.88815275   
     9.95000000        0.519537017E-1      1.89329293   
     9.96000000        0.524345933E-1      1.89847998   
     9.97000000        0.529252303E-1      1.90371486   
     9.98000000        0.534258415E-1      1.90899852   
     9.99000000        0.539366633E-1      1.91433193   
     10.0000000        0.544579400E-1      1.91971612   
     10.0100000        0.549899243E-1      1.92515210   
     10.0200000        0.555328775E-1      1.93064093   
     10.0300000        0.560870697E-1      1.93618370   
     10.0400000        0.566527807E-1      1.94178149   
     10.0500000        0.572302996E-1      1.94743546   
     10.0600000        0.578199258E-1      1.95314676   
     10.0700000        0.584219692E-1      1.95891658   
     10.0800000        0.590367507E-1      1.96474613   
     10.0900000        0.596646025E-1      1.97063668   
     10.1000000        0.603058688E-1      1.97658950   
     10.1100000        0.609609061E-1      1.98260591   
     10.1200000        0.616300840E-1      1.98868726   
     10.1300000        0.623137853E-1      1.99483494   
     10.1400000        0.630124073E-1      2.00105037   
     10.1500000        0.637263617E-1      2.00733501   
     10.1600000        0.644560756E-1      2.01369037   
     10.1700000        0.652019923E-1      2.02011798   
     10.1800000        0.659645718E-1      2.02661943   
     10.1900000        0.667442915E-1      2.03319635   
     10.2000000        0.675416472E-1      2.03985042   
     10.2100000        0.683571542E-1      2.04658335   
     10.2200000        0.691913474E-1      2.05339692   
     10.2300000        0.700447830E-1      2.06029296   
     10.2400000        0.709180393E-1      2.06727334   
     10.2500000        0.718117176E-1      2.07433999   
     10.2600000        0.727264433E-1      2.08149490   
     10.2700000        0.736628673E-1      2.08874011   
     10.2800000        0.746216671E-1      2.09607775   
     10.2900000        0.756035482E-1      2.10350998   
     10.3000000        0.766092454E-1      2.11103905   
     10.3100000        0.776395243E-1      2.11866727   
     10.3200000        0.786951830E-1      2.12639703   
     10.3300000        0.797770536E-1      2.13423078   
     10.3400000        0.808860041E-1      2.14217106   
     10.3500000        0.820229400E-1      2.15022050   
     10.3600000        0.831888068E-1      2.15838180   
     10.3700000        0.843845917E-1      2.16665775   
     10.3800000        0.856113259E-1      2.17505126   
     10.3900000        0.868700871E-1      2.18356529   
     10.4000000        0.881620020E-1      2.19220295   
     10.4100000        0.894882492E-1      2.20096741   
     10.4200000        0.908500616E-1      2.20986199   
     10.4300000        0.922487300E-1      2.21889010   
     10.4400000        0.936856062E-1      2.22805528   
     10.4500000        0.951621063E-1      2.23736120   
     10.4600000        0.966797150E-1      2.24681164   
     10.4700000        0.982399889E-1      2.25641055   
     10.4800000        0.998445613E-1      2.26616199   
     10.4900000        0.101495146         2.27607021   
     10.5000000        0.103193545         2.28613958   
     10.5100000        0.104941648         2.29637466   
     10.5200000        0.106741445         2.30678017   
     10.5300000        0.108595028         2.31736102   
     10.5400000        0.110504596         2.32812232   
     10.5500000        0.112472469         2.33906935   
     10.5600000        0.114501086         2.35020764   
     10.5700000        0.116593023         2.36154290   
     10.5800000        0.118750992         2.37308112   
     10.5900000        0.120977860         2.38482850   
     10.6000000        0.123276649         2.39679150   
     10.6100000        0.125650557         2.40897686   
     10.6200000        0.128102962         2.42139161   
     10.6300000        0.130637439         2.43404308   
     10.6400000        0.133257771         2.44693889   
     10.6500000        0.135967968         2.46008704   
     10.6600000        0.138772278         2.47349586   
     10.6700000        0.141675210         2.48717404   
     10.6800000        0.144681549         2.50113068   
     10.6900000        0.147796377         2.51537529   
     10.7000000        0.151025099         2.52991784   
     10.7100000        0.154373465         2.54476874   
     10.7200000        0.157847597         2.55993890   
     10.7300000        0.161454019         2.57543976   
     10.7400000        0.165199687         2.59128331   
     10.7500000        0.169092029         2.60748213   
     10.7600000        0.173138978         2.62404942   
     10.7700000        0.177349018         2.64099904   
     10.7800000        0.181731225         2.65834556   
     10.7900000        0.186295326         2.67610430   
     10.8000000        0.191051748         2.69429135   
     10.8100000        0.196011682         2.71292369   
     10.8200000        0.201187151         2.73201915   
     10.8300000        0.206591084         2.75159656   
     10.8400000        0.212237402         2.77167575   
     10.8500000        0.218141107         2.79227765   
     10.8600000        0.224318383         2.81342433   
     10.8700000        0.230786714         2.83513915   
     10.8800000        0.237565005         2.85744674   
     10.8900000        0.244673726         2.88037319   
     10.9000000        0.252135065         2.90394606   
     10.9100000        0.259973107         2.92819458   
     10.9200000        0.268214026         2.95314966   
     10.9300000        0.276886308         2.97884409   
     10.9400000        0.286020996         3.00531263   
     10.9500000        0.295651965         3.03259216   
     10.9600000        0.305816238         3.06072182   
     10.9700000        0.316554338         3.08974318   
     10.9800000        0.327910685         3.11970038   
     10.9900000        0.339934051         3.15064036   
     11.0000000        0.352678071         3.18261298   
     11.0100000        0.366201825         3.21567127   
     11.0200000        0.380570509         3.24987162   
     11.0300000        0.395856187         3.28527396   
     11.0400000        0.412138667         3.32194203   
     11.0500000        0.429506491         3.35994353   
     11.0600000        0.448058085         3.39935041   
     11.0700000        0.467903073         3.44023899   
     11.0800000        0.489163799         3.48269018   
     11.0900000        0.511977084         3.52678960   
     11.1000000        0.536496261         3.57262770   
     11.1100000        0.562893540         3.62029971   
     11.1200000        0.591362748         3.66990559   
     11.1300000        0.622122535         3.72154972   
     11.1400000        0.655420104         3.77534046   
     11.1500000        0.691535567         3.83138936   
     11.1600000        0.730787049         3.88980997   
     11.1700000        0.773536653         3.95071614   
     11.1800000        0.820197444         4.01421954   
     11.1900000        0.871241628         4.08042625   
     11.2000000        0.927210099         4.14943194   
     11.2100000        0.988723577         4.22131535   
     11.2200000         1.05649553         4.29612934   
     11.2300000         1.13134710         4.37388870   
     11.2400000         1.21422409         4.45455376   
     11.2500000         1.30621619         4.53800817   
     11.2600000         1.40857804         4.62402910   
     11.2700000         1.52275170         4.71224728   
     11.2800000         1.65038906         4.80209363   
     11.2900000         1.79337204         4.89272841   
     11.3000000         1.95382601         4.98294787   
     11.3100000         2.13411983         5.07106237   
     11.3200000         2.33684092         5.15474006   
     11.3300000         2.56472807         5.23081061   
     11.3400000         2.82053592         5.29502766   
     11.3500000         3.10679398         5.34179730   
     11.3600000         3.42541159         5.36389776   
     11.3700000         3.77707148         5.35224725   
     11.3800000         4.16036092         5.29582705   
     11.3900000         4.57062725         5.18193467   
     11.4000000         4.99864430         4.99701119   
     11.4100000         5.42935970         4.72830883   
     11.4200000         5.84125159         4.36655039   
     11.4300000         6.20704919         3.90937616   
     11.4400000         6.49652723         3.36476157   
     11.4500000         6.68148969         2.75296474   
     11.4600000         6.74190505         2.10547734   
     11.4700000         6.67103456         1.46040060   
     11.4800000         6.47729147        0.855416706   
     11.4900000         6.18193164        0.320918736   
     11.5000000         5.81368713       -0.124233733   
     11.5100000         5.40266835       -0.473369271   
     11.5200000         4.97559996       -0.729808328   
     11.5300000         4.55328307       -0.903379475   
     11.5400000         4.15006890        -1.00703345   
     11.5500000         3.77460572        -1.05429453   
     11.5600000         3.43112191        -1.05769923   
     11.5700000         3.12074766        -1.02804751   
     11.5800000         2.84263003       -0.974197864   
     11.5900000         2.59477051       -0.903169162   
     11.6000000         2.37460473       -0.820382467   
     11.6100000         2.17937738       -0.729942437   
     11.6200000         2.00636907       -0.634905832   
     11.6300000         1.85302253       -0.537514521   
     11.6400000         1.71700400       -0.439387008   
     11.6500000         1.59622455       -0.341670602   
     11.6600000         1.48883819       -0.245159673   
     11.6700000         1.39322734       -0.150386181   
     11.6800000         1.30798238       -0.576882791E-1
     11.6900000         1.23187906        0.327380709E-1
     11.7000000         1.16385630        0.120800471   
     11.7100000         1.10299529        0.206481286   
     11.7200000         1.04850062        0.289816257   
     11.7300000        0.999683596        0.370878654   
     11.7400000        0.955947617        0.449767600   
     11.7500000        0.916775549        0.526599488   
     11.7600000        0.881718875        0.601501727   
     11.7700000        0.850388410        0.674608210   
     11.7800000        0.822446381        0.746056079   
     11.7900000        0.797599693        0.815983448   
     11.8000000        0.775594204        0.884527848   
     11.8100000        0.756209870        0.951825200   
     11.8200000        0.739256632         1.01800919   
     11.8300000        0.724570938         1.08321094   
     11.8400000        0.712012815         1.14755887   
     11.8500000        0.701463405         1.21117878   
     11.8600000        0.692822908         1.27419399   
     11.8700000        0.686008877         1.33672559   
     11.8800000        0.680954830         1.39889277   
     11.8900000        0.677609126         1.46081316   
     11.9000000        0.675934094         1.52260324   
     11.9100000        0.675905391         1.58437876   
     11.9200000        0.677511558         1.64625514   
     11.9300000        0.680753786         1.70834796   
     11.9400000        0.685645861         1.77077342   
     11.9500000        0.692214314         1.83364874   
     11.9600000        0.700498745         1.89709270   
     11.9700000        0.710552361         1.96122603   
     11.9800000        0.722442715         2.02617191   
     11.9900000        0.736252681         2.09205640   
     12.0000000        0.752081665         2.15900886   
     12.0100000        0.770047112         2.22716233   
     12.0200000        0.790286311         2.29665391   
     12.0300000        0.812958567         2.36762500   
     12.0400000        0.838247777         2.44022154   
     12.0500000        0.866365486         2.51459406   
     12.0600000        0.897554492         2.59089754   
     12.0700000        0.932093091         2.66929115   
     12.0800000        0.970300080         2.74993750   
     12.0900000         1.01254064         2.83300159   
     12.1000000         1.05923324         2.91864912   
     12.1100000         1.11085779         3.00704395   
     12.1200000         1.16796513         3.09834462   
     12.1300000         1.23118826         3.19269926   
     12.1400000         1.30125537         3.29023874   
     12.1500000         1.37900514         3.39106712   
     12.1600000         1.46540436         3.49524865   
     12.1700000         1.56156829         3.60279019   
     12.1800000         1.66878379         3.71361731   
     12.1900000         1.78853523         3.82754222   
     12.2000000         1.92253261         3.94422054   
     12.2100000         2.07274105         4.06309352   
     12.2200000         2.24140928         4.18331101   
     12.2300000         2.43109349         4.30362937   
     12.2400000         2.64466971         4.42227738   
     12.2500000         2.88532398         4.53678219   
     12.2600000         3.15650299         4.64374756   
     12.2700000         3.46179869         4.73857858   
     12.2800000         3.80472822         4.81515440   
     12.2900000         4.18835508         4.86546519   
     12.3000000         4.61468334         4.87925875   
     12.3100000         5.08374990         4.84379178   
     12.3200000         5.59235998         4.74385532   
     12.3300000         6.13248467         4.56233660   
     12.3400000         6.68950677         4.28165768   
     12.3500000         7.24078170         3.88641091   
     12.3600000         7.75532645         3.36726142   
     12.3700000         8.19565881         2.72559058   
     12.3800000         8.52252508         1.97749186   
     12.3900000         8.70218058         1.15507757   
     12.4000000         8.71426900        0.303392085   
     12.4100000         8.55722748       -0.527050754   
     12.4200000         8.24872027        -1.28976934   
     12.4300000         7.82088926        -1.95030261   
     12.4400000         7.31264939        -2.49004198   
     12.4500000         6.76214414        -2.90552735   
     12.4600000         6.20155832        -3.20473015   
     12.4700000         5.65485829        -3.40239686   
     12.4800000         5.13783490        -3.51597584   
     12.4900000         4.65942808        -3.56277757   
     12.5000000         4.22347123        -3.55836711   
     12.5100000         3.83033538        -3.51588872   
     12.5200000         3.47825079        -3.44597635   
     12.5300000         3.16426790        -3.35697289   
     12.5400000         2.88490547        -3.25527508   
     12.5500000         2.63656003        -3.14569898   
     12.5600000         2.41574680        -3.03181457   
     12.5700000         2.21922855        -2.91622946   
     12.5800000         2.04407318        -2.80081877   
     12.5900000         1.88766843        -2.68690622   
     12.6000000         1.74771203        -2.57540393   
     12.6100000         1.62218914        -2.46691904   
     12.6200000         1.50934418        -2.36183426   
     12.6300000         1.40765137        -2.26036843   
     12.6400000         1.31578617        -2.16262171   
     12.6500000         1.23259896        -2.06860931   
     12.6600000         1.15709148        -1.97828647   
     12.6700000         1.08839591        -1.89156705   
     12.6800000         1.02575681        -1.80833713   
     12.6900000        0.968515402        -1.72846512   
     12.7000000        0.916096108        -1.65180906   
     12.7100000        0.867995023        -1.57822192   
     12.7200000        0.823770038        -1.50755549   
     12.7300000        0.783032410        -1.43966302   
     12.7400000        0.745439561        -1.37440113   
     12.7500000        0.710688924        -1.31163105   
     12.7600000        0.678512679        -1.25121946   
     12.7700000        0.648673240        -1.19303892   
     12.7800000        0.620959390        -1.13696815   
     12.7900000        0.595182957        -1.08289207   
     12.8000000        0.571175952        -1.03070175   
     12.8100000        0.548788101       -0.980294236   
     12.8200000        0.527884717       -0.931572358   
     12.8300000        0.508344850       -0.884444490   
     12.8400000        0.490059688       -0.838824273   
     12.8500000        0.472931167       -0.794630336   
     12.8600000        0.456870752       -0.751786020   
     12.8700000        0.441798388       -0.710219091   
     12.8800000        0.427641566       -0.669861475   
     12.8900000        0.414334517       -0.630648987   
     12.9000000        0.401817499       -0.592521085   
     12.9100000        0.390036169       -0.555420628   
     12.9200000        0.378941036       -0.519293647   
     12.9300000        0.368486967       -0.484089133   
     12.9400000        0.358632765       -0.449758836   
     12.9500000        0.349340778       -0.416257071   
     12.9600000        0.340576571       -0.383540546   
     12.9700000        0.332308616       -0.351568194   
     12.9800000        0.324508034       -0.320301014   
     12.9900000        0.317148349       -0.289701931   
     13.0000000        0.310205281       -0.259735658   
     13.0100000        0.303656553       -0.230368566   
     13.0200000        0.297481728       -0.201568569   
     13.0300000        0.291662049       -0.173305012   
     13.0400000        0.286180311       -0.145548564   
     13.0500000        0.281020736       -0.118271121   
     13.0600000        0.276168867       -0.914457165E-1
     13.0700000        0.271611469       -0.650464321E-1
     13.0800000        0.267336444       -0.390483170E-1
     13.0900000        0.263332754       -0.134273112E-1
     13.1000000        0.259590349        0.118398274E-1
     13.1100000        0.256100110        0.367755922E-1
     13.1200000        0.252853791        0.614017934E-1
     13.1300000        0.249843973        0.857396206E-1
     13.1400000        0.247064022        0.109809702   
     13.1500000        0.244508049        0.133632164   
     13.1600000        0.242170885        0.157226682   
     13.1700000        0.240048049        0.180612539   
     13.1800000        0.238135725        0.203808673   
     13.1900000        0.236430749        0.226833729   
     13.2000000        0.234930592        0.249706111   
     13.2100000        0.233633350        0.272444026   
     13.2200000        0.232537740        0.295065533   
     13.2300000        0.231643098        0.317588593   
     13.2400000        0.230949379        0.340031113   
     13.2500000        0.230457168        0.362410997   
     13.2600000        0.230167687        0.384746190   
     13.2700000        0.230082809        0.407054730   
     13.2800000        0.230205083        0.429354792   
     13.2900000        0.230537750        0.451664744   
     13.3000000        0.231084780        0.474003196   
     13.3100000        0.231850904        0.496389052   
     13.3200000        0.232841652        0.518841565   
     13.3300000        0.234063405        0.541380397   
     13.3400000        0.235523447        0.564025673   
     13.3500000        0.237230027        0.586798048   
     13.3600000        0.239192432        0.609718772   
     13.3700000        0.241421064        0.632809752   
     13.3800000        0.243927538        0.656093633   
     13.3900000        0.246724777        0.679593866   
     13.4000000        0.249827139        0.703334796   
     13.4100000        0.253250542        0.727341739   
     13.4200000        0.257012620        0.751641078   
     13.4300000        0.261132889        0.776260355   
     13.4400000        0.265632943        0.801228374   
     13.4500000        0.270536673        0.826575307   
     13.4600000        0.275870514        0.852332805   
     13.4700000        0.281663725        0.878534117   
     13.4800000        0.287948718        0.905214217   
     13.4900000        0.294761414        0.932409930   
     13.5000000        0.302141672        0.960160068   
     13.5100000        0.310133759        0.988505572   
     13.5200000        0.318786901         1.01748964   
     13.5300000        0.328155912         1.04715790   
     13.5400000        0.338301919         1.07755849   
     13.5500000        0.349293190         1.10874225   
     13.5600000        0.361206101         1.14076278   
     13.5700000        0.374126245         1.17367659   
     13.5800000        0.388149724         1.20754310   
     13.5900000        0.403384641         1.24242468   
     13.6000000        0.419952843         1.27838657   
     13.6100000        0.437991950         1.31549672   
     13.6200000        0.457657716         1.35382550   
     13.6300000        0.479126798         1.39344516   
     13.6400000        0.502599986         1.43442915   
     13.6500000        0.528305990         1.47685096   
     13.6600000        0.556505866         1.52078259   
     13.6700000        0.587498204         1.56629235   
     13.6800000        0.621625186         1.61344183   
     13.6900000        0.659279645         1.66228170   
     13.7000000        0.700913263         1.71284603   
     13.7100000        0.747046021         1.76514457   
     13.7200000        0.798276995         1.81915221   
     13.7300000        0.855296497         1.87479496   
     13.7400000        0.918899434         1.93193089   
     13.7500000        0.989999491         1.99032469   
     13.7600000         1.06964331         2.04961374   
     13.7700000         1.15902309         2.10926299   
     13.7800000         1.25948500         2.16850555   
     13.7900000         1.37252880         2.22626519   
     13.8000000         1.49979152         2.28105690   
     13.8100000         1.64300412         2.33086226   
     13.8200000         1.80390432         2.37297871   
     13.8300000         1.98408221         2.40384762   
     13.8400000         2.18472744         2.41887752   
     13.8500000         2.40624205         2.41229918   
     13.8600000         2.64768672         2.37712113   
     13.8700000         2.90605359         2.30529756   
     13.8800000         3.17542243         2.18826344   
     13.8900000         3.44617509         2.01800468   
     13.9000000         3.70460650         1.78875482   
     13.9100000         3.93341141         1.49918050   
     13.9200000         4.11348982         1.15452738   
     13.9300000         4.22712763        0.767808831   
     13.9400000         4.26187435        0.359080214   
     13.9500000         4.21374092       -0.475396369E-1
     13.9600000         4.08830166       -0.428328725   
     13.9700000         3.89916620       -0.764272095   
     13.9800000         3.66455606        -1.04368101   
     13.9900000         3.40346244        -1.26254510   
     14.0000000         3.13267346        -1.42310822   
     14.0100000         2.86521175        -1.53165976   
     14.0200000         2.61003172        -1.59640695   
     14.0300000         2.37250669        -1.62588303   
     14.0400000         2.15524342        -1.62797778   
     14.0500000         1.95891454        -1.60947667   
     14.0600000         1.78295815        -1.57593881   
     14.0700000         1.62610183        -1.53176491   
     14.0800000         1.48672468        -1.48035143   
     14.0900000         1.36309107        -1.42426839   
     14.1000000         1.25349179        -1.36542839   
     14.1100000         1.15632251        -1.30523305   
     14.1200000         1.07012169        -1.24469322   
     14.1300000        0.993583710        -1.18452443   
     14.1400000        0.925557544        -1.12522100   
     14.1500000        0.865037632        -1.06711279   
     14.1600000        0.811151120        -1.01040824   
     14.1700000        0.763143905       -0.955226657   
     14.1800000        0.720366915       -0.901622536   
     14.1900000        0.682263359       -0.849603630   
     14.2000000        0.648357297       -0.799144465   
     14.2100000        0.618243655       -0.750196413   
     14.2200000        0.591579664       -0.702695218   
     14.2300000        0.568077651       -0.656566656   
     14.2400000        0.547499078       -0.611730851   
     14.2500000        0.529649715       -0.568105654   
     14.2600000        0.514375848       -0.525609393   
     14.2700000        0.501561430       -0.484163289   
     14.2800000        0.491126082       -0.443693746   
     14.2900000        0.483023892       -0.404134781   
     14.3000000        0.477242928       -0.365430796   
     14.3100000        0.473805392       -0.327539982   
     14.3200000        0.472768316       -0.290438662   
     14.3300000        0.474224629       -0.254126954   
     14.3400000        0.478304361       -0.218636225   
     14.3500000        0.485175534       -0.184038919   
     14.3600000        0.495044080       -0.150461434   
     14.3700000        0.508151658       -0.118100813   
     14.3800000        0.524769668       -0.872459856E-1
     14.3900000        0.545186832       -0.583040384E-1
     14.4000000        0.569686547       -0.318313022E-1
     14.4100000        0.598508773       -0.856748544E-2
     14.4200000        0.631789899        0.105318093E-1
     14.4300000        0.669473595        0.242737527E-1
     14.4400000        0.711187934        0.312349535E-1
     14.4500000        0.756091790        0.298217349E-1
     14.4600000        0.802710357        0.184163963E-1
     14.4700000        0.848807086       -0.436174337E-2
     14.4800000        0.891371669       -0.392783843E-1
     14.4900000        0.926820092       -0.860468659E-1
     14.5000000        0.951468820       -0.142970691   
     14.5100000        0.962236263       -0.206860021   
     14.5200000        0.957371869       -0.273370616   
     14.5300000        0.936921004       -0.337739853   
     14.5400000        0.902708414       -0.395679872   
     14.5500000        0.857848303       -0.444093689   
     14.5600000        0.806008402       -0.481385934   
     14.5700000        0.750718270       -0.507356549   
     14.5800000        0.694912274       -0.522832797   
     14.5900000        0.640745196       -0.529232419   
     14.6000000        0.589614132       -0.528192201   
     14.6100000        0.542290575       -0.521314724   
     14.6200000        0.499084950       -0.510028581   
     14.6300000        0.459998267       -0.495532469   
     14.6400000        0.424842441       -0.478791053   
     14.6500000        0.393326977       -0.460557504   
     14.6600000        0.365117001       -0.441406447   
     14.6700000        0.339869642       -0.421768109   
     14.6800000        0.317255247       -0.401959244   
     14.6900000        0.296968556       -0.382209196   
     14.7000000        0.278733541       -0.362680933   
     14.7100000        0.262304441       -0.343487573   
     14.7200000        0.247464642       -0.324705116   
     14.7300000        0.234024461       -0.306382139   
     14.7400000        0.221818454       -0.288547119   
     14.7500000        0.210702634       -0.271213923   
     14.7600000        0.200551801       -0.254385904   
     14.7700000        0.191257084       -0.238058956   
     14.7800000        0.182723739       -0.222223776   
     14.7900000        0.174869212       -0.206867533   
     14.8000000        0.167621454       -0.191975101   
     14.8100000        0.160917466       -0.177529961   
     14.8200000        0.154702042       -0.163514857   
     14.8300000        0.148926702       -0.149912269   
     14.8400000        0.143548771       -0.136704752   
     14.8500000        0.138530596       -0.123875169   
     14.8600000        0.133838877       -0.111406858   
     14.8700000        0.129444089       -0.992837364E-1
     14.8800000        0.125319995       -0.874903641E-1
     14.8900000        0.121443224       -0.760119831E-1
     14.9000000        0.117792907       -0.648345304E-1
     14.9100000        0.114350371       -0.539446370E-1
     14.9200000        0.111098865       -0.433296163E-1
     14.9300000        0.108023333       -0.329774444E-1
     14.9400000        0.105110212       -0.228767359E-1
     14.9500000        0.102347257       -0.130167166E-1
     14.9600000        0.997233922E-1    -0.338719383E-2
     14.9700000        0.972285788E-1     0.602147284E-2
     14.9800000        0.948536998E-1     0.152184020E-1
     14.9900000        0.925904598E-1     0.242122196E-1
     15.0000000        0.904312976E-1     0.330110875E-1
     15.0100000        0.883693081E-1     0.416227309E-1
     15.0200000        0.863981754E-1     0.500544647E-1
     15.0300000        0.845121118E-1     0.583132181E-1
     15.0400000        0.827058058E-1     0.664055586E-1
     15.0500000        0.809743747E-1     0.743377139E-1
     15.0600000        0.793133229E-1     0.821155927E-1
     15.0700000        0.777185056E-1     0.897448045E-1
     15.0800000        0.761860953E-1     0.972306776E-1
     15.0900000        0.747125528E-1     0.104578277   
     15.1000000        0.732946009E-1     0.111792419   
     15.1100000        0.719292012E-1     0.118877687   
     15.1200000        0.706135324E-1     0.125838448   
     15.1300000        0.693449724E-1     0.132678859   
     15.1400000        0.681210805E-1     0.139402887   
     15.1500000        0.669395825E-1     0.146014315   
     15.1600000        0.657983570E-1     0.152516755   
     15.1700000        0.646954226E-1     0.158913656   
     15.1800000        0.636289269E-1     0.165208315   
     15.1900000        0.625971362E-1     0.171403886   
     15.2000000        0.615984263E-1     0.177503386   
     15.2100000        0.606312737E-1     0.183509705   
     15.2200000        0.596942485E-1     0.189425609   
     15.2300000        0.587860072E-1     0.195253753   
     15.2400000        0.579052860E-1     0.200996681   
     15.2500000        0.570508955E-1     0.206656835   
     15.2600000        0.562217150E-1     0.212236560   
     15.2700000        0.554166879E-1     0.217738107   
     15.2800000        0.546348169E-1     0.223163643   
     15.2900000        0.538751602E-1     0.228515248   
     15.3000000        0.531368277E-1     0.233794926   
     15.3100000        0.524189774E-1     0.239004606   
     15.3200000        0.517208122E-1     0.244146145   
     15.3300000        0.510415772E-1     0.249221331   
     15.3400000        0.503805566E-1     0.254231892   
     15.3500000        0.497370716E-1     0.259179489   
     15.3600000        0.491104780E-1     0.264065730   
     15.3700000        0.485001636E-1     0.268892165   
     15.3800000        0.479055468E-1     0.273660289   
     15.3900000        0.473260747E-1     0.278371551   
     15.4000000        0.467612209E-1     0.283027348   
     15.4100000        0.462104845E-1     0.287629033   
     15.4200000        0.456733882E-1     0.292177914   
     15.4300000        0.451494771E-1     0.296675258   
     15.4400000        0.446383176E-1     0.301122290   
     15.4500000        0.441394959E-1     0.305520200   
     15.4600000        0.436526170E-1     0.309870137   
     15.4700000        0.431773038E-1     0.314173218   
     15.4800000        0.427131959E-1     0.318430526   
     15.4900000        0.422599488E-1     0.322643111   
     15.5000000        0.418172333E-1     0.326811991   
     15.5100000        0.413847343E-1     0.330938157   
     15.5200000        0.409621502E-1     0.335022571   
     15.5300000        0.405491925E-1     0.339066166   
     15.5400000        0.401455845E-1     0.343069850   
     15.5500000        0.397510616E-1     0.347034507   
     15.5600000        0.393653697E-1     0.350960996   
     15.5700000        0.389882656E-1     0.354850154   
     15.5800000        0.386195158E-1     0.358702792   
     15.5900000        0.382588965E-1     0.362519706   
     15.6000000        0.379061928E-1     0.366301665   
     15.6100000        0.375611985E-1     0.370049424   
     15.6200000        0.372237156E-1     0.373763716   
     15.6300000        0.368935539E-1     0.377445256   
     15.6400000        0.365705310E-1     0.381094742   
     15.6500000        0.362544713E-1     0.384712856   
     15.6600000        0.359452063E-1     0.388300263   
     15.6700000        0.356425739E-1     0.391857611   
     15.6800000        0.353464184E-1     0.395385536   
     15.6900000        0.350565902E-1     0.398884658   
     15.7000000        0.347729453E-1     0.402355584   
     15.7100000        0.344953453E-1     0.405798905   
     15.7200000        0.342236571E-1     0.409215203   
     15.7300000        0.339577527E-1     0.412605045   
     15.7400000        0.336975092E-1     0.415968987   
     15.7500000        0.334428080E-1     0.419307574   
     15.7600000        0.331935354E-1     0.422621339   
     15.7700000        0.329495819E-1     0.425910804   
     15.7800000        0.327108423E-1     0.429176484   
     15.7900000        0.324772154E-1     0.432418879   
     15.8000000        0.322486038E-1     0.435638485   
     15.8100000        0.320249141E-1     0.438835784   
     15.8200000        0.318060565E-1     0.442011254   
     15.8300000        0.315919445E-1     0.445165360   
     15.8400000        0.313824953E-1     0.448298562   
     15.8500000        0.311776292E-1     0.451411311   
     15.8600000        0.309772698E-1     0.454504051   
     15.8700000        0.307813439E-1     0.457577219   
     15.8800000        0.305897810E-1     0.460631244   
     15.8900000        0.304025139E-1     0.463666550   
     15.9000000        0.302194779E-1     0.466683553   
     15.9100000        0.300406114E-1     0.469682665   
     15.9200000        0.298658553E-1     0.472664290   
     15.9300000        0.296951530E-1     0.475628828   
     15.9400000        0.295284508E-1     0.478576673   
     15.9500000        0.293656973E-1     0.481508214   
     15.9600000        0.292068435E-1     0.484423835   
     15.9700000        0.290518428E-1     0.487323916   
     15.9800000        0.289006512E-1     0.490208832   
     15.9900000        0.287532268E-1     0.493078954   
     16.0000000        0.286095299E-1     0.495934650   
     16.0100000        0.284695230E-1     0.498776282   
     16.0200000        0.283331711E-1     0.501604212   
     16.0300000        0.282004411E-1     0.504418794   
     16.0400000        0.280713020E-1     0.507220384   
     16.0500000        0.279457250E-1     0.510009331   
     16.0600000        0.278236834E-1     0.512785984   
     16.0700000        0.277051526E-1     0.515550687   
     16.0800000        0.275901097E-1     0.518303784   
     16.0900000        0.274785344E-1     0.521045616   
     16.1000000        0.273704079E-1     0.523776522   
     16.1100000        0.272657136E-1     0.526496839   
     16.1200000        0.271644371E-1     0.529206902   
     16.1300000        0.270665658E-1     0.531907047   
     16.1400000        0.269720890E-1     0.534597607   
     16.1500000        0.268809982E-1     0.537278913   
     16.1600000        0.267932869E-1     0.539951297   
     16.1700000        0.267089506E-1     0.542615090   
     16.1800000        0.266279867E-1     0.545270622   
     16.1900000        0.265503948E-1     0.547918225   
     16.2000000        0.264761766E-1     0.550558227   
     16.2100000        0.264053358E-1     0.553190960   
     16.2200000        0.263378781E-1     0.555816755   
     16.2300000        0.262738117E-1     0.558435942   
     16.2400000        0.262131466E-1     0.561048853   
     16.2500000        0.261558952E-1     0.563655823   
     16.2600000        0.261020722E-1     0.566257186   
     16.2700000        0.260516945E-1     0.568853277   
     16.2800000        0.260047812E-1     0.571444434   
     16.2900000        0.259613542E-1     0.574030996   
     16.3000000        0.259214373E-1     0.576613305   
     16.3100000        0.258850574E-1     0.579191705   
     16.3200000        0.258522435E-1     0.581766541   
     16.3300000        0.258230274E-1     0.584338163   
     16.3400000        0.257974437E-1     0.586906923   
     16.3500000        0.257755298E-1     0.589473177   
     16.3600000        0.257573257E-1     0.592037284   
     16.3700000        0.257428748E-1     0.594599605   
     16.3800000        0.257322232E-1     0.597160510   
     16.3900000        0.257254205E-1     0.599720368   
     16.4000000        0.257225192E-1     0.602279557   
     16.4100000        0.257235756E-1     0.604838457   
     16.4200000        0.257286494E-1     0.607397455   
     16.4300000        0.257378038E-1     0.609956943   
     16.4400000        0.257511060E-1     0.612517319   
     16.4500000        0.257686272E-1     0.615078987   
     16.4600000        0.257904425E-1     0.617642360   
     16.4700000        0.258166316E-1     0.620207856   
     16.4800000        0.258472786E-1     0.622775899   
     16.4900000        0.258824721E-1     0.625346925   
     16.5000000        0.259223058E-1     0.627921376   
     16.5100000        0.259668786E-1     0.630499702   
     16.5200000        0.260162946E-1     0.633082365   
     16.5300000        0.260706635E-1     0.635669833   
     16.5400000        0.261301011E-1     0.638262588   
     16.5500000        0.261947292E-1     0.640861121   
     16.5600000        0.262646762E-1     0.643465935   
     16.5700000        0.263400772E-1     0.646077543   
     16.5800000        0.264210747E-1     0.648696475   
     16.5900000        0.265078186E-1     0.651323270   
     16.6000000        0.266004667E-1     0.653958482   
     16.6100000        0.266991854E-1     0.656602682   
     16.6200000        0.268041499E-1     0.659256452   
     16.6300000        0.269155446E-1     0.661920396   
     16.6400000        0.270335639E-1     0.664595129   
     16.6500000        0.271584127E-1     0.667281289   
     16.6600000        0.272903067E-1     0.669979529   
     16.6700000        0.274294737E-1     0.672690524   
     16.6800000        0.275761536E-1     0.675414970   
     16.6900000        0.277305996E-1     0.678153583   
     16.7000000        0.278930787E-1     0.680907105   
     16.7100000        0.280638730E-1     0.683676299   
     16.7200000        0.282432801E-1     0.686461955   
     16.7300000        0.284316146E-1     0.689264892   
     16.7400000        0.286292089E-1     0.692085954   
     16.7500000        0.288364144E-1     0.694926017   
     16.7600000        0.290536028E-1     0.697785988   
     16.7700000        0.292811676E-1     0.700666807   
     16.7800000        0.295195255E-1     0.703569449   
     16.7900000        0.297691177E-1     0.706494927   
     16.8000000        0.300304122E-1     0.709444291   
     16.8100000        0.303039053E-1     0.712418635   
     16.8200000        0.305901239E-1     0.715419095   
     16.8300000        0.308896273E-1     0.718446852   
     16.8400000        0.312030103E-1     0.721503137   
     16.8500000        0.315309051E-1     0.724589234   
     16.8600000        0.318739850E-1     0.727706477   
     16.8700000        0.322329667E-1     0.730856263   
     16.8800000        0.326086144E-1     0.734040046   
     16.8900000        0.330017432E-1     0.737259347   
     16.9000000        0.334132236E-1     0.740515755   
     16.9100000        0.338439856E-1     0.743810933   
     16.9200000        0.342950240E-1     0.747146618   
     16.9300000        0.347674036E-1     0.750524633   
     16.9400000        0.352622655E-1     0.753946887   
     16.9500000        0.357808339E-1     0.757415379   
     16.9600000        0.363244227E-1     0.760932211   
     16.9700000        0.368944447E-1     0.764499588   
     16.9800000        0.374924196E-1     0.768119825   
     16.9900000        0.381199846E-1     0.771795358   
     17.0000000        0.387789054E-1     0.775528749   
     17.0100000        0.394710883E-1     0.779322695   
     17.0200000        0.401985944E-1     0.783180038   
     17.0300000        0.409636545E-1     0.787103770   
     17.0400000        0.417686865E-1     0.791097052   
     17.0500000        0.426163147E-1     0.795163214   
     17.0600000        0.435093914E-1     0.799305777   
     17.0700000        0.444510210E-1     0.803528457   
     17.0800000        0.454445875E-1     0.807835186   
     17.0900000        0.464937854E-1     0.812230119   
     17.1000000        0.476026546E-1     0.816717654   
     17.1100000        0.487756197E-1     0.821302445   
     17.1200000        0.500175354E-1     0.825989419   
     17.1300000        0.513337370E-1     0.830783795   
     17.1400000        0.527300989E-1     0.835691100   
     17.1500000        0.542131012E-1     0.840717188   
     17.1600000        0.557899054E-1     0.845868257   
     17.1700000        0.574684423E-1     0.851150868   
     17.1800000        0.592575117E-1     0.856571964   
     17.1900000        0.611668986E-1     0.862138881   
     17.2000000        0.632075062E-1     0.867859366   
     17.2100000        0.653915109E-1     0.873741581   
     17.2200000        0.677325407E-1     0.879794109   
     17.2300000        0.702458832E-1     0.886025946   
     17.2400000        0.729487280E-1     0.892446485   
     17.2500000        0.758604478E-1     0.899065478   
     17.2600000        0.790029273E-1     0.905892982   
     17.2700000        0.824009479E-1     0.912939268   
     17.2800000        0.860826356E-1     0.920214686   
     17.2900000        0.900799863E-1     0.927729485   
     17.3000000        0.944294780E-1     0.935493537   
     17.3100000        0.991727847E-1     0.943515973   
     17.3200000        0.104357606        0.951804670   
     17.3300000        0.110038628        0.960365555   
     17.3400000        0.116278620        0.969201653   
     17.3500000        0.123149684        0.978311803   
     17.3600000        0.130734641        0.987688922   
     17.3700000        0.139128534        0.997317670   
     17.3800000        0.148440178         1.00717132   
     17.3900000        0.158793645         1.01720759   
     17.4000000        0.170329447         1.02736314   
     17.4100000        0.183205056         1.03754630   
     17.4200000        0.197594129         1.04762771   
     17.4300000        0.213683497         1.05742846   
     17.4400000        0.231666408         1.06670538   
     17.4500000        0.251729930         1.07513383   
     17.4600000        0.274033551         1.08228895   
     17.4700000        0.298675373         1.08762816   
     17.4800000        0.325642118         1.09048049   
     17.4900000        0.354740609         1.09005221   
     17.5000000        0.385513027         1.08546347   
     17.5100000        0.417147952         1.07583349   
     17.5200000        0.448414708         1.06042944   
     17.5300000        0.477665978         1.03887798   
     17.5400000        0.502960885         1.01140382   
     17.5500000        0.522338588        0.979015419   
     17.5600000        0.534209295        0.943531042   
     17.5700000        0.537746342        0.907370427   
     17.5800000        0.533119400        0.873137330   
     17.5900000        0.521459247        0.843133000   
     17.6000000        0.504571689        0.818982166   
     17.6100000        0.484532517        0.801486185   
     17.6200000        0.463319988        0.790698670   
     17.6300000        0.442581106        0.786133596   
     17.6400000        0.423545351        0.787001943   
     17.6500000        0.407046477        0.792407699   
     17.6600000        0.393600057        0.801478059   
     17.6700000        0.383495937        0.813432235   
     17.6800000        0.376882461        0.827605365   
     17.6900000        0.373833447        0.843444560   
     17.7000000        0.374397132        0.860489955   
     17.7100000        0.378629806        0.878348774   
     17.7200000        0.386617639        0.896666538   
     17.7300000        0.398489558        0.915096921   
     17.7400000        0.414422893        0.933270202   
     17.7500000        0.434642106        0.950759469   
     17.7600000        0.459409415        0.967043529   
     17.7700000        0.489004394        0.981465933   
     17.7800000        0.523687781        0.993190793   
     17.7900000        0.563642750         1.00115874   
     17.8000000        0.608885682         1.00405104   
     17.8100000        0.659139223         1.00027710   
     17.8200000        0.713666061        0.988010644   
     17.8300000        0.771076243        0.965309449   
     17.8400000        0.829147550        0.930356660   
     17.8500000        0.884735555        0.881844603   
     17.8600000        0.933881979        0.819470075   
     17.8700000        0.972222170        0.744421717   
     17.8800000        0.995705207        0.659651363   
     17.8900000         1.00147361        0.569711792   
     17.9000000        0.988590644        0.480082871   
     17.9100000        0.958293208        0.396159766   
     17.9200000        0.913647545        0.322273144   
     17.9300000        0.858773233        0.261091916   
     17.9400000        0.797970296        0.213540673   
     17.9500000        0.735042601        0.179121429   
     17.9600000        0.672941271        0.156414679   
     17.9700000        0.613694570        0.143562890   
     17.9800000        0.558517702        0.138632645   
     17.9900000        0.507997442        0.139835428   
     18.0000000        0.462281113        0.145632773   
     18.0100000        0.421235505        0.154764291   
     18.0200000        0.384565975        0.166232398   
     18.0300000        0.351898721        0.179267395   
     18.0400000        0.322833916        0.193287118   
     18.0500000        0.296977768        0.207858545   
     18.0600000        0.273960324        0.222664532   
     18.0700000        0.253444045        0.237476501   
     18.0800000        0.235126744        0.252132753   
     18.0900000        0.218741226        0.266521625   
     18.1000000        0.204053143        0.280568595   
     18.1100000        0.190858025        0.294226517   
     18.1200000        0.178978019        0.307468276   
     18.1300000        0.168258684        0.320281291   
     18.1400000        0.158565982        0.332663413   
     18.1500000        0.149783559        0.344619888   
     18.1600000        0.141810340        0.356161098   
     18.1700000        0.134558422        0.367300899   
     18.1800000        0.127951253        0.378055399   
     18.1900000        0.121922064        0.388442070   
     18.2000000        0.116412521        0.398479094   
     18.2100000        0.111371582        0.408184905   
     18.2200000        0.106754511        0.417577858   
     18.2300000        0.102522044        0.426676006   
     18.2400000        0.986396720E-1     0.435496941   
     18.2500000        0.950770361E-1     0.444057707   
     18.2600000        0.918074046E-1     0.452374736   
     18.2700000        0.888072310E-1     0.460463830   
     18.2800000        0.860557747E-1     0.468340149   
     18.2900000        0.835347780E-1     0.476018231   
     18.3000000        0.812281902E-1     0.483512009   
     18.3100000        0.791219331E-1     0.490834842   
     18.3200000        0.772037013E-1     0.497999555   
     18.3300000        0.754627936E-1     0.505018473   
     18.3400000        0.738899713E-1     0.511903465   
     18.3500000        0.724773399E-1     0.518665986   
     18.3600000        0.712182526E-1     0.525317117   
     18.3700000        0.701072327E-1     0.531867610   
     18.3800000        0.691399138E-1     0.538327928   
     18.3900000        0.683129961E-1     0.544708288   
     18.4000000        0.676242194E-1     0.551018698   
     18.4100000        0.670723504E-1     0.557268994   
     18.4200000        0.666571861E-1     0.563468883   
     18.4300000        0.663795721E-1     0.569627971   
     18.4400000        0.662414384E-1     0.575755797   
     18.4500000        0.662458511E-1     0.581861864   
     18.4600000        0.663970842E-1     0.587955663   
     18.4700000        0.667007122E-1     0.594046690   
     18.4800000        0.671637251E-1     0.600144466   
     18.4900000        0.677946716E-1     0.606258534   
     18.5000000        0.686038316E-1     0.612398459   
     18.5100000        0.696034239E-1     0.618573799   
     18.5200000        0.708078552E-1     0.624794066   
     18.5300000        0.722340155E-1     0.631068652   
     18.5400000        0.739016292E-1     0.637406724   
     18.5500000        0.758336689E-1     0.643817060   
     18.5600000        0.780568442E-1     0.650307832   
     18.5700000        0.806021741E-1     0.656886285   
     18.5800000        0.835056561E-1     0.663558311   
     18.5900000        0.868090429E-1     0.670327849   
     18.6000000        0.905607347E-1     0.677196089   
     18.6100000        0.948167933E-1     0.684160372   
     18.6200000        0.996420705E-1     0.691212724   
     18.6300000        0.105111428        0.698337880   
     18.6400000        0.111310995        0.705510634   
     18.6500000        0.118339357        0.712692321   
     18.6600000        0.126308486        0.719826150   
     18.6700000        0.135344098        0.726831100   
     18.6800000        0.145584904        0.733594011   
     18.6900000        0.157179949        0.739959574   
     18.7000000        0.170282780        0.745717996   
     18.7100000        0.185040656        0.750590535   
     18.7200000        0.201576312        0.754213820   
     18.7300000        0.219959253        0.756125316   
     18.7400000        0.240163431        0.755754652   
     18.7500000        0.262009425        0.752428975   
     18.7600000        0.285093224        0.745404486   
     18.7700000        0.308711963        0.733939081   
     18.7800000        0.331810067        0.717418412   
     18.7900000        0.352983701        0.695533744   
     18.8000000        0.370586989        0.668480976   
     18.8100000        0.382963928        0.637112795   
     18.8200000        0.388776240        0.602954968   
     18.8300000        0.387328073        0.568026120   
     18.8400000        0.378754014        0.534485363   
     18.8500000        0.363981633        0.504227037   
     18.8600000        0.344486814        0.478573736   
     18.8700000        0.321953930        0.458160442   
     18.8800000        0.297970739        0.443002925   
     18.8900000        0.273836173        0.432674028   
     18.9000000        0.250490454        0.426501607   
     18.9100000        0.228533850        0.423731649   
     18.9200000        0.208290440        0.423636677   
     18.9300000        0.189883241        0.425573777   
     18.9400000        0.173301815        0.429006318   
     18.9500000        0.158455152        0.433503740   
     18.9600000        0.145209393        0.438730336   
     18.9700000        0.133412863        0.444429974   
     18.9800000        0.122911649        0.450410624   
     18.9900000        0.113558583        0.456530516   
     19.0000000        0.105217905        0.462686537   
     19.0100000        0.977672024E-1     0.468804912   
     19.0200000        0.910977312E-1     0.474833903   
     19.0300000        0.851138301E-1     0.480738187   
     19.0400000        0.797318749E-1     0.486494585   
     19.0500000        0.748790472E-1     0.492088832   
     19.0600000        0.704920744E-1     0.497513162   
     19.0700000        0.665160273E-1     0.502764499   
     19.0800000        0.629032197E-1     0.507843115   
     19.0900000        0.596122253E-1     0.512751629   
     19.1000000        0.566070132E-1     0.517494270   
     19.1100000        0.538561978E-1     0.522076336   
     19.1200000        0.513323905E-1     0.526503789   
     19.1300000        0.490116440E-1     0.530782968   
     19.1400000        0.468729756E-1     0.534920376   
     19.1500000        0.448979604E-1     0.538922533   
     19.1600000        0.430703831E-1     0.542795866   
     19.1700000        0.413759415E-1     0.546546635   
     19.1800000        0.398019918E-1     0.550180890   
     19.1900000        0.383373320E-1     0.553704434   
     19.2000000        0.369720150E-1     0.557122809   
     19.2100000        0.356971894E-1     0.560441289   
     19.2200000        0.345049617E-1     0.563664874   
     19.2300000        0.333882787E-1     0.566798300   
     19.2400000        0.323408247E-1     0.569846042   
     19.2500000        0.313569339E-1     0.572812326   
     19.2600000        0.304315140E-1     0.575701138   
     19.2700000        0.295599798E-1     0.578516237   
     19.2800000        0.287381957E-1     0.581261166   
     19.2900000        0.279624256E-1     0.583939268   
     19.3000000        0.272292891E-1     0.586553691   
     19.3100000        0.265357234E-1     0.589107405   
     19.3200000        0.258789496E-1     0.591603215   
     19.3300000        0.252564440E-1     0.594043765   
     19.3400000        0.246659116E-1     0.596431555   
     19.3500000        0.241052643E-1     0.598768945   
     19.3600000        0.235726004E-1     0.601058170   
     19.3700000        0.230661880E-1     0.603301345   
     19.3800000        0.225844489E-1     0.605500472   
     19.3900000        0.221259461E-1     0.607657450   
     19.4000000        0.216893713E-1     0.609774084   
     19.4100000        0.212735354E-1     0.611852086   
     19.4200000        0.208773596E-1     0.613893084   
     19.4300000        0.204998677E-1     0.615898631   
     19.4400000        0.201401800E-1     0.617870204   
     19.4500000        0.197975081E-1     0.619809213   
     19.4600000        0.194711507E-1     0.621717004   
     19.4700000        0.191604907E-1     0.623594864   
     19.4800000        0.188649933E-1     0.625444022   
     19.4900000        0.185842046E-1     0.627265654   
     19.5000000        0.183177523E-1     0.629060886   
     19.5100000        0.180653469E-1     0.630830792   
     19.5200000        0.178267844E-1     0.632576397   
     19.5300000        0.176019500E-1     0.634298678   
     19.5400000        0.173908240E-1     0.635998558   
     19.5500000        0.171934889E-1     0.637676904   
     19.5600000        0.170101382E-1     0.639334522   
     19.5700000        0.168410872E-1     0.640972146   
     19.5800000        0.166867862E-1     0.642590424   
     19.5900000        0.165478345E-1     0.644189900   
     19.6000000        0.164249972E-1     0.645770986   
     19.6100000        0.163192221E-1     0.647333929   
     19.6200000        0.162316556E-1     0.648878756   
     19.6300000        0.161636561E-1     0.650405214   
     19.6400000        0.161167991E-1     0.651912685   
     19.6500000        0.160928673E-1     0.653400068   
     19.6600000        0.160938137E-1     0.654865640   
     19.6700000        0.161216813E-1     0.656306882   
     19.6800000        0.161784523E-1     0.657720264   
     19.6900000        0.162657923E-1     0.659101022   
     19.7000000        0.163846458E-1     0.660442939   
     19.7100000        0.165346358E-1     0.661738207   
     19.7200000        0.167132373E-1     0.662977475   
     19.7300000        0.169147465E-1     0.664150272   
     19.7400000        0.171291830E-1     0.665245998   
     19.7500000        0.173414479E-1     0.666255697   
     19.7600000        0.175312744E-1     0.667174603   
     19.7700000        0.176746147E-1     0.668005065   
     19.7800000        0.177468638E-1     0.668758910   
     19.7900000        0.177275807E-1     0.669457932   
     19.8000000        0.176053459E-1     0.670131540   
     19.8100000        0.173807972E-1     0.670811779   
     19.8200000        0.170664234E-1     0.671527358   
     19.8300000        0.166832167E-1     0.672298916   
     19.8400000        0.162557319E-1     0.673137031   
     19.8500000        0.158074898E-1     0.674042989   
     19.8600000        0.153579704E-1     0.675011284   
     19.8700000        0.149214263E-1     0.676032530   
     19.8800000        0.145070571E-1     0.677095934   
     19.8900000        0.141199062E-1     0.678190961   
     19.9000000        0.137619619E-1     0.679308257   
     19.9100000        0.134331678E-1     0.680440008   
     19.9200000        0.131322214E-1     0.681579961   
     19.9300000        0.128571485E-1     0.682723270   
     19.9400000        0.126056867E-1     0.683866276   
     19.9500000        0.123755256E-1     0.685006277   
     19.9600000        0.121644468E-1     0.686141323   
     19.9700000        0.119703969E-1     0.687270045   
     19.9800000        0.117915194E-1     0.688391509   
     19.9900000        0.116261608E-1     0.689505114   
     20.0000000        0.114728630E-1     0.690610501   
# 
# 01/04/2021 at 16:13 yambo @ unimi-XPS-8930 [start]
# 01/04/2021 at 16:13                        [end]
#
# .-Input file  yambo.in
# | optics                           # [R] Linear Response optical properties
# | dipoles                          # [R] Oscillator strenghts (or dipoles)
# | bse                              # [R][BSE] Bethe Salpeter Equation.
# | ElecTemp= 0.025861         eV    # Electronic Temperature
# | BoseTemp= 0.025861         eV    # Bosonic Temperature
# | DIP_Threads= 1                   # [OPENMP/X] Number of threads for dipoles
# | BS_nCPU_LinAlg_INV= 1            # [PARALLEL] CPUs for Linear Algebra (if -1 it is automatically set)
# | BS_nCPU_LinAlg_DIAGO= 1          # [PARALLEL] CPUs for Linear Algebra (if -1 it is automatically set)
# | X_Threads= 1                     # [OPENMP/X] Number of threads for response functions
# | K_Threads= 1                     # [OPENMP/BSK] Number of threads for response functions
# | BSEmod= "retarded"               # [BSE] resonant/retarded/coupling
# | BSKmod= "IP"                     # [BSE] IP/Hartree/HF/ALDA/SEX/BSfxc
# | DipBandsALL                    # [DIP] Compute all bands range, not only valence and conduction
# | DipComputed= "R V P"             # [DIP] [default R P V; extra P2 Spin Orb]
# | BSENGexx= 28671            RL    # [BSK] Exchange components
# | BSEprop= "abs dichr"             # [BSS] abs/kerr/magn/dichr trace
# | % BSEQptR
# |  1 | 1 |                             # [BSK] Transferred momenta range
# | %
# | % BSEBands
# |   1 | 20 |                           # [BSK] Bands range
# | %
# | % BEnRange
# |   0.00000 | 20.00000 |         eV    # [BSS] Energy range
# | %
# | % BDmRange
# |  0.100000 | 0.100000 |         eV    # [BSS] Damping range
# | %
# | BEnSteps= 2001                   # [BSS] Energy steps
# | % BLongDir
# |  0.100000E-4 |  0.00000    |  0.00000    # [BSS] [cc] Electric Field
# | %
