#                                                           
# ooooo   oooo ..     ooo        ooo ooooooooo.    .oooo.   
#  `88.   .8" .88.    `88.       .88 `88"   `Y8b  dP"  `Yb  
#   `88. .8" .8"88.    888b     d"88  88     888 88      88 
#    `88.8" .8" `88.   8 Y88. .P  88  88oooo888" 88      88 
#     `88" .88ooo888.  8  `888"   88  88    `88b 88      88 
#      88 .8"     `88. 8    Y     88  88    .88P `8b    d8" 
#     o88o88o      888o8          88 o88bood8P"   `Ybod8P"  
#                                                           
#                                                           
#                Version 4.0.2 Revision 5431                
#                         MPI Build                         
#                 http://www.yambo-code.org                 
#
# EELS @ Q(1)  [q->0 direction]:0.1000E-4  0.000     0.000   
#
#
# - Energies      are Teter 93(XC)+Scissor
# - Wavefunctions are Teter 93(XC)
#
# - The Green`s function is causal -
# - Using the Length Gauge -
# - [r,Vnl] *is* included -
#
#   BSK|Identifier              :2197
#      |Dimension               :16
#      |Bands                   :7 - 10
#      |Exchange           [res]: yes
#      |Correlation        [res]: yes
#      |Kernel`s coupling       : yes
#      |Exchange           [cpl]: yes
#      |Correlation        [cpl]: no
#      |W interaction is bare   : no
#      |ALDA kernel in R-space  : no
#      |RL vectors    [exchange]:3413
#      |RL vectors [correlation]:107
#      |E/h energy range    [ev]:-1.000000 - -1.000000
#      |Coupling range     [o/o]: 100.0000 -  100.0000
#    W |Interaction is diagonal : no
#      |Matrix size             :107
#      |Bands                   :1 - 50
#      |e/h energy range    [ev]:-1.000000 - -1.000000
#      |Poles              [o/o]: 100.0000
#      |RL vectors in the sum   :3317
#      |[r,Vnl] included        : yes
#      |Field direction         :0.1000E-4  0.000000  0.000000
#      |Coulomb Cutoff          :none
#      |xc-Kernel               :none
#   RIM|RL components      [col]:0
#      |Random points      [col]:0
#
#  E/ev[1]    EEL-Im[2]  EEL-Re[3]  EELo-Im[4] EELo-Re[5]
#
  3.000     0.2442E-2  -.1210     0.1774E-2  -.1566   
  3.010     0.2451E-2  -.1208     0.1781E-2  -.1565   
  3.020     0.2461E-2  -.1205     0.1788E-2  -.1563   
  3.030     0.2471E-2  -.1203     0.1794E-2  -.1561   
  3.040     0.2480E-2  -.1200     0.1801E-2  -.1559   
  3.050     0.2490E-2  -.1198     0.1808E-2  -.1558   
  3.060     0.2499E-2  -.1195     0.1815E-2  -.1556   
  3.070     0.2509E-2  -.1193     0.1821E-2  -.1554   
  3.080     0.2519E-2  -.1190     0.1828E-2  -.1552   
  3.090     0.2528E-2  -.1188     0.1835E-2  -.1550   
  3.100     0.2538E-2  -.1185     0.1842E-2  -.1548   
  3.110     0.2547E-2  -.1183     0.1848E-2  -.1547   
  3.120     0.2557E-2  -.1180     0.1855E-2  -.1545   
  3.130     0.2567E-2  -.1178     0.1862E-2  -.1543   
  3.140     0.2577E-2  -.1175     0.1869E-2  -.1541   
  3.150     0.2586E-2  -.1173     0.1876E-2  -.1539   
  3.160     0.2596E-2  -.1170     0.1882E-2  -.1537   
  3.170     0.2606E-2  -.1167     0.1889E-2  -.1535   
  3.180     0.2616E-2  -.1165     0.1896E-2  -.1533   
  3.190     0.2625E-2  -.1162     0.1903E-2  -.1532   
  3.200     0.2635E-2  -.1160     0.1910E-2  -.1530   
  3.210     0.2645E-2  -.1157     0.1917E-2  -.1528   
  3.220     0.2655E-2  -.1154     0.1923E-2  -.1526   
  3.230     0.2665E-2  -.1152     0.1930E-2  -.1524   
  3.240     0.2675E-2  -.1149     0.1937E-2  -.1522   
  3.250     0.2685E-2  -.1146     0.1944E-2  -.1520   
  3.260     0.2695E-2  -.1144     0.1951E-2  -.1518   
  3.270     0.2705E-2  -.1141     0.1958E-2  -.1516   
  3.280     0.2714E-2  -.1138     0.1965E-2  -.1514   
  3.290     0.2724E-2  -.1135     0.1972E-2  -.1512   
  3.300     0.2734E-2  -.1133     0.1979E-2  -.1510   
  3.310     0.2744E-2  -.1130     0.1986E-2  -.1508   
  3.320     0.2754E-2  -.1127     0.1993E-2  -.1506   
  3.330     0.2765E-2  -.1124     0.2000E-2  -.1504   
  3.340     0.2775E-2  -.1122     0.2007E-2  -.1502   
  3.350     0.2785E-2  -.1119     0.2014E-2  -.1500   
  3.360     0.2795E-2  -.1116     0.2021E-2  -.1498   
  3.370     0.2805E-2  -.1113     0.2028E-2  -.1496   
  3.380     0.2815E-2  -.1110     0.2035E-2  -.1494   
  3.390     0.2825E-2  -.1108     0.2042E-2  -.1492   
  3.400     0.2835E-2  -.1105     0.2049E-2  -.1490   
  3.410     0.2846E-2  -.1102     0.2056E-2  -.1488   
  3.420     0.2856E-2  -.1099     0.2063E-2  -.1486   
  3.430     0.2866E-2  -.1096     0.2070E-2  -.1484   
  3.440     0.2876E-2  -.1093     0.2077E-2  -.1482   
  3.450     0.2886E-2  -.1091     0.2084E-2  -.1480   
  3.460     0.2897E-2  -.1088     0.2091E-2  -.1478   
  3.470     0.2907E-2  -.1085     0.2098E-2  -.1476   
  3.480     0.2917E-2  -.1082     0.2106E-2  -.1473   
  3.490     0.2928E-2  -.1079     0.2113E-2  -.1471   
  3.500     0.2938E-2  -.1076     0.2120E-2  -.1469   
  3.510     0.2948E-2  -.1073     0.2127E-2  -.1467   
  3.520     0.2959E-2  -.1070     0.2134E-2  -.1465   
  3.530     0.2969E-2  -.1067     0.2141E-2  -.1463   
  3.540     0.2980E-2  -.1064     0.2148E-2  -.1461   
  3.550     0.2990E-2  -.1061     0.2156E-2  -.1459   
  3.560     0.3001E-2  -.1058     0.2163E-2  -.1456   
  3.570     0.3011E-2  -.1055     0.2170E-2  -.1454   
  3.580     0.3022E-2  -.1052     0.2177E-2  -.1452   
  3.590     0.3032E-2  -.1049     0.2185E-2  -.1450   
  3.600     0.3043E-2  -.1046     0.2192E-2  -.1448   
  3.610     0.3053E-2  -.1043     0.2199E-2  -.1446   
  3.620     0.3064E-2  -.1040     0.2206E-2  -.1443   
  3.630     0.3074E-2  -.1037     0.2214E-2  -.1441   
  3.640     0.3085E-2  -.1034     0.2221E-2  -.1439   
  3.650     0.3096E-2  -.1031     0.2228E-2  -.1437   
  3.660     0.3106E-2  -.1028     0.2236E-2  -.1434   
  3.670     0.3117E-2  -.1025     0.2243E-2  -.1432   
  3.680     0.3128E-2  -.1021     0.2250E-2  -.1430   
  3.690     0.3138E-2  -.1018     0.2258E-2  -.1428   
  3.700     0.3149E-2  -.1015     0.2265E-2  -.1425   
  3.710     0.3160E-2  -.1012     0.2272E-2  -.1423   
  3.720     0.3171E-2  -.1009     0.2280E-2  -.1421   
  3.730     0.3182E-2  -.1006     0.2287E-2  -.1419   
  3.740     0.3192E-2  -.1002     0.2295E-2  -.1416   
  3.750     0.3203E-2  -.9992E-1  0.2302E-2  -.1414   
  3.760     0.3214E-2  -.9960E-1  0.2309E-2  -.1412   
  3.770     0.3225E-2  -.9928E-1  0.2317E-2  -.1409   
  3.780     0.3236E-2  -.9896E-1  0.2324E-2  -.1407   
  3.790     0.3247E-2  -.9863E-1  0.2332E-2  -.1405   
  3.800     0.3258E-2  -.9831E-1  0.2339E-2  -.1402   
  3.810     0.3269E-2  -.9798E-1  0.2347E-2  -.1400   
  3.820     0.3280E-2  -.9766E-1  0.2354E-2  -.1398   
  3.830     0.3291E-2  -.9733E-1  0.2362E-2  -.1395   
  3.840     0.3302E-2  -.9700E-1  0.2369E-2  -.1393   
  3.850     0.3313E-2  -.9667E-1  0.2377E-2  -.1391   
  3.860     0.3324E-2  -.9633E-1  0.2384E-2  -.1388   
  3.870     0.3335E-2  -.9600E-1  0.2392E-2  -.1386   
  3.880     0.3346E-2  -.9567E-1  0.2400E-2  -.1383   
  3.890     0.3358E-2  -.9533E-1  0.2407E-2  -.1381   
  3.900     0.3369E-2  -.9500E-1  0.2415E-2  -.1379   
  3.910     0.3380E-2  -.9466E-1  0.2422E-2  -.1376   
  3.920     0.3391E-2  -.9432E-1  0.2430E-2  -.1374   
  3.930     0.3402E-2  -.9398E-1  0.2438E-2  -.1371   
  3.940     0.3414E-2  -.9364E-1  0.2445E-2  -.1369   
  3.950     0.3425E-2  -.9330E-1  0.2453E-2  -.1366   
  3.960     0.3436E-2  -.9296E-1  0.2461E-2  -.1364   
  3.970     0.3448E-2  -.9261E-1  0.2468E-2  -.1362   
  3.980     0.3459E-2  -.9227E-1  0.2476E-2  -.1359   
  3.990     0.3470E-2  -.9192E-1  0.2484E-2  -.1357   
  4.000     0.3482E-2  -.9157E-1  0.2491E-2  -.1354   
  4.010     0.3493E-2  -.9122E-1  0.2499E-2  -.1352   
  4.020     0.3505E-2  -.9087E-1  0.2507E-2  -.1349   
  4.030     0.3516E-2  -.9052E-1  0.2515E-2  -.1347   
  4.040     0.3528E-2  -.9017E-1  0.2522E-2  -.1344   
  4.050     0.3539E-2  -.8982E-1  0.2530E-2  -.1342   
  4.060     0.3551E-2  -.8946E-1  0.2538E-2  -.1339   
  4.070     0.3563E-2  -.8911E-1  0.2546E-2  -.1336   
  4.080     0.3574E-2  -.8875E-1  0.2554E-2  -.1334   
  4.090     0.3586E-2  -.8839E-1  0.2562E-2  -.1331   
  4.100     0.3597E-2  -.8803E-1  0.2569E-2  -.1329   
  4.110     0.3609E-2  -.8767E-1  0.2577E-2  -.1326   
  4.120     0.3621E-2  -.8731E-1  0.2585E-2  -.1324   
  4.130     0.3633E-2  -.8695E-1  0.2593E-2  -.1321   
  4.140     0.3644E-2  -.8659E-1  0.2601E-2  -.1318   
  4.150     0.3656E-2  -.8622E-1  0.2609E-2  -.1316   
  4.160     0.3668E-2  -.8585E-1  0.2617E-2  -.1313   
  4.170     0.3680E-2  -.8549E-1  0.2625E-2  -.1311   
  4.180     0.3692E-2  -.8512E-1  0.2633E-2  -.1308   
  4.190     0.3704E-2  -.8475E-1  0.2641E-2  -.1305   
  4.200     0.3716E-2  -.8438E-1  0.2649E-2  -.1303   
  4.210     0.3727E-2  -.8401E-1  0.2657E-2  -.1300   
  4.220     0.3739E-2  -.8363E-1  0.2665E-2  -.1297   
  4.230     0.3751E-2  -.8326E-1  0.2673E-2  -.1295   
  4.240     0.3764E-2  -.8288E-1  0.2681E-2  -.1292   
  4.250     0.3776E-2  -.8251E-1  0.2689E-2  -.1289   
  4.260     0.3788E-2  -.8213E-1  0.2697E-2  -.1287   
  4.270     0.3800E-2  -.8175E-1  0.2705E-2  -.1284   
  4.280     0.3812E-2  -.8137E-1  0.2713E-2  -.1281   
  4.290     0.3824E-2  -.8099E-1  0.2722E-2  -.1279   
  4.300     0.3836E-2  -.8060E-1  0.2730E-2  -.1276   
  4.310     0.3849E-2  -.8022E-1  0.2738E-2  -.1273   
  4.320     0.3861E-2  -.7983E-1  0.2746E-2  -.1270   
  4.330     0.3873E-2  -.7945E-1  0.2754E-2  -.1268   
  4.340     0.3885E-2  -.7906E-1  0.2763E-2  -.1265   
  4.350     0.3898E-2  -.7867E-1  0.2771E-2  -.1262   
  4.360     0.3910E-2  -.7828E-1  0.2779E-2  -.1259   
  4.370     0.3922E-2  -.7789E-1  0.2787E-2  -.1257   
  4.380     0.3935E-2  -.7750E-1  0.2796E-2  -.1254   
  4.390     0.3947E-2  -.7710E-1  0.2804E-2  -.1251   
  4.400     0.3960E-2  -.7671E-1  0.2812E-2  -.1248   
  4.410     0.3972E-2  -.7631E-1  0.2820E-2  -.1245   
  4.420     0.3985E-2  -.7591E-1  0.2829E-2  -.1243   
  4.430     0.3997E-2  -.7551E-1  0.2837E-2  -.1240   
  4.440     0.4010E-2  -.7511E-1  0.2846E-2  -.1237   
  4.450     0.4023E-2  -.7471E-1  0.2854E-2  -.1234   
  4.460     0.4035E-2  -.7431E-1  0.2862E-2  -.1231   
  4.470     0.4048E-2  -.7390E-1  0.2871E-2  -.1228   
  4.480     0.4061E-2  -.7350E-1  0.2879E-2  -.1225   
  4.490     0.4073E-2  -.7309E-1  0.2888E-2  -.1222   
  4.500     0.4086E-2  -.7268E-1  0.2896E-2  -.1220   
  4.510     0.4099E-2  -.7228E-1  0.2905E-2  -.1217   
  4.520     0.4112E-2  -.7186E-1  0.2913E-2  -.1214   
  4.530     0.4125E-2  -.7145E-1  0.2922E-2  -.1211   
  4.540     0.4138E-2  -.7104E-1  0.2930E-2  -.1208   
  4.550     0.4151E-2  -.7063E-1  0.2939E-2  -.1205   
  4.560     0.4164E-2  -.7021E-1  0.2947E-2  -.1202   
  4.570     0.4177E-2  -.6979E-1  0.2956E-2  -.1199   
  4.580     0.4190E-2  -.6937E-1  0.2964E-2  -.1196   
  4.590     0.4203E-2  -.6896E-1  0.2973E-2  -.1193   
  4.600     0.4216E-2  -.6853E-1  0.2982E-2  -.1190   
  4.610     0.4229E-2  -.6811E-1  0.2990E-2  -.1187   
  4.620     0.4242E-2  -.6769E-1  0.2999E-2  -.1184   
  4.630     0.4255E-2  -.6726E-1  0.3008E-2  -.1181   
  4.640     0.4269E-2  -.6684E-1  0.3017E-2  -.1178   
  4.650     0.4282E-2  -.6641E-1  0.3025E-2  -.1175   
  4.660     0.4295E-2  -.6598E-1  0.3034E-2  -.1172   
  4.670     0.4308E-2  -.6555E-1  0.3043E-2  -.1169   
  4.680     0.4322E-2  -.6512E-1  0.3052E-2  -.1166   
  4.690     0.4335E-2  -.6469E-1  0.3060E-2  -.1163   
  4.700     0.4349E-2  -.6425E-1  0.3069E-2  -.1160   
  4.710     0.4362E-2  -.6382E-1  0.3078E-2  -.1157   
  4.720     0.4376E-2  -.6338E-1  0.3087E-2  -.1154   
  4.730     0.4389E-2  -.6294E-1  0.3096E-2  -.1151   
  4.740     0.4403E-2  -.6250E-1  0.3105E-2  -.1148   
  4.750     0.4416E-2  -.6206E-1  0.3114E-2  -.1145   
  4.760     0.4430E-2  -.6162E-1  0.3123E-2  -.1141   
  4.770     0.4444E-2  -.6118E-1  0.3131E-2  -.1138   
  4.780     0.4457E-2  -.6073E-1  0.3140E-2  -.1135   
  4.790     0.4471E-2  -.6029E-1  0.3149E-2  -.1132   
  4.800     0.4485E-2  -.5984E-1  0.3158E-2  -.1129   
  4.810     0.4499E-2  -.5939E-1  0.3168E-2  -.1126   
  4.820     0.4512E-2  -.5894E-1  0.3177E-2  -.1123   
  4.830     0.4526E-2  -.5849E-1  0.3186E-2  -.1119   
  4.840     0.4540E-2  -.5803E-1  0.3195E-2  -.1116   
  4.850     0.4554E-2  -.5758E-1  0.3204E-2  -.1113   
  4.860     0.4568E-2  -.5712E-1  0.3213E-2  -.1110   
  4.870     0.4582E-2  -.5667E-1  0.3222E-2  -.1107   
  4.880     0.4596E-2  -.5621E-1  0.3231E-2  -.1103   
  4.890     0.4611E-2  -.5575E-1  0.3241E-2  -.1100   
  4.900     0.4625E-2  -.5529E-1  0.3250E-2  -.1097   
  4.910     0.4639E-2  -.5482E-1  0.3259E-2  -.1094   
  4.920     0.4653E-2  -.5436E-1  0.3268E-2  -.1090   
  4.930     0.4667E-2  -.5389E-1  0.3278E-2  -.1087   
  4.940     0.4682E-2  -.5342E-1  0.3287E-2  -.1084   
  4.950     0.4696E-2  -.5296E-1  0.3296E-2  -.1080   
  4.960     0.4710E-2  -.5249E-1  0.3306E-2  -.1077   
  4.970     0.4725E-2  -.5201E-1  0.3315E-2  -.1074   
  4.980     0.4739E-2  -.5154E-1  0.3324E-2  -.1071   
  4.990     0.4754E-2  -.5107E-1  0.3334E-2  -.1067   
  5.000     0.4768E-2  -.5059E-1  0.3343E-2  -.1064   
  5.010     0.4783E-2  -.5011E-1  0.3353E-2  -.1061   
  5.020     0.4798E-2  -.4963E-1  0.3362E-2  -.1057   
  5.030     0.4812E-2  -.4915E-1  0.3372E-2  -.1054   
  5.040     0.4827E-2  -.4867E-1  0.3381E-2  -.1050   
  5.050     0.4842E-2  -.4819E-1  0.3391E-2  -.1047   
  5.060     0.4857E-2  -.4770E-1  0.3400E-2  -.1044   
  5.070     0.4872E-2  -.4722E-1  0.3410E-2  -.1040   
  5.080     0.4887E-2  -.4673E-1  0.3420E-2  -.1037   
  5.090     0.4901E-2  -.4624E-1  0.3429E-2  -.1033   
  5.100     0.4916E-2  -.4575E-1  0.3439E-2  -.1030   
  5.110     0.4932E-2  -.4526E-1  0.3449E-2  -.1027   
  5.120     0.4947E-2  -.4476E-1  0.3458E-2  -.1023   
  5.130     0.4962E-2  -.4427E-1  0.3468E-2  -.1020   
  5.140     0.4977E-2  -.4377E-1  0.3478E-2  -.1016   
  5.150     0.4992E-2  -.4327E-1  0.3488E-2  -.1013   
  5.160     0.5008E-2  -.4277E-1  0.3497E-2  -.1009   
  5.170     0.5023E-2  -.4227E-1  0.3507E-2  -.1006   
  5.180     0.5038E-2  -.4177E-1  0.3517E-2  -.1002   
  5.190     0.5054E-2  -.4127E-1  0.3527E-2  -.9986E-1
  5.200     0.5069E-2  -.4076E-1  0.3537E-2  -.9951E-1
  5.210     0.5085E-2  -.4025E-1  0.3547E-2  -.9916E-1
  5.220     0.5101E-2  -.3974E-1  0.3557E-2  -.9880E-1
  5.230     0.5116E-2  -.3923E-1  0.3567E-2  -.9844E-1
  5.240     0.5132E-2  -.3872E-1  0.3577E-2  -.9809E-1
  5.250     0.5148E-2  -.3821E-1  0.3587E-2  -.9773E-1
  5.260     0.5164E-2  -.3769E-1  0.3597E-2  -.9737E-1
  5.270     0.5180E-2  -.3717E-1  0.3607E-2  -.9701E-1
  5.280     0.5196E-2  -.3666E-1  0.3617E-2  -.9665E-1
  5.290     0.5212E-2  -.3614E-1  0.3627E-2  -.9629E-1
  5.300     0.5229E-2  -.3561E-1  0.3638E-2  -.9592E-1
  5.310     0.5245E-2  -.3509E-1  0.3648E-2  -.9556E-1
  5.320     0.5262E-2  -.3457E-1  0.3658E-2  -.9519E-1
  5.330     0.5278E-2  -.3404E-1  0.3668E-2  -.9483E-1
  5.340     0.5295E-2  -.3351E-1  0.3679E-2  -.9446E-1
  5.350     0.5312E-2  -.3298E-1  0.3689E-2  -.9409E-1
  5.360     0.5329E-2  -.3245E-1  0.3699E-2  -.9372E-1
  5.370     0.5346E-2  -.3192E-1  0.3710E-2  -.9335E-1
  5.380     0.5364E-2  -.3139E-1  0.3720E-2  -.9298E-1
  5.390     0.5381E-2  -.3085E-1  0.3731E-2  -.9261E-1
  5.400     0.5399E-2  -.3031E-1  0.3741E-2  -.9223E-1
  5.410     0.5417E-2  -.2977E-1  0.3752E-2  -.9186E-1
  5.420     0.5434E-2  -.2924E-1  0.3762E-2  -.9148E-1
  5.430     0.5452E-2  -.2869E-1  0.3773E-2  -.9111E-1
  5.440     0.5469E-2  -.2815E-1  0.3783E-2  -.9073E-1
  5.450     0.5486E-2  -.2761E-1  0.3794E-2  -.9035E-1
  5.460     0.5503E-2  -.2706E-1  0.3805E-2  -.8997E-1
  5.470     0.5519E-2  -.2652E-1  0.3815E-2  -.8959E-1
  5.480     0.5535E-2  -.2597E-1  0.3826E-2  -.8921E-1
  5.490     0.5551E-2  -.2542E-1  0.3837E-2  -.8883E-1
  5.500     0.5567E-2  -.2486E-1  0.3848E-2  -.8844E-1
  5.510     0.5583E-2  -.2431E-1  0.3859E-2  -.8806E-1
  5.520     0.5599E-2  -.2375E-1  0.3870E-2  -.8767E-1
  5.530     0.5614E-2  -.2319E-1  0.3880E-2  -.8728E-1
  5.540     0.5630E-2  -.2263E-1  0.3891E-2  -.8689E-1
  5.550     0.5647E-2  -.2207E-1  0.3902E-2  -.8650E-1
  5.560     0.5663E-2  -.2151E-1  0.3913E-2  -.8611E-1
  5.570     0.5679E-2  -.2094E-1  0.3924E-2  -.8572E-1
  5.580     0.5696E-2  -.2037E-1  0.3936E-2  -.8533E-1
  5.590     0.5713E-2  -.1980E-1  0.3947E-2  -.8494E-1
  5.600     0.5729E-2  -.1923E-1  0.3958E-2  -.8454E-1
  5.610     0.5746E-2  -.1866E-1  0.3969E-2  -.8414E-1
  5.620     0.5763E-2  -.1808E-1  0.3980E-2  -.8375E-1
  5.630     0.5781E-2  -.1751E-1  0.3992E-2  -.8335E-1
  5.640     0.5798E-2  -.1693E-1  0.4003E-2  -.8295E-1
  5.650     0.5815E-2  -.1635E-1  0.4014E-2  -.8255E-1
  5.660     0.5833E-2  -.1576E-1  0.4026E-2  -.8215E-1
  5.670     0.5851E-2  -.1518E-1  0.4037E-2  -.8174E-1
  5.680     0.5868E-2  -.1460E-1  0.4049E-2  -.8134E-1
  5.690     0.5886E-2  -.1401E-1  0.4060E-2  -.8093E-1
  5.700     0.5904E-2  -.1342E-1  0.4072E-2  -.8053E-1
  5.710     0.5922E-2  -.1283E-1  0.4083E-2  -.8012E-1
  5.720     0.5940E-2  -.1223E-1  0.4095E-2  -.7971E-1
  5.730     0.5958E-2  -.1164E-1  0.4107E-2  -.7930E-1
  5.740     0.5977E-2  -.1104E-1  0.4118E-2  -.7889E-1
  5.750     0.5995E-2  -.1045E-1  0.4130E-2  -.7848E-1
  5.760     0.6013E-2  -.9845E-2  0.4142E-2  -.7806E-1
  5.770     0.6032E-2  -.9243E-2  0.4154E-2  -.7765E-1
  5.780     0.6051E-2  -.8639E-2  0.4166E-2  -.7723E-1
  5.790     0.6069E-2  -.8034E-2  0.4178E-2  -.7682E-1
  5.800     0.6088E-2  -.7426E-2  0.4190E-2  -.7640E-1
  5.810     0.6107E-2  -.6817E-2  0.4202E-2  -.7598E-1
  5.820     0.6126E-2  -.6205E-2  0.4214E-2  -.7556E-1
  5.830     0.6145E-2  -.5592E-2  0.4226E-2  -.7514E-1
  5.840     0.6164E-2  -.4977E-2  0.4239E-2  -.7471E-1
  5.850     0.6183E-2  -.4360E-2  0.4251E-2  -.7429E-1
  5.860     0.6202E-2  -.3741E-2  0.4263E-2  -.7386E-1
  5.870     0.6221E-2  -.3120E-2  0.4276E-2  -.7344E-1
  5.880     0.6241E-2  -.2497E-2  0.4288E-2  -.7301E-1
  5.890     0.6260E-2  -.1872E-2  0.4300E-2  -.7258E-1
  5.900     0.6280E-2  -.1246E-2  0.4313E-2  -.7215E-1
  5.910     0.6300E-2  -.6168E-3  0.4326E-2  -.7172E-1
  5.920     0.6319E-2  0.1382E-4  0.4338E-2  -.7128E-1
  5.930     0.6339E-2  0.6465E-3  0.4351E-2  -.7085E-1
  5.940     0.6359E-2  0.1281E-2  0.4364E-2  -.7041E-1
  5.950     0.6379E-2  0.1918E-2  0.4377E-2  -.6998E-1
  5.960     0.6399E-2  0.2556E-2  0.4390E-2  -.6954E-1
  5.970     0.6420E-2  0.3197E-2  0.4403E-2  -.6910E-1
  5.980     0.6440E-2  0.3840E-2  0.4416E-2  -.6866E-1
  5.990     0.6460E-2  0.4484E-2  0.4429E-2  -.6822E-1
  6.000     0.6481E-2  0.5131E-2  0.4442E-2  -.6777E-1
  6.010     0.6501E-2  0.5780E-2  0.4455E-2  -.6733E-1
  6.020     0.6522E-2  0.6431E-2  0.4469E-2  -.6688E-1
  6.030     0.6543E-2  0.7084E-2  0.4482E-2  -.6644E-1
  6.040     0.6564E-2  0.7739E-2  0.4495E-2  -.6599E-1
  6.050     0.6585E-2  0.8396E-2  0.4509E-2  -.6554E-1
  6.060     0.6606E-2  0.9055E-2  0.4523E-2  -.6509E-1
  6.070     0.6627E-2  0.9716E-2  0.4536E-2  -.6463E-1
  6.080     0.6649E-2  0.1038E-1  0.4550E-2  -.6418E-1
  6.090     0.6670E-2  0.1105E-1  0.4564E-2  -.6372E-1
  6.100     0.6692E-2  0.1171E-1  0.4578E-2  -.6327E-1
  6.110     0.6713E-2  0.1238E-1  0.4592E-2  -.6281E-1
  6.120     0.6735E-2  0.1305E-1  0.4606E-2  -.6235E-1
  6.130     0.6757E-2  0.1373E-1  0.4620E-2  -.6189E-1
  6.140     0.6779E-2  0.1441E-1  0.4635E-2  -.6143E-1
  6.150     0.6801E-2  0.1508E-1  0.4649E-2  -.6096E-1
  6.160     0.6824E-2  0.1576E-1  0.4663E-2  -.6050E-1
  6.170     0.6846E-2  0.1645E-1  0.4678E-2  -.6003E-1
  6.180     0.6869E-2  0.1713E-1  0.4693E-2  -.5956E-1
  6.190     0.6891E-2  0.1782E-1  0.4707E-2  -.5909E-1
  6.200     0.6914E-2  0.1851E-1  0.4722E-2  -.5862E-1
  6.210     0.6937E-2  0.1920E-1  0.4737E-2  -.5815E-1
  6.220     0.6960E-2  0.1990E-1  0.4752E-2  -.5767E-1
  6.230     0.6983E-2  0.2059E-1  0.4768E-2  -.5720E-1
  6.240     0.7007E-2  0.2129E-1  0.4783E-2  -.5672E-1
  6.250     0.7030E-2  0.2199E-1  0.4798E-2  -.5624E-1
  6.260     0.7054E-2  0.2270E-1  0.4814E-2  -.5576E-1
  6.270     0.7078E-2  0.2340E-1  0.4830E-2  -.5528E-1
  6.280     0.7102E-2  0.2411E-1  0.4846E-2  -.5480E-1
  6.290     0.7126E-2  0.2482E-1  0.4862E-2  -.5431E-1
  6.300     0.7151E-2  0.2554E-1  0.4878E-2  -.5383E-1
  6.310     0.7175E-2  0.2625E-1  0.4894E-2  -.5334E-1
  6.320     0.7200E-2  0.2697E-1  0.4910E-2  -.5285E-1
  6.330     0.7225E-2  0.2769E-1  0.4927E-2  -.5236E-1
  6.340     0.7250E-2  0.2841E-1  0.4943E-2  -.5186E-1
  6.350     0.7275E-2  0.2914E-1  0.4960E-2  -.5137E-1
  6.360     0.7301E-2  0.2987E-1  0.4977E-2  -.5087E-1
  6.370     0.7326E-2  0.3060E-1  0.4995E-2  -.5038E-1
  6.380     0.7352E-2  0.3133E-1  0.5012E-2  -.4988E-1
  6.390     0.7378E-2  0.3207E-1  0.5029E-2  -.4937E-1
  6.400     0.7405E-2  0.3281E-1  0.5047E-2  -.4887E-1
  6.410     0.7431E-2  0.3355E-1  0.5065E-2  -.4837E-1
  6.420     0.7458E-2  0.3429E-1  0.5083E-2  -.4786E-1
  6.430     0.7485E-2  0.3504E-1  0.5101E-2  -.4735E-1
  6.440     0.7512E-2  0.3579E-1  0.5120E-2  -.4684E-1
  6.450     0.7540E-2  0.3654E-1  0.5139E-2  -.4633E-1
  6.460     0.7568E-2  0.3729E-1  0.5158E-2  -.4581E-1
  6.470     0.7596E-2  0.3805E-1  0.5177E-2  -.4530E-1
  6.480     0.7624E-2  0.3881E-1  0.5196E-2  -.4478E-1
  6.490     0.7653E-2  0.3957E-1  0.5216E-2  -.4426E-1
  6.500     0.7682E-2  0.4034E-1  0.5236E-2  -.4374E-1
  6.510     0.7711E-2  0.4111E-1  0.5256E-2  -.4322E-1
  6.520     0.7741E-2  0.4188E-1  0.5277E-2  -.4269E-1
  6.530     0.7770E-2  0.4265E-1  0.5298E-2  -.4216E-1
  6.540     0.7801E-2  0.4343E-1  0.5319E-2  -.4163E-1
  6.550     0.7831E-2  0.4421E-1  0.5341E-2  -.4110E-1
  6.560     0.7862E-2  0.4499E-1  0.5362E-2  -.4057E-1
  6.570     0.7894E-2  0.4578E-1  0.5385E-2  -.4003E-1
  6.580     0.7926E-2  0.4657E-1  0.5407E-2  -.3949E-1
  6.590     0.7958E-2  0.4736E-1  0.5430E-2  -.3895E-1
  6.600     0.7991E-2  0.4816E-1  0.5453E-2  -.3841E-1
  6.610     0.8024E-2  0.4896E-1  0.5477E-2  -.3786E-1
  6.620     0.8057E-2  0.4976E-1  0.5501E-2  -.3732E-1
  6.630     0.8092E-2  0.5056E-1  0.5526E-2  -.3677E-1
  6.640     0.8126E-2  0.5137E-1  0.5551E-2  -.3621E-1
  6.650     0.8162E-2  0.5219E-1  0.5577E-2  -.3566E-1
  6.660     0.8197E-2  0.5300E-1  0.5603E-2  -.3510E-1
  6.670     0.8234E-2  0.5382E-1  0.5630E-2  -.3454E-1
  6.680     0.8271E-2  0.5464E-1  0.5657E-2  -.3398E-1
  6.690     0.8308E-2  0.5547E-1  0.5685E-2  -.3342E-1
  6.700     0.8347E-2  0.5630E-1  0.5713E-2  -.3285E-1
  6.710     0.8386E-2  0.5714E-1  0.5743E-2  -.3228E-1
  6.720     0.8426E-2  0.5797E-1  0.5773E-2  -.3170E-1
  6.730     0.8467E-2  0.5882E-1  0.5803E-2  -.3113E-1
  6.740     0.8508E-2  0.5966E-1  0.5835E-2  -.3055E-1
  6.750     0.8551E-2  0.6051E-1  0.5867E-2  -.2997E-1
  6.760     0.8594E-2  0.6136E-1  0.5901E-2  -.2938E-1
  6.770     0.8639E-2  0.6222E-1  0.5935E-2  -.2879E-1
  6.780     0.8684E-2  0.6308E-1  0.5970E-2  -.2820E-1
  6.790     0.8731E-2  0.6395E-1  0.6006E-2  -.2761E-1
  6.800     0.8779E-2  0.6482E-1  0.6044E-2  -.2701E-1
  6.810     0.8828E-2  0.6570E-1  0.6082E-2  -.2641E-1
  6.820     0.8879E-2  0.6658E-1  0.6122E-2  -.2580E-1
  6.830     0.8931E-2  0.6746E-1  0.6164E-2  -.2519E-1
  6.840     0.8984E-2  0.6835E-1  0.6206E-2  -.2458E-1
  6.850     0.9039E-2  0.6925E-1  0.6251E-2  -.2396E-1
  6.860     0.9096E-2  0.7015E-1  0.6297E-2  -.2334E-1
  6.870     0.9155E-2  0.7106E-1  0.6344E-2  -.2271E-1
  6.880     0.9216E-2  0.7197E-1  0.6394E-2  -.2208E-1
  6.890     0.9279E-2  0.7288E-1  0.6446E-2  -.2145E-1
  6.900     0.9345E-2  0.7381E-1  0.6500E-2  -.2081E-1
  6.910     0.9413E-2  0.7473E-1  0.6556E-2  -.2017E-1
  6.920     0.9484E-2  0.7567E-1  0.6615E-2  -.1952E-1
  6.930     0.9557E-2  0.7661E-1  0.6676E-2  -.1886E-1
  6.940     0.9634E-2  0.7756E-1  0.6741E-2  -.1820E-1
  6.950     0.9715E-2  0.7851E-1  0.6809E-2  -.1754E-1
  6.960     0.9799E-2  0.7947E-1  0.6880E-2  -.1687E-1
  6.970     0.9887E-2  0.8044E-1  0.6955E-2  -.1619E-1
    6.9800     0.0100     0.0814     0.0070    -0.0155
    6.9900     0.0101     0.0824     0.0071    -0.0148
    7.0000     0.0102     0.0834     0.0072    -0.0141
    7.0100     0.0103     0.0844     0.0073    -0.0134
    7.0200     0.0104     0.0854     0.0074    -0.0127
    7.0300     0.0105     0.0864     0.0075    -0.0120
    7.0400     0.0107     0.0875     0.0076    -0.0112
    7.0500     0.0108     0.0885     0.0077    -0.0105
    7.0600     0.0109     0.0895     0.0079    -0.0098
    7.0700     0.0111     0.0906     0.0080    -0.0090
    7.0800     0.0113     0.0917     0.0082    -0.0082
    7.0900     0.0115     0.0928     0.0083    -0.0075
  7.100     0.1166E-1  0.9384E-1  0.8493E-2  -.6676E-2
  7.110     0.1187E-1  0.9495E-1  0.8682E-2  -.5877E-2
  7.120     0.1211E-1  0.9606E-1  0.8886E-2  -.5066E-2
  7.130     0.1237E-1  0.9719E-1  0.9109E-2  -.4242E-2
  7.140     0.1265E-1  0.9833E-1  0.9353E-2  -.3406E-2
  7.150     0.1295E-1  0.9949E-1  0.9620E-2  -.2558E-2
  7.160     0.1329E-1  0.1007     0.9912E-2  -.1696E-2
  7.170     0.1366E-1  0.1018     0.1023E-1  -.8209E-3
  7.180     0.1407E-1  0.1030     0.1059E-1  0.6686E-4
  7.190     0.1453E-1  0.1042     0.1098E-1  0.9669E-3
  7.200     0.1504E-1  0.1054     0.1142E-1  0.1878E-2
  7.210     0.1560E-1  0.1066     0.1191E-1  0.2799E-2
  7.220     0.1622E-1  0.1077     0.1245E-1  0.3727E-2
  7.230     0.1692E-1  0.1089     0.1305E-1  0.4658E-2
  7.240     0.1768E-1  0.1100     0.1373E-1  0.5587E-2
  7.250     0.1853E-1  0.1111     0.1449E-1  0.6506E-2
    7.2600     0.0195     0.1121     0.0153     0.0074
    7.2700     0.0204     0.1130     0.0163     0.0083
    7.2800     0.0215     0.1138     0.0174     0.0091
    7.2900     0.0226     0.1145     0.0186     0.0098
   7.30000    0.02370    0.11503    0.01991    0.01045
   7.31000    0.02478    0.11540    0.02137    0.01094
   7.32000    0.02579    0.11562    0.02295    0.01123
   7.33000    0.02669    0.11573    0.02464    0.01127
   7.34000    0.02747    0.11576    0.02638    0.01102
   7.35000    0.02813    0.11576    0.02810    0.01042
    7.3600     0.0287     0.1158     0.0297     0.0094
    7.3700     0.0292     0.1158     0.0311     0.0081
  7.380     0.2966E-1  0.1158     0.3219E-1  0.6403E-2
  7.390     0.3014E-1  0.1158     0.3281E-1  0.4483E-2
  7.400     0.3063E-1  0.1158     0.3291E-1  0.2464E-2
  7.410     0.3112E-1  0.1156     0.3249E-1  0.5026E-3
  7.420     0.3156E-1  0.1153     0.3160E-1  -.1257E-2
  7.430     0.3188E-1  0.1149     0.3033E-1  -.2706E-2
  7.440     0.3202E-1  0.1143     0.2881E-1  -.3783E-2
  7.450     0.3190E-1  0.1136     0.2715E-1  -.4473E-2
  7.460     0.3149E-1  0.1129     0.2545E-1  -.4800E-2
  7.470     0.3078E-1  0.1123     0.2379E-1  -.4808E-2
  7.480     0.2981E-1  0.1118     0.2222E-1  -.4550E-2
  7.490     0.2865E-1  0.1116     0.2077E-1  -.4080E-2
  7.500     0.2736E-1  0.1116     0.1945E-1  -.3446E-2
  7.510     0.2603E-1  0.1119     0.1826E-1  -.2689E-2
  7.520     0.2471E-1  0.1124     0.1720E-1  -.1842E-2
  7.530     0.2344E-1  0.1132     0.1625E-1  -.9325E-3
  7.540     0.2226E-1  0.1141     0.1542E-1  0.2081E-4
  7.550     0.2118E-1  0.1151     0.1468E-1  0.1002E-2
  7.560     0.2020E-1  0.1162     0.1403E-1  0.2001E-2
  7.570     0.1932E-1  0.1174     0.1346E-1  0.3009E-2
  7.580     0.1853E-1  0.1187     0.1296E-1  0.4020E-2
  7.590     0.1783E-1  0.1200     0.1251E-1  0.5030E-2
  7.600     0.1721E-1  0.1213     0.1212E-1  0.6036E-2
  7.610     0.1666E-1  0.1226     0.1177E-1  0.7036E-2
    7.6200     0.0162     0.1240     0.0115     0.0080
    7.6300     0.0157     0.1253     0.0112     0.0090
    7.6400     0.0154     0.1266     0.0110     0.0100
   7.65000    0.01502    0.12797    0.01076    0.01097
   7.66000    0.01472    0.12930    0.01059    0.01193
   7.67000    0.01445    0.13062    0.01043    0.01289
   7.68000    0.01422    0.13194    0.01030    0.01384
   7.69000    0.01400    0.13325    0.01020    0.01478
   7.70000    0.01381    0.13455    0.01011    0.01572
   7.71000    0.01364    0.13585    0.01004    0.01666
    7.7200     0.0135     0.1371     0.0100     0.0176
    7.7300     0.0134     0.1384     0.0100     0.0185
    7.7400     0.0132     0.1397     0.0099     0.0194
    7.7500     0.0131     0.1410     0.0099     0.0204
    7.7600     0.0130     0.1422     0.0100     0.0213
   7.77000    0.01294    0.14349    0.01000    0.02218
   7.78000    0.01287    0.14475    0.01006    0.02309
   7.79000    0.01280    0.14600    0.01015    0.02399
   7.80000    0.01274    0.14725    0.01025    0.02489
   7.81000    0.01268    0.14850    0.01038    0.02578
   7.82000    0.01264    0.14974    0.01054    0.02667
   7.83000    0.01259    0.15098    0.01073    0.02754
   7.84000    0.01256    0.15222    0.01095    0.02839
   7.85000    0.01253    0.15346    0.01121    0.02922
   7.86000    0.01250    0.15470    0.01150    0.03002
   7.87000    0.01248    0.15593    0.01182    0.03079
   7.88000    0.01246    0.15717    0.01218    0.03150
   7.89000    0.01244    0.15840    0.01256    0.03214
   7.90000    0.01243    0.15963    0.01296    0.03272
   7.91000    0.01242    0.16086    0.01335    0.03320
   7.92000    0.01241    0.16210    0.01372    0.03359
   7.93000    0.01241    0.16333    0.01403    0.03389
   7.94000    0.01241    0.16456    0.01425    0.03410
   7.95000    0.01241    0.16579    0.01437    0.03427
   7.96000    0.01241    0.16703    0.01436    0.03441
   7.97000    0.01242    0.16826    0.01423    0.03457
   7.98000    0.01242    0.16950    0.01398    0.03479
   7.99000    0.01243    0.17073    0.01365    0.03508
   8.00000    0.01244    0.17197    0.01327    0.03546
# 
# 02/25/2016 at 13:34 YAMBO_RT @ anomaly [start]
# 02/25/2016 at 13:34                    [end]
#  
# Timing   [Min/Max/Average]: 02s/02s/02s
#
# .-Input file : yambo.in
# | optics                       # [R OPT] Optics
# | bse                          # [R BSE] Bethe Salpeter Equation.
# | bsk                          # [R BSK] Bethe Salpeter Equation kernel
# | bss                          # [R BSS] Bethe Salpeter Equation solver
# | em1s                         # [R Xs] Static Inverse Dielectric Matrix
# | BoseTemp= 0.000000     eV    # Bosonic Temperature
# | FFTGvecs=  3317        RL    # [FFT] Plane-waves
# | X_all_q_nCPU_invert= 1       # [PARALLEL] CPUs for matrix inversion
# | BS_nCPU_invert= 1            # [PARALLEL] CPUs for matrix inversion
# | BS_nCPU_diago= 1             # [PARALLEL] CPUs for matrix diagonalization
# | Chimod= "Hartree"            # [X] IP/Hartree/ALDA/LRC/BSfxc
# | BSEmod= "coupling"           # [BSE] resonant/causal/coupling
# | BSKmod= "SEX"                # [BSE] IP/Hartree/HF/ALDA/SEX/BSfxc
# | BSSmod= "d"                  # [BSS] (h)aydock/(d)iagonalization/(i)nversion/(t)ddft`
# | BSENGexx=  3413        RL    # [BSK] Exchange components
# | BSENGBlk= 107          RL    # [BSK] Screened interaction block size
# | % KfnQP_E
# |  1.500000 | 1.000000 | 1.000000 |        # [EXTQP BSK BSS] E parameters  (c/v) eV|adim|adim
# | %
# | Gauge= "length"              # [BSE] Gauge (length|velocity)
# | % BEnRange
# |  3.000000 | 8.000000 | eV    # [BSS] Energy range
# | %
# | % BDmRange
# |   0.10000 |  0.10000 | eV    # [BSS] Damping range
# | %
# | BEnSteps=  501               # [BSS] Energy steps
# | % BLongDir
# | 0.1000E-4 | 0.000    | 0.000    |        # [BSS] [cc] Electric Field
# | %
# | % BSEBands
# |   7 | 10 |                   # [BSK] Bands range
# | %
# | % BndsRnXs
# |    1 |  50 |                 # [Xs] Polarization function bands
# | %
# | NGsBlkXs= 107          RL    # [Xs] Response block size
# | % DmRngeXs
# | 0.1000E-2 |0.1000E-2 | eV    # [Xs] Damping range
# | %
# | % LongDrXs
# | 0.1000E-4 | 0.000    | 0.000    |        # [Xs] [cc] Electric Field
# | %
