#                                                           
#  ____  ____     _       ____    ____  ______      ___     
# |_  _||_  _|   / \     |_   \  /   _||_   _ \   ."   `.   
#   \ \  / /    / _ \      |   \/   |    | |_) | /  .-.  \  
#    \ \/ /    / ___ \     | |\  /| |    |  __". | |   | |  
#    _|  |_  _/ /   \ \_  _| |_\/_| |_  _| |__) |\  `-"  /  
#   |______||____| |____||_____||_____||_______/  `.___."   
#                                                           
#                                                           
#                                                           
#        Version 4.1.2 Revision 14017 Hash 548290a          
#                        MPI Build                          
#                http://www.yambo-code.org                  
#
# EELS @ Q(1)  [q->0 direction]:0.1000E-4  0.000     0.000   
#
#
# - Energies      are Teter 93(XC)+Scissor
# - Wavefunctions are Teter 93(XC)
#
# - The Green`s function is Retarded -
# - Using the Length Gauge -
# - [r,Vnl] *is* included -
#
#   BSK|Identifier              :2087
#      |Dimension               :16
#      |Bands                   :7 - 10
#      |Exchange           [res]: yes
#      |Correlation        [res]: yes
#      |Kernel`s coupling       : yes
#      |Exchange           [cpl]: yes
#      |Correlation        [cpl]: yes
#      |W interaction is bare   : yes
#      |ALDA kernel in R-space  : no
#      |RL vectors    [exchange]:3413
#      |RL vectors [correlation]:107
#      |E/h energy range    [ev]:-1.000000 - -1.000000
#      |Coupling range     [o/o]: 100.0000 -  100.0000
#    W |Interaction is diagonal : yes
#      |Matrix size             :0
#   RIM|RL components      [col]:0
#      |Random points      [col]:0
#
#  E/ev[1]    EEL-Im[2]  EEL-Re[3]  EELo-Im[4] EELo-Re[5]
#
  3.000     0.3194E-2  -.9074E-1  0.7583E-3  -.2696   
  3.010     0.3207E-2  -.9042E-1  0.7610E-3  -.2695   
  3.020     0.3220E-2  -.9010E-1  0.7636E-3  -.2694   
  3.030     0.3233E-2  -.8978E-1  0.7663E-3  -.2693   
  3.040     0.3246E-2  -.8945E-1  0.7690E-3  -.2693   
  3.050     0.3259E-2  -.8913E-1  0.7717E-3  -.2692   
  3.060     0.3272E-2  -.8880E-1  0.7744E-3  -.2691   
  3.070     0.3285E-2  -.8847E-1  0.7771E-3  -.2690   
  3.080     0.3298E-2  -.8814E-1  0.7798E-3  -.2689   
  3.090     0.3312E-2  -.8781E-1  0.7825E-3  -.2689   
  3.100     0.3325E-2  -.8748E-1  0.7852E-3  -.2688   
  3.110     0.3338E-2  -.8715E-1  0.7879E-3  -.2687   
  3.120     0.3351E-2  -.8681E-1  0.7906E-3  -.2686   
  3.130     0.3365E-2  -.8648E-1  0.7933E-3  -.2685   
  3.140     0.3378E-2  -.8614E-1  0.7960E-3  -.2685   
  3.150     0.3391E-2  -.8580E-1  0.7987E-3  -.2684   
  3.160     0.3405E-2  -.8546E-1  0.8015E-3  -.2683   
  3.170     0.3418E-2  -.8512E-1  0.8042E-3  -.2682   
  3.180     0.3432E-2  -.8478E-1  0.8069E-3  -.2681   
  3.190     0.3445E-2  -.8444E-1  0.8096E-3  -.2681   
  3.200     0.3459E-2  -.8409E-1  0.8123E-3  -.2680   
  3.210     0.3472E-2  -.8375E-1  0.8150E-3  -.2679   
  3.220     0.3486E-2  -.8340E-1  0.8178E-3  -.2678   
  3.230     0.3499E-2  -.8305E-1  0.8205E-3  -.2677   
  3.240     0.3513E-2  -.8270E-1  0.8232E-3  -.2677   
  3.250     0.3527E-2  -.8235E-1  0.8259E-3  -.2676   
  3.260     0.3540E-2  -.8199E-1  0.8287E-3  -.2675   
  3.270     0.3554E-2  -.8164E-1  0.8314E-3  -.2674   
  3.280     0.3568E-2  -.8128E-1  0.8341E-3  -.2673   
  3.290     0.3581E-2  -.8092E-1  0.8369E-3  -.2672   
  3.300     0.3595E-2  -.8057E-1  0.8396E-3  -.2672   
  3.310     0.3609E-2  -.8021E-1  0.8423E-3  -.2671   
  3.320     0.3623E-2  -.7984E-1  0.8451E-3  -.2670   
  3.330     0.3637E-2  -.7948E-1  0.8478E-3  -.2669   
  3.340     0.3651E-2  -.7912E-1  0.8506E-3  -.2668   
  3.350     0.3665E-2  -.7875E-1  0.8533E-3  -.2667   
  3.360     0.3679E-2  -.7838E-1  0.8561E-3  -.2667   
  3.370     0.3693E-2  -.7802E-1  0.8588E-3  -.2666   
  3.380     0.3707E-2  -.7765E-1  0.8616E-3  -.2665   
  3.390     0.3721E-2  -.7727E-1  0.8643E-3  -.2664   
  3.400     0.3735E-2  -.7690E-1  0.8671E-3  -.2663   
  3.410     0.3749E-2  -.7653E-1  0.8698E-3  -.2662   
  3.420     0.3763E-2  -.7615E-1  0.8726E-3  -.2661   
  3.430     0.3777E-2  -.7578E-1  0.8754E-3  -.2660   
  3.440     0.3792E-2  -.7540E-1  0.8781E-3  -.2660   
  3.450     0.3806E-2  -.7502E-1  0.8809E-3  -.2659   
  3.460     0.3820E-2  -.7464E-1  0.8836E-3  -.2658   
  3.470     0.3835E-2  -.7425E-1  0.8864E-3  -.2657   
  3.480     0.3849E-2  -.7387E-1  0.8892E-3  -.2656   
  3.490     0.3863E-2  -.7348E-1  0.8920E-3  -.2655   
  3.500     0.3878E-2  -.7310E-1  0.8947E-3  -.2654   
  3.510     0.3892E-2  -.7271E-1  0.8975E-3  -.2653   
  3.520     0.3907E-2  -.7232E-1  0.9003E-3  -.2652   
  3.530     0.3921E-2  -.7193E-1  0.9031E-3  -.2652   
  3.540     0.3936E-2  -.7154E-1  0.9059E-3  -.2651   
  3.550     0.3950E-2  -.7114E-1  0.9086E-3  -.2650   
  3.560     0.3965E-2  -.7075E-1  0.9114E-3  -.2649   
  3.570     0.3980E-2  -.7035E-1  0.9142E-3  -.2648   
  3.580     0.3994E-2  -.6995E-1  0.9170E-3  -.2647   
  3.590     0.4009E-2  -.6955E-1  0.9198E-3  -.2646   
  3.600     0.4024E-2  -.6915E-1  0.9226E-3  -.2645   
  3.610     0.4039E-2  -.6874E-1  0.9254E-3  -.2644   
  3.620     0.4054E-2  -.6834E-1  0.9282E-3  -.2643   
  3.630     0.4069E-2  -.6793E-1  0.9310E-3  -.2642   
  3.640     0.4084E-2  -.6753E-1  0.9338E-3  -.2641   
  3.650     0.4099E-2  -.6712E-1  0.9366E-3  -.2641   
  3.660     0.4114E-2  -.6671E-1  0.9394E-3  -.2640   
  3.670     0.4129E-2  -.6630E-1  0.9422E-3  -.2639   
  3.680     0.4144E-2  -.6588E-1  0.9450E-3  -.2638   
  3.690     0.4159E-2  -.6547E-1  0.9478E-3  -.2637   
  3.700     0.4174E-2  -.6505E-1  0.9506E-3  -.2636   
  3.710     0.4189E-2  -.6463E-1  0.9535E-3  -.2635   
  3.720     0.4204E-2  -.6421E-1  0.9563E-3  -.2634   
  3.730     0.4220E-2  -.6379E-1  0.9591E-3  -.2633   
  3.740     0.4235E-2  -.6337E-1  0.9619E-3  -.2632   
  3.750     0.4250E-2  -.6295E-1  0.9648E-3  -.2631   
  3.760     0.4266E-2  -.6252E-1  0.9676E-3  -.2630   
  3.770     0.4281E-2  -.6209E-1  0.9704E-3  -.2629   
  3.780     0.4297E-2  -.6166E-1  0.9732E-3  -.2628   
  3.790     0.4312E-2  -.6123E-1  0.9761E-3  -.2627   
  3.800     0.4328E-2  -.6080E-1  0.9789E-3  -.2626   
  3.810     0.4343E-2  -.6037E-1  0.9817E-3  -.2625   
  3.820     0.4359E-2  -.5993E-1  0.9846E-3  -.2624   
  3.830     0.4375E-2  -.5950E-1  0.9874E-3  -.2623   
  3.840     0.4390E-2  -.5906E-1  0.9903E-3  -.2622   
  3.850     0.4406E-2  -.5862E-1  0.9931E-3  -.2621   
  3.860     0.4422E-2  -.5818E-1  0.9960E-3  -.2620   
  3.870     0.4438E-2  -.5773E-1  0.9988E-3  -.2619   
  3.880     0.4454E-2  -.5729E-1  0.1002E-2  -.2618   
  3.890     0.4470E-2  -.5684E-1  0.1005E-2  -.2617   
  3.900     0.4485E-2  -.5640E-1  0.1007E-2  -.2616   
  3.910     0.4502E-2  -.5595E-1  0.1010E-2  -.2615   
  3.920     0.4518E-2  -.5550E-1  0.1013E-2  -.2614   
  3.930     0.4534E-2  -.5504E-1  0.1016E-2  -.2613   
  3.940     0.4550E-2  -.5459E-1  0.1019E-2  -.2612   
  3.950     0.4566E-2  -.5413E-1  0.1022E-2  -.2611   
  3.960     0.4582E-2  -.5368E-1  0.1025E-2  -.2610   
  3.970     0.4599E-2  -.5322E-1  0.1027E-2  -.2609   
  3.980     0.4615E-2  -.5276E-1  0.1030E-2  -.2608   
  3.990     0.4631E-2  -.5230E-1  0.1033E-2  -.2607   
  4.000     0.4648E-2  -.5183E-1  0.1036E-2  -.2606   
  4.010     0.4664E-2  -.5137E-1  0.1039E-2  -.2605   
  4.020     0.4681E-2  -.5090E-1  0.1042E-2  -.2604   
  4.030     0.4697E-2  -.5043E-1  0.1045E-2  -.2603   
  4.040     0.4714E-2  -.4996E-1  0.1048E-2  -.2602   
  4.050     0.4731E-2  -.4949E-1  0.1051E-2  -.2601   
  4.060     0.4747E-2  -.4901E-1  0.1053E-2  -.2600   
  4.070     0.4764E-2  -.4854E-1  0.1056E-2  -.2599   
  4.080     0.4781E-2  -.4806E-1  0.1059E-2  -.2598   
  4.090     0.4798E-2  -.4758E-1  0.1062E-2  -.2597   
  4.100     0.4815E-2  -.4710E-1  0.1065E-2  -.2596   
  4.110     0.4832E-2  -.4662E-1  0.1068E-2  -.2594   
  4.120     0.4849E-2  -.4614E-1  0.1071E-2  -.2593   
  4.130     0.4866E-2  -.4565E-1  0.1074E-2  -.2592   
  4.140     0.4883E-2  -.4516E-1  0.1077E-2  -.2591   
  4.150     0.4901E-2  -.4468E-1  0.1080E-2  -.2590   
  4.160     0.4918E-2  -.4418E-1  0.1083E-2  -.2589   
  4.170     0.4935E-2  -.4369E-1  0.1085E-2  -.2588   
  4.180     0.4953E-2  -.4320E-1  0.1088E-2  -.2587   
  4.190     0.4970E-2  -.4270E-1  0.1091E-2  -.2586   
  4.200     0.4988E-2  -.4221E-1  0.1094E-2  -.2585   
  4.210     0.5006E-2  -.4171E-1  0.1097E-2  -.2584   
  4.220     0.5024E-2  -.4121E-1  0.1100E-2  -.2583   
  4.230     0.5041E-2  -.4070E-1  0.1103E-2  -.2581   
  4.240     0.5059E-2  -.4020E-1  0.1106E-2  -.2580   
  4.250     0.5077E-2  -.3969E-1  0.1109E-2  -.2579   
  4.260     0.5095E-2  -.3919E-1  0.1112E-2  -.2578   
  4.270     0.5113E-2  -.3868E-1  0.1115E-2  -.2577   
  4.280     0.5131E-2  -.3817E-1  0.1118E-2  -.2576   
  4.290     0.5149E-2  -.3765E-1  0.1121E-2  -.2575   
  4.300     0.5167E-2  -.3714E-1  0.1124E-2  -.2574   
  4.310     0.5185E-2  -.3662E-1  0.1127E-2  -.2573   
  4.320     0.5202E-2  -.3610E-1  0.1130E-2  -.2571   
  4.330     0.5220E-2  -.3558E-1  0.1133E-2  -.2570   
  4.340     0.5238E-2  -.3506E-1  0.1135E-2  -.2569   
  4.350     0.5256E-2  -.3454E-1  0.1138E-2  -.2568   
  4.360     0.5273E-2  -.3401E-1  0.1141E-2  -.2567   
  4.370     0.5291E-2  -.3348E-1  0.1144E-2  -.2566   
  4.380     0.5309E-2  -.3296E-1  0.1147E-2  -.2565   
  4.390     0.5327E-2  -.3242E-1  0.1150E-2  -.2563   
  4.400     0.5346E-2  -.3189E-1  0.1153E-2  -.2562   
  4.410     0.5364E-2  -.3136E-1  0.1156E-2  -.2561   
  4.420     0.5382E-2  -.3082E-1  0.1159E-2  -.2560   
  4.430     0.5400E-2  -.3028E-1  0.1162E-2  -.2559   
  4.440     0.5419E-2  -.2974E-1  0.1165E-2  -.2558   
  4.450     0.5438E-2  -.2920E-1  0.1168E-2  -.2556   
  4.460     0.5456E-2  -.2865E-1  0.1171E-2  -.2555   
  4.470     0.5475E-2  -.2811E-1  0.1174E-2  -.2554   
  4.480     0.5494E-2  -.2756E-1  0.1177E-2  -.2553   
  4.490     0.5513E-2  -.2701E-1  0.1180E-2  -.2552   
  4.500     0.5531E-2  -.2646E-1  0.1183E-2  -.2551   
  4.510     0.5550E-2  -.2590E-1  0.1186E-2  -.2549   
  4.520     0.5570E-2  -.2535E-1  0.1189E-2  -.2548   
  4.530     0.5589E-2  -.2479E-1  0.1192E-2  -.2547   
  4.540     0.5608E-2  -.2423E-1  0.1195E-2  -.2546   
  4.550     0.5627E-2  -.2367E-1  0.1198E-2  -.2545   
  4.560     0.5647E-2  -.2310E-1  0.1201E-2  -.2543   
  4.570     0.5666E-2  -.2254E-1  0.1204E-2  -.2542   
  4.580     0.5685E-2  -.2197E-1  0.1207E-2  -.2541   
  4.590     0.5705E-2  -.2140E-1  0.1210E-2  -.2540   
  4.600     0.5725E-2  -.2083E-1  0.1213E-2  -.2539   
  4.610     0.5744E-2  -.2026E-1  0.1217E-2  -.2537   
  4.620     0.5764E-2  -.1968E-1  0.1220E-2  -.2536   
  4.630     0.5784E-2  -.1911E-1  0.1223E-2  -.2535   
  4.640     0.5804E-2  -.1853E-1  0.1226E-2  -.2534   
  4.650     0.5824E-2  -.1794E-1  0.1229E-2  -.2532   
  4.660     0.5844E-2  -.1736E-1  0.1232E-2  -.2531   
  4.670     0.5864E-2  -.1678E-1  0.1235E-2  -.2530   
  4.680     0.5884E-2  -.1619E-1  0.1238E-2  -.2529   
  4.690     0.5905E-2  -.1560E-1  0.1241E-2  -.2528   
  4.700     0.5925E-2  -.1501E-1  0.1244E-2  -.2526   
  4.710     0.5945E-2  -.1442E-1  0.1247E-2  -.2525   
  4.720     0.5966E-2  -.1382E-1  0.1250E-2  -.2524   
  4.730     0.5986E-2  -.1322E-1  0.1253E-2  -.2523   
  4.740     0.6007E-2  -.1262E-1  0.1256E-2  -.2521   
  4.750     0.6028E-2  -.1202E-1  0.1259E-2  -.2520   
  4.760     0.6048E-2  -.1142E-1  0.1262E-2  -.2519   
  4.770     0.6069E-2  -.1081E-1  0.1265E-2  -.2518   
  4.780     0.6090E-2  -.1021E-1  0.1269E-2  -.2516   
  4.790     0.6111E-2  -.9596E-2  0.1272E-2  -.2515   
  4.800     0.6132E-2  -.8984E-2  0.1275E-2  -.2514   
  4.810     0.6154E-2  -.8370E-2  0.1278E-2  -.2512   
  4.820     0.6175E-2  -.7753E-2  0.1281E-2  -.2511   
  4.830     0.6196E-2  -.7135E-2  0.1284E-2  -.2510   
  4.840     0.6218E-2  -.6515E-2  0.1287E-2  -.2509   
  4.850     0.6239E-2  -.5892E-2  0.1290E-2  -.2507   
  4.860     0.6261E-2  -.5267E-2  0.1293E-2  -.2506   
  4.870     0.6282E-2  -.4641E-2  0.1296E-2  -.2505   
  4.880     0.6304E-2  -.4012E-2  0.1300E-2  -.2503   
  4.890     0.6326E-2  -.3380E-2  0.1303E-2  -.2502   
  4.900     0.6348E-2  -.2747E-2  0.1306E-2  -.2501   
  4.910     0.6370E-2  -.2111E-2  0.1309E-2  -.2499   
  4.920     0.6392E-2  -.1474E-2  0.1312E-2  -.2498   
  4.930     0.6414E-2  -.8335E-3  0.1315E-2  -.2497   
  4.940     0.6437E-2  -.1913E-3  0.1318E-2  -.2496   
  4.950     0.6459E-2  0.4532E-3  0.1321E-2  -.2494   
  4.960     0.6482E-2  0.1100E-2  0.1325E-2  -.2493   
  4.970     0.6504E-2  0.1749E-2  0.1328E-2  -.2492   
  4.980     0.6527E-2  0.2400E-2  0.1331E-2  -.2490   
  4.990     0.6550E-2  0.3054E-2  0.1334E-2  -.2489   
  5.000     0.6573E-2  0.3709E-2  0.1337E-2  -.2488   
  5.010     0.6596E-2  0.4367E-2  0.1340E-2  -.2486   
  5.020     0.6619E-2  0.5028E-2  0.1344E-2  -.2485   
  5.030     0.6642E-2  0.5690E-2  0.1347E-2  -.2484   
  5.040     0.6666E-2  0.6355E-2  0.1350E-2  -.2482   
  5.050     0.6689E-2  0.7023E-2  0.1353E-2  -.2481   
  5.060     0.6713E-2  0.7692E-2  0.1356E-2  -.2480   
  5.070     0.6737E-2  0.8364E-2  0.1359E-2  -.2478   
  5.080     0.6760E-2  0.9039E-2  0.1363E-2  -.2477   
  5.090     0.6785E-2  0.9715E-2  0.1366E-2  -.2475   
  5.100     0.6809E-2  0.1039E-1  0.1369E-2  -.2474   
  5.110     0.6833E-2  0.1108E-1  0.1372E-2  -.2473   
  5.120     0.6858E-2  0.1176E-1  0.1375E-2  -.2471   
  5.130     0.6882E-2  0.1245E-1  0.1378E-2  -.2470   
  5.140     0.6907E-2  0.1313E-1  0.1382E-2  -.2469   
  5.150     0.6932E-2  0.1383E-1  0.1385E-2  -.2467   
  5.160     0.6958E-2  0.1452E-1  0.1388E-2  -.2466   
  5.170     0.6983E-2  0.1522E-1  0.1391E-2  -.2464   
  5.180     0.7009E-2  0.1591E-1  0.1394E-2  -.2463   
  5.190     0.7035E-2  0.1661E-1  0.1398E-2  -.2462   
  5.200     0.7062E-2  0.1732E-1  0.1401E-2  -.2460   
  5.210     0.7088E-2  0.1802E-1  0.1404E-2  -.2459   
  5.220     0.7115E-2  0.1873E-1  0.1407E-2  -.2457   
  5.230     0.7143E-2  0.1944E-1  0.1411E-2  -.2456   
  5.240     0.7171E-2  0.2016E-1  0.1414E-2  -.2455   
  5.250     0.7199E-2  0.2087E-1  0.1417E-2  -.2453   
  5.260     0.7228E-2  0.2159E-1  0.1420E-2  -.2452   
  5.270     0.7257E-2  0.2231E-1  0.1424E-2  -.2450   
  5.280     0.7286E-2  0.2303E-1  0.1427E-2  -.2449   
  5.290     0.7316E-2  0.2375E-1  0.1430E-2  -.2447   
  5.300     0.7345E-2  0.2448E-1  0.1433E-2  -.2446   
  5.310     0.7375E-2  0.2520E-1  0.1437E-2  -.2445   
  5.320     0.7404E-2  0.2593E-1  0.1440E-2  -.2443   
  5.330     0.7432E-2  0.2666E-1  0.1443E-2  -.2442   
  5.340     0.7460E-2  0.2739E-1  0.1446E-2  -.2440   
  5.350     0.7486E-2  0.2813E-1  0.1450E-2  -.2439   
  5.360     0.7512E-2  0.2887E-1  0.1453E-2  -.2437   
  5.370     0.7536E-2  0.2961E-1  0.1456E-2  -.2436   
  5.380     0.7560E-2  0.3035E-1  0.1459E-2  -.2434   
  5.390     0.7583E-2  0.3110E-1  0.1463E-2  -.2433   
  5.400     0.7606E-2  0.3185E-1  0.1466E-2  -.2432   
  5.410     0.7629E-2  0.3260E-1  0.1469E-2  -.2430   
  5.420     0.7653E-2  0.3336E-1  0.1473E-2  -.2429   
  5.430     0.7677E-2  0.3412E-1  0.1476E-2  -.2427   
  5.440     0.7701E-2  0.3489E-1  0.1479E-2  -.2426   
  5.450     0.7726E-2  0.3566E-1  0.1482E-2  -.2424   
  5.460     0.7751E-2  0.3643E-1  0.1486E-2  -.2423   
  5.470     0.7776E-2  0.3720E-1  0.1489E-2  -.2421   
  5.480     0.7802E-2  0.3798E-1  0.1492E-2  -.2420   
  5.490     0.7829E-2  0.3876E-1  0.1496E-2  -.2418   
  5.500     0.7856E-2  0.3954E-1  0.1499E-2  -.2417   
  5.510     0.7883E-2  0.4032E-1  0.1502E-2  -.2415   
  5.520     0.7910E-2  0.4111E-1  0.1506E-2  -.2414   
  5.530     0.7938E-2  0.4190E-1  0.1509E-2  -.2412   
  5.540     0.7966E-2  0.4270E-1  0.1512E-2  -.2411   
  5.550     0.7994E-2  0.4349E-1  0.1516E-2  -.2409   
  5.560     0.8023E-2  0.4429E-1  0.1519E-2  -.2408   
  5.570     0.8052E-2  0.4510E-1  0.1522E-2  -.2406   
  5.580     0.8081E-2  0.4590E-1  0.1526E-2  -.2405   
  5.590     0.8110E-2  0.4671E-1  0.1529E-2  -.2403   
  5.600     0.8140E-2  0.4752E-1  0.1532E-2  -.2402   
  5.610     0.8170E-2  0.4834E-1  0.1536E-2  -.2400   
  5.620     0.8200E-2  0.4916E-1  0.1539E-2  -.2398   
  5.630     0.8230E-2  0.4998E-1  0.1543E-2  -.2397   
  5.640     0.8260E-2  0.5080E-1  0.1546E-2  -.2395   
  5.650     0.8291E-2  0.5163E-1  0.1549E-2  -.2394   
  5.660     0.8322E-2  0.5246E-1  0.1553E-2  -.2392   
  5.670     0.8353E-2  0.5329E-1  0.1556E-2  -.2391   
  5.680     0.8385E-2  0.5413E-1  0.1559E-2  -.2389   
  5.690     0.8416E-2  0.5497E-1  0.1563E-2  -.2388   
  5.700     0.8448E-2  0.5581E-1  0.1566E-2  -.2386   
  5.710     0.8480E-2  0.5665E-1  0.1570E-2  -.2385   
  5.720     0.8512E-2  0.5750E-1  0.1573E-2  -.2383   
  5.730     0.8545E-2  0.5835E-1  0.1576E-2  -.2381   
  5.740     0.8578E-2  0.5921E-1  0.1580E-2  -.2380   
  5.750     0.8611E-2  0.6007E-1  0.1583E-2  -.2378   
  5.760     0.8644E-2  0.6093E-1  0.1587E-2  -.2377   
  5.770     0.8678E-2  0.6180E-1  0.1590E-2  -.2375   
  5.780     0.8711E-2  0.6266E-1  0.1594E-2  -.2373   
  5.790     0.8745E-2  0.6354E-1  0.1597E-2  -.2372   
  5.800     0.8780E-2  0.6441E-1  0.1600E-2  -.2370   
  5.810     0.8814E-2  0.6529E-1  0.1604E-2  -.2369   
  5.820     0.8849E-2  0.6617E-1  0.1607E-2  -.2367   
  5.830     0.8884E-2  0.6706E-1  0.1611E-2  -.2365   
  5.840     0.8919E-2  0.6795E-1  0.1614E-2  -.2364   
  5.850     0.8955E-2  0.6884E-1  0.1618E-2  -.2362   
  5.860     0.8991E-2  0.6974E-1  0.1621E-2  -.2361   
  5.870     0.9027E-2  0.7064E-1  0.1625E-2  -.2359   
  5.880     0.9064E-2  0.7154E-1  0.1628E-2  -.2357   
  5.890     0.9101E-2  0.7245E-1  0.1631E-2  -.2356   
  5.900     0.9138E-2  0.7336E-1  0.1635E-2  -.2354   
  5.910     0.9175E-2  0.7427E-1  0.1638E-2  -.2352   
  5.920     0.9213E-2  0.7519E-1  0.1642E-2  -.2351   
  5.930     0.9251E-2  0.7611E-1  0.1645E-2  -.2349   
  5.940     0.9290E-2  0.7704E-1  0.1649E-2  -.2348   
  5.950     0.9328E-2  0.7797E-1  0.1652E-2  -.2346   
  5.960     0.9368E-2  0.7890E-1  0.1656E-2  -.2344   
  5.970     0.9407E-2  0.7984E-1  0.1659E-2  -.2343   
  5.980     0.9447E-2  0.8078E-1  0.1663E-2  -.2341   
  5.990     0.9487E-2  0.8173E-1  0.1666E-2  -.2339   
  6.000     0.9528E-2  0.8268E-1  0.1670E-2  -.2338   
  6.010     0.9569E-2  0.8363E-1  0.1673E-2  -.2336   
  6.020     0.9611E-2  0.8459E-1  0.1677E-2  -.2334   
  6.030     0.9653E-2  0.8555E-1  0.1680E-2  -.2333   
  6.040     0.9695E-2  0.8651E-1  0.1684E-2  -.2331   
  6.050     0.9738E-2  0.8748E-1  0.1688E-2  -.2329   
  6.060     0.9781E-2  0.8846E-1  0.1691E-2  -.2327   
  6.070     0.9825E-2  0.8944E-1  0.1695E-2  -.2326   
  6.080     0.9869E-2  0.9042E-1  0.1698E-2  -.2324   
  6.090     0.9914E-2  0.9141E-1  0.1702E-2  -.2322   
  6.100     0.9959E-2  0.9240E-1  0.1705E-2  -.2321   
  6.110     0.1001E-1  0.9340E-1  0.1709E-2  -.2319   
  6.120     0.1005E-1  0.9440E-1  0.1712E-2  -.2317   
  6.130     0.1010E-1  0.9540E-1  0.1716E-2  -.2316   
  6.140     0.1015E-1  0.9641E-1  0.1720E-2  -.2314   
  6.150     0.1019E-1  0.9743E-1  0.1723E-2  -.2312   
  6.160     0.1024E-1  0.9845E-1  0.1727E-2  -.2310   
  6.170     0.1029E-1  0.9947E-1  0.1730E-2  -.2309   
  6.180     0.1034E-1  0.1005     0.1734E-2  -.2307   
  6.190     0.1039E-1  0.1015     0.1737E-2  -.2305   
  6.200     0.1044E-1  0.1026     0.1741E-2  -.2303   
  6.210     0.1050E-1  0.1036     0.1745E-2  -.2302   
  6.220     0.1055E-1  0.1047     0.1748E-2  -.2300   
  6.230     0.1060E-1  0.1057     0.1752E-2  -.2298   
  6.240     0.1066E-1  0.1068     0.1756E-2  -.2296   
  6.250     0.1071E-1  0.1079     0.1759E-2  -.2295   
  6.260     0.1077E-1  0.1089     0.1763E-2  -.2293   
  6.270     0.1083E-1  0.1100     0.1766E-2  -.2291   
  6.280     0.1089E-1  0.1111     0.1770E-2  -.2289   
  6.290     0.1095E-1  0.1122     0.1774E-2  -.2288   
  6.300     0.1101E-1  0.1133     0.1777E-2  -.2286   
  6.310     0.1107E-1  0.1144     0.1781E-2  -.2284   
  6.320     0.1113E-1  0.1155     0.1785E-2  -.2282   
  6.330     0.1119E-1  0.1166     0.1788E-2  -.2281   
  6.340     0.1126E-1  0.1177     0.1792E-2  -.2279   
  6.350     0.1132E-1  0.1188     0.1796E-2  -.2277   
  6.360     0.1139E-1  0.1200     0.1799E-2  -.2275   
  6.370     0.1146E-1  0.1211     0.1803E-2  -.2273   
  6.380     0.1153E-1  0.1222     0.1807E-2  -.2272   
  6.390     0.1160E-1  0.1234     0.1810E-2  -.2270   
  6.400     0.1168E-1  0.1245     0.1814E-2  -.2268   
  6.410     0.1175E-1  0.1257     0.1818E-2  -.2266   
  6.420     0.1183E-1  0.1269     0.1821E-2  -.2264   
  6.430     0.1191E-1  0.1281     0.1825E-2  -.2262   
  6.440     0.1199E-1  0.1293     0.1829E-2  -.2261   
  6.450     0.1207E-1  0.1305     0.1833E-2  -.2259   
  6.460     0.1216E-1  0.1317     0.1836E-2  -.2257   
  6.470     0.1224E-1  0.1329     0.1840E-2  -.2255   
  6.480     0.1233E-1  0.1341     0.1844E-2  -.2253   
  6.490     0.1242E-1  0.1353     0.1847E-2  -.2251   
  6.500     0.1252E-1  0.1366     0.1851E-2  -.2250   
  6.510     0.1262E-1  0.1378     0.1855E-2  -.2248   
  6.520     0.1272E-1  0.1391     0.1859E-2  -.2246   
  6.530     0.1282E-1  0.1403     0.1862E-2  -.2244   
  6.540     0.1293E-1  0.1416     0.1866E-2  -.2242   
  6.550     0.1304E-1  0.1429     0.1870E-2  -.2240   
  6.560     0.1315E-1  0.1442     0.1874E-2  -.2238   
  6.570     0.1327E-1  0.1455     0.1878E-2  -.2237   
  6.580     0.1339E-1  0.1468     0.1881E-2  -.2235   
  6.590     0.1352E-1  0.1481     0.1885E-2  -.2233   
  6.600     0.1365E-1  0.1495     0.1889E-2  -.2231   
  6.610     0.1379E-1  0.1508     0.1893E-2  -.2229   
  6.620     0.1393E-1  0.1522     0.1896E-2  -.2227   
  6.630     0.1408E-1  0.1536     0.1900E-2  -.2225   
  6.640     0.1423E-1  0.1550     0.1904E-2  -.2223   
  6.650     0.1439E-1  0.1564     0.1908E-2  -.2221   
  6.660     0.1456E-1  0.1578     0.1912E-2  -.2219   
  6.670     0.1474E-1  0.1592     0.1915E-2  -.2218   
  6.680     0.1492E-1  0.1607     0.1919E-2  -.2216   
  6.690     0.1511E-1  0.1622     0.1923E-2  -.2214   
  6.700     0.1531E-1  0.1636     0.1927E-2  -.2212   
  6.710     0.1553E-1  0.1651     0.1931E-2  -.2210   
  6.720     0.1575E-1  0.1667     0.1935E-2  -.2208   
  6.730     0.1599E-1  0.1682     0.1939E-2  -.2206   
  6.740     0.1624E-1  0.1698     0.1942E-2  -.2204   
  6.750     0.1650E-1  0.1714     0.1946E-2  -.2202   
  6.760     0.1678E-1  0.1730     0.1950E-2  -.2200   
  6.770     0.1708E-1  0.1746     0.1954E-2  -.2198   
  6.780     0.1740E-1  0.1762     0.1958E-2  -.2196   
  6.790     0.1773E-1  0.1779     0.1962E-2  -.2194   
  6.800     0.1809E-1  0.1796     0.1966E-2  -.2192   
  6.810     0.1848E-1  0.1813     0.1970E-2  -.2190   
  6.820     0.1889E-1  0.1831     0.1973E-2  -.2188   
  6.830     0.1933E-1  0.1849     0.1977E-2  -.2186   
  6.840     0.1981E-1  0.1867     0.1981E-2  -.2184   
  6.850     0.2032E-1  0.1886     0.1985E-2  -.2182   
  6.860     0.2088E-1  0.1905     0.1989E-2  -.2180   
  6.870     0.2148E-1  0.1924     0.1993E-2  -.2178   
  6.880     0.2213E-1  0.1944     0.1997E-2  -.2176   
  6.890     0.2284E-1  0.1964     0.2001E-2  -.2174   
  6.900     0.2362E-1  0.1984     0.2005E-2  -.2172   
  6.910     0.2446E-1  0.2005     0.2009E-2  -.2170   
  6.920     0.2539E-1  0.2027     0.2013E-2  -.2168   
  6.930     0.2642E-1  0.2048     0.2017E-2  -.2166   
  6.940     0.2755E-1  0.2070     0.2021E-2  -.2164   
  6.950     0.2880E-1  0.2093     0.2025E-2  -.2162   
  6.960     0.3018E-1  0.2116     0.2029E-2  -.2160   
  6.970     0.3172E-1  0.2140     0.2033E-2  -.2158   
  6.980     0.3344E-1  0.2163     0.2037E-2  -.2156   
  6.990     0.3536E-1  0.2187     0.2041E-2  -.2154   
  7.000     0.3751E-1  0.2211     0.2045E-2  -.2152   
  7.010     0.3992E-1  0.2235     0.2049E-2  -.2150   
  7.020     0.4263E-1  0.2258     0.2053E-2  -.2148   
  7.030     0.4566E-1  0.2280     0.2057E-2  -.2146   
  7.040     0.4907E-1  0.2301     0.2061E-2  -.2144   
  7.050     0.5289E-1  0.2320     0.2065E-2  -.2142   
  7.060     0.5715E-1  0.2336     0.2069E-2  -.2140   
  7.070     0.6186E-1  0.2348     0.2073E-2  -.2138   
  7.080     0.6701E-1  0.2355     0.2077E-2  -.2136   
  7.090     0.7257E-1  0.2354     0.2081E-2  -.2134   
  7.100     0.7843E-1  0.2344     0.2085E-2  -.2132   
  7.110     0.8442E-1  0.2323     0.2089E-2  -.2130   
  7.120     0.9027E-1  0.2290     0.2093E-2  -.2127   
  7.130     0.9563E-1  0.2243     0.2097E-2  -.2125   
  7.140     0.1001     0.2184     0.2101E-2  -.2123   
  7.150     0.1032     0.2114     0.2105E-2  -.2121   
  7.160     0.1048     0.2038     0.2109E-2  -.2119   
  7.170     0.1045     0.1960     0.2113E-2  -.2117   
  7.180     0.1024     0.1886     0.2117E-2  -.2115   
  7.190     0.9886E-1  0.1820     0.2121E-2  -.2113   
  7.200     0.9413E-1  0.1765     0.2126E-2  -.2111   
  7.210     0.8865E-1  0.1724     0.2130E-2  -.2108   
  7.220     0.8281E-1  0.1696     0.2134E-2  -.2106   
  7.230     0.7695E-1  0.1680     0.2138E-2  -.2104   
  7.240     0.7128E-1  0.1674     0.2142E-2  -.2102   
  7.250     0.6596E-1  0.1677     0.2146E-2  -.2100   
  7.260     0.6107E-1  0.1686     0.2150E-2  -.2098   
  7.270     0.5663E-1  0.1701     0.2155E-2  -.2096   
  7.280     0.5264E-1  0.1719     0.2159E-2  -.2093   
  7.290     0.4908E-1  0.1740     0.2163E-2  -.2091   
  7.300     0.4591E-1  0.1763     0.2167E-2  -.2089   
  7.310     0.4310E-1  0.1788     0.2171E-2  -.2087   
  7.320     0.4061E-1  0.1813     0.2175E-2  -.2085   
  7.330     0.3840E-1  0.1838     0.2180E-2  -.2083   
  7.340     0.3645E-1  0.1864     0.2184E-2  -.2080   
  7.350     0.3471E-1  0.1889     0.2188E-2  -.2078   
  7.360     0.3317E-1  0.1915     0.2192E-2  -.2076   
  7.370     0.3179E-1  0.1940     0.2196E-2  -.2074   
  7.380     0.3056E-1  0.1965     0.2201E-2  -.2072   
  7.390     0.2947E-1  0.1990     0.2205E-2  -.2069   
  7.400     0.2849E-1  0.2014     0.2209E-2  -.2067   
  7.410     0.2761E-1  0.2038     0.2213E-2  -.2065   
  7.420     0.2682E-1  0.2062     0.2217E-2  -.2063   
  7.430     0.2611E-1  0.2086     0.2222E-2  -.2061   
  7.440     0.2547E-1  0.2109     0.2226E-2  -.2058   
  7.450     0.2489E-1  0.2132     0.2230E-2  -.2056   
  7.460     0.2438E-1  0.2154     0.2234E-2  -.2054   
  7.470     0.2391E-1  0.2176     0.2239E-2  -.2052   
  7.480     0.2349E-1  0.2198     0.2243E-2  -.2049   
  7.490     0.2311E-1  0.2220     0.2247E-2  -.2047   
  7.500     0.2277E-1  0.2242     0.2252E-2  -.2045   
  7.510     0.2246E-1  0.2263     0.2256E-2  -.2043   
  7.520     0.2219E-1  0.2284     0.2260E-2  -.2040   
  7.530     0.2194E-1  0.2305     0.2265E-2  -.2038   
  7.540     0.2173E-1  0.2326     0.2269E-2  -.2036   
  7.550     0.2154E-1  0.2347     0.2273E-2  -.2034   
  7.560     0.2137E-1  0.2367     0.2277E-2  -.2031   
  7.570     0.2122E-1  0.2388     0.2282E-2  -.2029   
  7.580     0.2110E-1  0.2408     0.2286E-2  -.2027   
  7.590     0.2100E-1  0.2429     0.2291E-2  -.2024   
  7.600     0.2092E-1  0.2449     0.2295E-2  -.2022   
  7.610     0.2086E-1  0.2469     0.2299E-2  -.2020   
  7.620     0.2082E-1  0.2489     0.2304E-2  -.2018   
  7.630     0.2080E-1  0.2509     0.2308E-2  -.2015   
  7.640     0.2081E-1  0.2528     0.2312E-2  -.2013   
  7.650     0.2083E-1  0.2548     0.2317E-2  -.2011   
  7.660     0.2088E-1  0.2568     0.2321E-2  -.2008   
  7.670     0.2096E-1  0.2587     0.2326E-2  -.2006   
  7.680     0.2106E-1  0.2607     0.2330E-2  -.2004   
  7.690     0.2118E-1  0.2626     0.2334E-2  -.2001   
  7.700     0.2134E-1  0.2645     0.2339E-2  -.1999   
  7.710     0.2152E-1  0.2664     0.2343E-2  -.1997   
  7.720     0.2173E-1  0.2682     0.2348E-2  -.1994   
  7.730     0.2197E-1  0.2701     0.2352E-2  -.1992   
  7.740     0.2222E-1  0.2718     0.2357E-2  -.1990   
  7.750     0.2248E-1  0.2735     0.2361E-2  -.1987   
  7.760     0.2273E-1  0.2752     0.2365E-2  -.1985   
  7.770     0.2296E-1  0.2767     0.2370E-2  -.1983   
  7.780     0.2315E-1  0.2783     0.2374E-2  -.1980   
  7.790     0.2327E-1  0.2797     0.2379E-2  -.1978   
  7.800     0.2332E-1  0.2812     0.2383E-2  -.1975   
  7.810     0.2328E-1  0.2826     0.2388E-2  -.1973   
  7.820     0.2316E-1  0.2841     0.2392E-2  -.1971   
  7.830     0.2297E-1  0.2856     0.2397E-2  -.1968   
  7.840     0.2274E-1  0.2872     0.2401E-2  -.1966   
  7.850     0.2248E-1  0.2888     0.2406E-2  -.1963   
  7.860     0.2221E-1  0.2905     0.2410E-2  -.1961   
  7.870     0.2194E-1  0.2923     0.2415E-2  -.1959   
  7.880     0.2169E-1  0.2941     0.2420E-2  -.1956   
  7.890     0.2145E-1  0.2959     0.2424E-2  -.1954   
  7.900     0.2124E-1  0.2978     0.2429E-2  -.1951   
  7.910     0.2106E-1  0.2997     0.2433E-2  -.1949   
  7.920     0.2090E-1  0.3016     0.2438E-2  -.1946   
  7.930     0.2076E-1  0.3036     0.2442E-2  -.1944   
  7.940     0.2064E-1  0.3055     0.2447E-2  -.1942   
  7.950     0.2054E-1  0.3075     0.2452E-2  -.1939   
  7.960     0.2045E-1  0.3095     0.2456E-2  -.1937   
  7.970     0.2038E-1  0.3114     0.2461E-2  -.1934   
  7.980     0.2033E-1  0.3134     0.2465E-2  -.1932   
  7.990     0.2028E-1  0.3154     0.2470E-2  -.1929   
  8.000     0.2025E-1  0.3174     0.2475E-2  -.1927   
# 
# 12/21/2016 at 16:09 YAMBO @ anomaly [start]
# 12/21/2016 at 16:09                 [end]
#
# .-Input file : INPUTS/07_hf_eh_space
# | optics                       # [R OPT] Optics
# | bse                          # [R BSE] Bethe Salpeter Equation.
# | bsk                          # [R BSK] Bethe Salpeter Equation kernel
# | bss                          # [R BSS] Bethe Salpeter Equation solver
# | BoseTemp= 0.000000     eV    # Bosonic Temperature
# | FFTGvecs=  3317        RL    # [FFT] Plane-waves
# | BSEmod= "coupling"           # [BSE] resonant/retarded/coupling
# | BSKmod= "HF"                 # [BSE] IP/Hartree/HF/ALDA/SEX/BSfxc
# | BSSmod= "d"                  # [BSS] (h)aydock/(d)iagonalization/(i)nversion/(t)ddft`
# | BSENGexx=  3413        RL    # [BSK] Exchange components
# | BSENGBlk= 107          RL    # [BSK] Screened interaction block size
# | % KfnQP_E
# |  7.000000 | 1.000000 | 1.000000 |        # [EXTQP BSK BSS] E parameters  (c/v) eV|adim|adim
# | %
# | % BEnRange
# |  3.000000 | 8.000000 | eV    # [BSS] Energy range
# | %
# | % BDmRange
# |   0.10000 |  0.10000 | eV    # [BSS] Damping range
# | %
# | BEnSteps=  501               # [BSS] Energy steps
# | % BLongDir
# | 0.1000E-4 | 0.000    | 0.000    |        # [BSS] [cc] Electric Field
# | %
# | % BSEBands
# |   7 | 10 |                   # [BSK] Bands range
# | %
