#                                                           
# ooooo   oooo ..     ooo        ooo ooooooooo.    .oooo.   
#  `88.   .8" .88.    `88.       .88 `88"   `Y8b  dP"  `Yb  
#   `88. .8" .8"88.    888b     d"88  88     888 88      88 
#    `88.8" .8" `88.   8 Y88. .P  88  88oooo888" 88      88 
#     `88" .88ooo888.  8  `888"   88  88    `88b 88      88 
#      88 .8"     `88. 8    Y     88  88    .88P `8b    d8" 
#     o88o88o      888o8          88 o88bood8P"   `Ybod8P"  
#                                                           
#                                                           
#                Version 4.0.2 Revision 5719                
#                         MPI Build                         
#                 http://www.yambo-code.org                 
#
# Joint density of states @ Q(1) [q->0 direction] :0.1000E-4  0.000     0.000   
#
# - Energies      are Teter 93(XC)
# - The Green`s function is causal -
#
#   BSK|Identifier              :9866
#      |Dimension               :16
#      |Bands                   :7 - 10
#      |Exchange           [res]: yes
#      |Correlation        [res]: no
#      |Kernel`s coupling       : yes
#      |Exchange           [cpl]: yes
#      |Correlation        [cpl]: no
#      |W interaction is bare   : no
#      |ALDA kernel in R-space  : no
#      |RL vectors    [exchange]:3413
#      |E/h energy range    [ev]:-1.000000 - -1.000000
#      |Coupling range     [o/o]: 100.0000 -  100.0000
#
#  E/ev[1]    jdos /jdos jdos0/jdos jdoso-Im[4]jdoso-Re[5]jdos`-Im[6]jdos`-Re[7]
#
  3.000000   0.167835   2.559421   0.171033   5.392145
  3.010000   0.169340   2.576193   0.173047   5.409230
  3.020000   0.170871   2.593116   0.175097   5.426514
  3.030000   0.172428   2.610190   0.177183   5.444002
  3.040000   0.174013   2.627420   0.179307   5.461698
  3.050000   0.175625   2.644807   0.181471   5.479604
  3.060000   0.177266   2.662355   0.183674   5.497725
  3.070000   0.178936   2.680066   0.185919   5.516065
  3.080000   0.180636   2.697942   0.188205   5.534626
  3.090000   0.182367   2.715988   0.190535   5.553416
  3.100000   0.184129   2.734206   0.192909   5.572436
  3.110000   0.185924   2.752599   0.195329   5.591692
  3.120000   0.187751   2.771170   0.197797   5.611188
  3.130000   0.189613   2.789923   0.200312   5.630929
  3.140000   0.191509   2.808860   0.202878   5.650918
  3.150000   0.193441   2.827986   0.205494   5.671162
  3.160000   0.195410   2.847304   0.208164   5.691665
  3.170000   0.197416   2.866817   0.210887   5.712432
  3.180000   0.199461   2.886529   0.213667   5.733468
  3.190000   0.201546   2.906443   0.216504   5.754780
  3.200000   0.203672   2.926565   0.219400   5.776372
  3.210000   0.205840   2.946897   0.222357   5.798253
  3.220000   0.208050   2.967445   0.225378   5.820423
  3.230000   0.210305   2.988211   0.228463   5.842894
  3.240000   0.212606   3.009202   0.231615   5.865668
  3.250000   0.214953   3.030420   0.234836   5.888753
  3.260000   0.217349   3.051870   0.238129   5.912158
  3.270000   0.219794   3.073558   0.241495   5.935888
  3.280000   0.222291   3.095488   0.244937   5.959949
  3.290000   0.224840   3.117665   0.248457   5.984350
  3.300000   0.227442   3.140094   0.252058   6.009099
  3.310000   0.230101   3.162781   0.255743   6.034203
  3.320000   0.232817   3.185730   0.259515   6.059668
  3.330000   0.235592   3.208949   0.263375   6.085505
  3.340000   0.238429   3.232441   0.267329   6.111723
  3.350000   0.241328   3.256215   0.271378   6.138330
  3.360000   0.244292   3.280273   0.275525   6.165335
  3.370000   0.247322   3.304625   0.279776   6.192748
  3.380000   0.250422   3.329276   0.284132   6.220577
  3.390000   0.253593   3.354232   0.288599   6.248837
  3.400000   0.256837   3.379503   0.293180   6.277534
  3.410000   0.260158   3.405092   0.297878   6.306681
  3.420000   0.263556   3.431009   0.302700   6.336287
  3.430000   0.267036   3.457261   0.307648   6.366366
  3.440000   0.270600   3.483855   0.312728   6.396930
  3.450000   0.274250   3.510801   0.317945   6.427991
  3.460000   0.277990   3.538104   0.323305   6.459563
  3.470000   0.281822   3.565776   0.328812   6.491658
  3.480000   0.285751   3.593826   0.334474   6.524292
  3.490000   0.289778   3.622261   0.340295   6.557477
  3.500000   0.293909   3.651091   0.346282   6.591231
  3.510000   0.298146   3.680328   0.352442   6.625568
  3.520000   0.302493   3.709980   0.358783   6.660508
  3.530000   0.306955   3.740059   0.365311   6.696062
  3.540000   0.311536   3.770574   0.372036   6.732251
  3.550000   0.316240   3.801539   0.378964   6.769094
  3.560000   0.321071   3.832963   0.386105   6.806608
  3.570000   0.326036   3.864861   0.393468   6.844815
  3.580000   0.331138   3.897244   0.401064   6.883736
  3.590000   0.336383   3.930126   0.408901   6.923390
  3.600000   0.341778   3.963520   0.416993   6.963805
  3.610000   0.347327   3.997439   0.425349   7.004998
  3.620000   0.353037   4.031901   0.433983   7.046999
  3.630000   0.358915   4.066918   0.442907   7.089830
  3.640000   0.364967   4.102508   0.452136   7.133520
  3.650000   0.371202   4.138686   0.461684   7.178097
  3.660000   0.377626   4.175471   0.471566   7.223591
  3.670000   0.384248   4.212880   0.481800   7.270030
  3.680000   0.391076   4.250929   0.492402   7.317448
  3.690000   0.398119   4.289643   0.503392   7.365880
  3.700000   0.405387   4.329038   0.514790   7.415359
  3.710000   0.412889   4.369135   0.526617   7.465924
  3.720000   0.420638   4.409958   0.538896   7.517614
  3.730000   0.428643   4.451530   0.551650   7.570465
  3.740000   0.436916   4.493872   0.564906   7.624526
  3.750000   0.445470   4.537011   0.578692   7.679839
  3.760000   0.454320   4.580973   0.593037   7.736451
  3.770000   0.463477   4.625784   0.607974   7.794412
  3.780000   0.472959   4.671475   0.623535   7.853776
  3.790000   0.482781   4.718073   0.639759   7.914594
  3.800000   0.492959   4.765611   0.656684   7.976926
  3.810000   0.503513   4.814121   0.674352   8.040833
  3.820000   0.514460   4.863637   0.692810   8.106382
  3.830000   0.525823   4.914196   0.712106   8.173638
  3.840000   0.537622   4.965834   0.732294   8.242676
  3.850000   0.549881   5.018591   0.753430   8.313570
  3.860000   0.562625   5.072509   0.775578   8.386397
  3.870000   0.575881   5.127632   0.798804   8.461249
  3.880000   0.589677   5.184003   0.823181   8.538208
  3.890000   0.604044   5.241672   0.848788   8.617373
  3.900000   0.619015   5.300689   0.875710   8.698844
  3.910000   0.634625   5.361108   0.904042   8.782729
  3.920000   0.650911   5.422985   0.933886   8.869140
  3.930000   0.667915   5.486378   0.965353   8.958199
  3.940000   0.685679   5.551350   0.998565   9.050031
  3.950000   0.704252   5.617966   1.033655   9.144773
  3.960000   0.723685   5.686296   1.070768   9.242572
  3.970000   0.744031   5.756416   1.110067   9.343576
  3.980000   0.765351   5.828399   1.151727   9.447950
  3.990000   0.787709   5.902328   1.195943   9.555868
  4.000000   0.811174   5.978292   1.242929   9.667515
  4.010000   0.835823   6.056382   1.292923   9.783085
  4.020000   0.861736   6.136694   1.346188   9.902787
   4.03000    0.88900    6.21933    1.40302   10.02684
   4.04000    0.91772    6.30441    1.46373   10.15549
   4.05000    0.94800    6.39203    1.52869   10.28897
   4.06000    0.97995    6.48233    1.59831   10.42756
   4.07000    1.01371    6.57544    1.67303   10.57153
   4.08000    1.04940    6.67149    1.75336   10.72118
   4.09000    1.08719    6.77063    1.83987   10.87683
   4.10000    1.12723    6.87303    1.93319   11.03879
   4.11000    1.16972    6.97884    2.03405   11.20741
   4.12000    1.21486    7.08824    2.14327   11.38304
   4.13000    1.26288    7.20143    2.26176   11.56605
   4.14000    1.31401    7.31860    2.39059   11.75681
   4.15000    1.36854    7.43997    2.53095   11.95570
   4.16000    1.42678    7.56576    2.68419   12.16307
   4.17000    1.48906    7.69623    2.85189   12.37928
   4.18000    1.55577    7.83161    3.03583   12.60462
   4.19000    1.62733    7.97219    3.23806   12.83937
   4.20000    1.70421    8.11826    3.46094   13.08368
   4.21000    1.78696    8.27010    3.70718   13.33759
   4.22000    1.87617    8.42805    3.97993   13.60098
   4.23000    1.97251    8.59243    4.28275   13.87342
   4.24000    2.07676    8.76360    4.61982   14.15419
   4.25000    2.18977    8.94190    4.99590   14.44204
   4.26000    2.31253    9.12772    5.41645   14.73506
   4.27000    2.44616    9.32141    5.88769   15.03047
   4.28000    2.59193    9.52334    6.41665   15.32426
   4.29000    2.75128    9.73388    7.01115   15.61079
   4.30000    2.92589    9.95335    7.67972   15.88233
   4.31000    3.11766   10.18204    8.43141   16.12832
   4.32000    3.32877   10.42015    9.27529   16.33466
   4.33000    3.56176   10.66781   10.21964   16.48279
   4.34000    3.81952   10.92496   11.27070   16.54874
   4.35000    4.10538   11.19136   12.43056   16.50242
   4.36000    4.42321   11.46644   13.69435   16.30732
   4.37000    4.77743   11.74925   15.04639   15.92147
   4.38000    5.17311   12.03823   16.45582   15.30014
   4.39000    5.61607   12.33109   17.87249   14.40148
   4.40000    6.11290   12.62448   19.22493   13.19535
   4.41000    6.67097   12.91366   20.42283   11.67468
   4.42000    7.29844   13.19206   21.36651    9.86676
   4.43000    8.00409   13.45067   21.96346    7.83939
   4.44000    8.79700   13.67734   22.14860    5.69706
   4.45000    9.68585   13.85593   21.90096    3.56579
   4.46000   10.67804   13.96545   21.24950    1.56934
   4.47000   11.77797   13.97914   20.26518   -0.19299
   4.48000   12.98462   13.86398   19.04305   -1.66010
   4.49000   14.28825   13.58095   17.68221   -2.81097
   4.50000   15.66635   13.08674   16.27032   -3.65728
   4.51000   17.07929   12.33781   14.87539   -4.23182
   4.52000   18.46720   11.29749   13.54419   -4.57744
   4.53000   19.74988    9.94600   12.30477   -4.73870
   4.54000   20.83257    8.29183   11.17075   -4.75681
   4.55000   21.61858    6.38078   10.14564   -4.66724
   4.56000   22.02772    4.29764    9.22648   -4.49903
   4.57000   22.01499    2.15685    8.40657   -4.27518
   4.58000   21.58231    0.08373    7.67748   -4.01349
   4.59000   20.77800   -1.80907    7.03008   -3.72739
   4.60000   19.68415   -3.43973    6.45539   -3.42691
   4.61000   18.39774   -4.76553    5.94499   -3.11940
   4.62000   17.01264   -5.78042    5.49119   -2.81018
   4.63000   15.60754   -6.50578    5.08709   -2.50303
   4.64000   14.24071   -6.97897    4.72663   -2.20057
   4.65000   12.95038   -7.24364    4.40446   -1.90457
   4.66000   11.75802   -7.34280    4.11592   -1.61617
   4.67000   10.67264   -7.31505    3.85698   -1.33602
  4.680000   9.694797  -7.192915   3.624112  -1.064481
  4.690000   8.819850  -7.002703   3.414277  -0.801633
  4.700000   8.040301  -6.765038   3.224830  -0.547403
  4.710000   7.347381  -6.495725   3.053473  -0.301590
   4.72000    6.73205   -6.20666    2.89821   -0.06392
  4.730000   6.185578  -5.906649   2.757300   0.165953
  4.740000   5.699877  -5.602131   2.629228   0.388383
  4.750000   5.267622  -5.297720   2.512669   0.603757
  4.760000   4.882289  -4.996671   2.406462   0.812467
  4.770000   4.538136  -4.701221   2.309587   1.014901
  4.780000   4.230134  -4.412854   2.221152   1.211443
  4.790000   3.953906  -4.132493   2.140366   1.402468
  4.800000   3.705647  -3.860663   2.066535   1.588334
  4.810000   3.482045  -3.597581   1.999042   1.769400
  4.820000   3.280256  -3.343289   1.937348   1.945984
  4.830000   3.097781  -3.097643   1.880968   2.118410
  4.840000   2.932460  -2.860411   1.829474   2.286988
  4.850000   2.782411  -2.631292   1.782485   2.452001
  4.860000   2.645997  -2.409941   1.739662   2.613731
  4.870000   2.521785  -2.195987   1.700705   2.772442
  4.880000   2.408526  -1.989046   1.665344   2.928384
  4.890000   2.305122  -1.788732   1.633341   3.081799
  4.900001   2.210605  -1.594654   1.604481   3.232921
  4.910000   2.124136  -1.406452   1.578577   3.381959
  4.920001   2.044965  -1.223753   1.555460   3.529133
  4.930000   1.972430  -1.046205   1.534980   3.674641
  4.940001   1.905950  -0.873471   1.517004   3.818682
  4.950000   1.845006  -0.705228   1.501418   3.961443
  4.960001   1.789139  -0.541168   1.488119   4.103107
  4.970000   1.737943  -0.380996   1.477018   4.243852
  4.980000   1.691054  -0.224432   1.468039   4.383849
   4.99000    1.64815   -0.07121    1.46112    4.52327
   5.00000    1.60894    0.07892    1.45620    4.66227
  5.010000   1.573174   0.226212   1.453235   4.801025
  5.020000   1.540618   0.370884   1.452199   4.939685
  5.030000   1.511071   0.513164   1.453061   5.078412
  5.040000   1.484350   0.653258   1.455808   5.217362
  5.050000   1.460296   0.791373   1.460430   5.356692
  5.060000   1.438766   0.927697   1.466929   5.496559
  5.070000   1.419633   1.062421   1.475317   5.637118
  5.080000   1.402787   1.195725   1.485611   5.778528
  5.090000   1.388131   1.327782   1.497839   5.920947
  5.100000   1.375581   1.458763   1.512040   6.064540
  5.110000   1.365065   1.588827   1.528259   6.209468
  5.120000   1.356522   1.718140   1.546551   6.355903
  5.130000   1.349902   1.846857   1.566986   6.504011
  5.140000   1.345166   1.975132   1.589638   6.653975
  5.150000   1.342283   2.103118   1.614600   6.805971
  5.160000   1.341232   2.230964   1.641973   6.960188
  5.170000   1.342003   2.358825   1.671874   7.116829
  5.180000   1.344593   2.486839   1.704432   7.276078
  5.190000   1.349008   2.615161   1.739796   7.438153
  5.200000   1.355265   2.743937   1.778130   7.603270
  5.210000   1.363390   2.873323   1.819620   7.771662
  5.220000   1.373418   3.003466   1.864473   7.943559
  5.230000   1.385395   3.134523   1.912920   8.119213
  5.240000   1.399378   3.266649   1.965221   8.298886
  5.250000   1.415434   3.400007   2.021664   8.482850
  5.260001   1.433645   3.534763   2.082576   8.671402
  5.270000   1.454101   3.671078   2.148314   8.864829
  5.280000   1.476912   3.809131   2.219287   9.063453
  5.290000   1.502200   3.949100   2.295949   9.267608
  5.300000   1.530105   4.091167   2.378814   9.477641
  5.310000   1.560788   4.235534   2.468456   9.693918
  5.320000   1.594428   4.382398   2.565525   9.916821
   5.33000    1.63123    4.53196    2.67075   10.14675
   5.34000    1.67142    4.68445    2.78497   10.38410
   5.35000    1.71526    4.84008    2.90912   10.62932
   5.36000    1.76305    4.99910    3.04427   10.88281
   5.37000    1.81511    5.16175    3.19163   11.14502
   5.38000    1.87182    5.32829    3.35259   11.41637
   5.39000    1.93360    5.49898    3.52873   11.69726
   5.40000    2.00094    5.67410    3.72188   11.98807
   5.41000    2.07436    5.85393    3.93411   12.28913
   5.42000    2.15450    6.03877    4.16782   12.60066
   5.43000    2.24205    6.22891    4.42575   12.92277
   5.44000    2.33781    6.42465    4.71107   13.25541
   5.45000    2.44270    6.62628    5.02743   13.59824
   5.46000    2.55776    6.83408    5.37904   13.95058
   5.47000    2.68419    7.04832    5.77070   14.31130
   5.48000    2.82337    7.26920    6.20795   14.67855
   5.49000    2.97687    7.49691    6.69706   15.04963
   5.50000    3.14652    7.73151    7.24513   15.42061
   5.51000    3.33440    7.97298    7.86006   15.78595
   5.52000    3.54295    8.22112    8.55050   16.13799
   5.53000    3.77493    8.47548    9.32551   16.46625
   5.54000    4.03353    8.73531   10.19427   16.75672
   5.55000    4.32242    8.99941   11.16518   16.99092
   5.56000    4.64575    9.26601   12.24452   17.14494
   5.57000    5.00823    9.53250   13.43447   17.18878
   5.58000    5.41510    9.79525   14.73020   17.08604
   5.59000    5.87208   10.04917   16.11608   16.79482
   5.60000    6.38523   10.28738   17.56124   16.27059
   5.61000    6.96068   10.50061   19.01557   15.47168
   5.62000    7.60398   10.67661   20.40749   14.36831
   5.63000    8.31939   10.79960   21.64682   12.95388
   5.64000    9.10845   10.84968   22.63409   11.25619
   5.65000    9.96811   10.80271   23.27721    9.34362
   5.66000   10.88818   10.63086   23.51168    7.32124
   5.67000   11.84842   10.30443   23.31731    5.31524
   5.68000   12.81578    9.79553   22.72380    3.44957
   5.69000   13.74302    9.08392   21.80282    1.82354
   5.70000   14.57027    8.16460   20.64991    0.49817
   5.71000   15.23124    7.05531   19.36469   -0.50557
   5.72000   15.66410    5.80079   18.03518   -1.19923
   5.73000   15.82509    4.47046   16.72980   -1.61544
   5.74000   15.69967    3.14818   15.49586   -1.79672
   5.75000   15.30661    1.91689   14.36203   -1.78726
   5.76000   14.69290    0.84345   13.34271   -1.62785
   5.77000   13.92190   -0.03065   12.44233   -1.35351
   5.78000   13.05998   -0.69067   11.65902   -0.99283
   5.79000   12.16609   -1.14376   10.98740   -0.56840
   5.80000   11.28616   -1.41138   10.42043   -0.09755
   5.81000   10.45200   -1.52178    9.95070    0.40664
  5.820000   9.682923  -1.504470   9.571171   0.934487
  5.830000   8.988594  -1.386741   9.275654   1.478894
  5.840000   8.371921  -1.192072   9.059017   2.034699
  5.850000   7.831527  -0.939660   8.917330   2.598119
  5.860000   7.363585  -0.644655   8.847896   3.166308
  5.870000   6.963100  -0.318674   8.849290   3.736997
   5.88000    6.62478    0.02952    8.92136    4.30806
  5.890000   6.343479   0.393499   9.065198   4.877343
  5.900000   6.114532   0.768615   9.283187   5.442211
  5.910000   5.933912   1.151567   9.578949   5.999244
  5.920000   5.798283   1.540069   9.957324   6.543777
   5.93000    5.70503    1.93257   10.42428    7.06941
   5.94000    5.65226    2.32802   10.98671    7.56738
   5.95000    5.63876    2.72573   11.65206    8.02581
   5.96000    5.66406    3.12518   12.42771    8.42884
   5.97000    5.72832    3.52586   13.31977    8.75565
   5.98000    5.83245    3.92724   14.33159    8.97967
   5.99000    5.97801    4.32851   15.46117    9.06793
   6.00000    6.16730    4.72850   16.69779    8.98137
   6.01000    6.40334    5.12542   18.01784    8.67654
   6.02000    6.68987    5.51670   19.38037    8.10975
   6.03000    7.03131    5.89861   20.72380    7.24430
   6.04000    7.43266    6.26595   21.96583    6.06087
   6.05000    7.89934    6.61155   23.00935    4.56928
   6.06000    8.43678    6.92571   23.75568    2.81784
   6.07000    9.04983    7.19566   24.12375    0.89495
   6.08000    9.74175    7.40484   24.06952   -1.08088
   6.09000   10.51278    7.53257   23.59784   -2.98135
   6.10000   11.35799    7.55392   22.76105   -4.69246
   6.11000   12.26469    7.44062   21.64513   -6.13322
   6.12000   13.20941    7.16327   20.34969   -7.26324
   6.13000   14.15540    6.69556   18.96964   -8.07924
   6.14000   15.05181    6.02066   17.58331   -8.60490
   6.15000   15.83635    5.13903   16.24803   -8.87902
   6.16000   16.44273    4.07541   15.00086   -8.94579
   6.17000   16.81265    2.88166   13.86239   -8.84810
   6.18000   16.90922    1.63242   12.84115   -8.62398
   6.19000   16.72676    0.41309   11.93765   -8.30525
   6.20000   16.29250   -0.69607   11.14762   -7.91741
   6.21000   15.65940   -1.63402   10.46430   -7.48033
   6.22000   14.89339   -2.36620    9.87995   -7.00916
   6.23000   14.06037   -2.88408    9.38685   -6.51524
   6.24000   13.21713   -3.19923    8.97795   -6.00700
   6.25000   12.40685   -3.33559    8.64706   -5.49064
   6.26000   11.65897   -3.32237    8.38910   -4.97072
   6.27000   10.99135   -3.18904    8.20016   -4.45072
   6.28000   10.41314   -2.96255    8.07749   -3.93339
  6.290000   9.927671  -2.666061   8.019506  -3.421174
  6.300000   9.534770  -2.318824   8.025772  -2.916486
  6.310000   9.232442  -1.936638   8.096944  -2.422077
  6.320001   9.018015  -1.532552   8.234726  -1.941360
  6.330000   8.888825  -1.117750   8.441746  -1.478870
  6.340001   8.842538  -0.702267   8.721427  -1.040628
  6.350000   8.877184  -0.295827   9.077683  -0.634716
   6.36000    8.99093    0.09146    9.51445   -0.27190
   6.37000    9.18157    0.44850   10.03490    0.03374
   6.38000    9.44568    0.76278   10.64029    0.26425
   6.39000    9.77751    1.02026   11.32824    0.39739
   6.40000   10.16753    1.20583   12.09042    0.40695
   6.41000   10.60096    1.30460   12.90969    0.26391
   6.42000   11.05664    1.30420   13.75719   -0.06056
   6.43000   11.50708    1.19822   14.59021   -0.59015
   6.44000   11.92043    0.99000   15.35245   -1.33633
   6.45000   12.26504    0.69567   15.97828   -2.29049
   6.46000   12.51582    0.34442   16.40200   -3.41805
   6.47000   12.66076   -0.02497   16.57084   -4.65798
   6.48000   12.70482   -0.37116   16.45763   -5.93007
   6.49000   12.66932   -0.65845   16.06811   -7.14897
   6.50000   12.58727   -0.86318   15.43915   -8.24010
   6.51000   12.49667   -0.97646   14.62904   -9.15166
   6.52000   12.43425   -1.00335   13.70398   -9.85898
   6.53000   12.43144   -0.95988   12.72616  -10.36173
   6.54000   12.51248   -0.86973   11.74631  -10.67682
   6.55000   12.69400   -0.76157   10.80099  -10.83072
   6.56000   12.98525   -0.66748    9.91344  -10.85298
   6.57000   13.38784   -0.62216    9.09608  -10.77206
   6.58000   13.89499   -0.66229    8.35349  -10.61302
   6.59000   14.48969   -0.82548    7.68506  -10.39678
   6.60000   15.14256   -1.14768    7.08703  -10.14006
   6.61000   15.81012   -1.65882    6.55402   -9.85584
   6.62000   16.43498   -2.37624    6.07993   -9.55401
   6.63000   16.94964   -3.29689    5.65870   -9.24196
   6.64000   17.28556   -4.39160    5.28446   -8.92508
   6.65000   17.38575   -5.60376    4.95180   -8.60727
   6.66000   17.21780   -6.85595    4.65589   -8.29126
   6.67000   16.78200   -8.06344    4.39241   -7.97893
   6.68000   16.11069   -9.15034    4.15760   -7.67153
   6.69000   15.25916  -10.06233    3.94816   -7.36982
   6.70000   14.29233  -10.77201    3.76123   -7.07422
   6.71000   13.27242  -11.27675    3.59432   -6.78489
   6.72000   12.25089  -11.59208    3.44530   -6.50181
   6.73000   11.26525  -11.74377    3.31233   -6.22481
   6.74000   10.33958  -11.76131    3.19380   -5.95366
   6.75000    9.48687  -11.67341    3.08834   -5.68804
   6.76000    8.71201  -11.50557    2.99479   -5.42758
   6.77000    8.01452  -11.27914    2.91212   -5.17191
   6.78000    7.39059  -11.01124    2.83947   -4.92060
   6.79000    6.83472  -10.71520    2.77610   -4.67325
   6.80000    6.34063  -10.40116    2.72139   -4.42942
   6.81000    5.90201  -10.07668    2.67483   -4.18870
  6.820000   5.512784  -9.747314   2.635964  -3.950650
  6.830000   5.167380  -9.417016   2.604454  -3.714845
  6.840000   4.860771  -9.088593   2.580025  -3.480860
  6.850000   4.588496  -8.763933   2.562469  -3.248273
  6.860000   4.346650  -8.444285   2.551644  -3.016656
  6.870000   4.131824  -8.130387   2.547475  -2.785594
  6.880000   3.941070  -7.822632   2.549944  -2.554656
  6.890000   3.771842  -7.521142   2.559095  -2.323419
  6.900000   3.621950  -7.225842   2.575035  -2.091453
  6.910000   3.489520  -6.936530   2.597932  -1.858328
  6.920000   3.372951  -6.652900   2.628018  -1.623603
  6.930000   3.270875  -6.374576   2.665597  -1.386834
  6.940000   3.182148  -6.101141   2.711048  -1.147572
  6.950000   3.105799  -5.832141   2.764828  -0.905357
  6.960000   3.041035  -5.567098   2.827489  -0.659726
  6.970000   2.987202  -5.305529   2.899679  -0.410205
  6.980000   2.943787  -5.046916   2.982165  -0.156301
  6.990001   2.910410  -4.790802   3.075822   0.102422
  7.000000   2.886795  -4.536668   3.181688   0.366463
  7.010001   2.872787  -4.284015   3.300958   0.636285
  7.020000   2.868339  -4.032343   3.435019   0.912337
  7.030001   2.873514  -3.781161   3.585472   1.195031
  7.040000   2.888487  -3.529978   3.754172   1.484735
  7.050001   2.913546  -3.278312   3.943264   1.781736
  7.060000   2.949104  -3.025691   4.155230   2.086215
  7.070001   2.995706  -2.771651   4.392938   2.398193
  7.080000   3.054039  -2.515752   4.659707   2.717472
  7.090001   3.124949  -2.257574   4.959371   3.043542
  7.100000   3.209461  -1.996740   5.296350   3.375479
  7.110001   3.308802  -1.732918   5.675727   3.711778
  7.120000   3.424428  -1.465853   6.103315   4.050150
  7.130001   3.558053  -1.195387   6.585721   4.387257
  7.140000   3.711690  -0.921501   7.130352   4.718346
  7.150000   3.887691  -0.644369   7.745405   5.036796
  7.160000   4.088793  -0.364422   8.439685   5.333527
   7.17000    4.31817   -0.08245    9.22229    5.59628
   7.18000    4.57947    0.20029   10.10200    5.80876
   7.19000    4.87687    0.48188   11.08619    5.94972
   7.20000    5.21509    0.75955   12.17922    5.99209
   7.21000    5.59938    1.02937   13.37992    5.90244
   7.22000    6.03547    1.28592   14.67827    5.64120
   7.23000    6.52935    1.52179   16.05119    5.16449
   7.24000    7.08695    1.72708   17.45814    4.42821
   7.25000    7.71356    1.88877   18.83781    3.39536
   7.26000    8.41281    1.99011   20.10813    2.04640
   7.27000    9.18524    2.01020   21.17223    0.39106
   7.28000   10.02625    1.92392   21.93172   -1.52239
   7.29000   10.92344    1.70272   22.30595   -3.60563
   7.30000   11.85363    1.31691   22.25139   -5.74034
   7.31000   12.78035    0.73974   21.77335   -7.79864
   7.32000   13.65294   -0.04619   20.92456   -9.66712
   7.33000   14.40919   -1.04124   19.79101  -11.26562
   7.34000   14.98245   -2.22138   18.47239  -12.55423
   7.35000   15.31388   -3.53566   17.06322  -13.53049
   7.36000   15.36566   -4.91012   15.64139  -14.21861
   7.37000   15.13096   -6.25972   14.26365  -14.65788
   7.38000   14.63582   -7.50423   12.96651  -14.89286
   7.39000   13.93213   -8.58236   11.76987  -14.96679
   7.40000   13.08492   -9.45923   10.68154  -14.91804
   7.41000   12.15932  -10.12604    9.70124  -14.77870
   7.42000   11.21125  -10.59421    8.82376  -14.57458
   7.43000   10.28297  -10.88758    8.04130  -14.32583
   7.44000    9.40276  -11.03530    7.34491  -14.04783
   7.45000    8.58703  -11.06675    6.72547  -13.75214
   7.46000    7.84316  -11.00861    6.17426  -13.44729
   7.47000    7.17240  -10.88357    5.68321  -13.13951
   7.48000    6.57212  -10.71004    5.24503  -12.83325
   7.49000    6.03754  -10.50249    4.85327  -12.53164
   7.50000    5.56289  -10.27206    4.50222  -12.23683
   7.51000    5.14209  -10.02710    4.18690  -11.95023
   7.52000    4.76926   -9.77382    3.90298  -11.67272
   7.53000    4.43890   -9.51675    3.64669  -11.40480
   7.54000    4.14605   -9.25911    3.41475  -11.14665
   7.55000    3.88626   -9.00318    3.20434  -10.89830
   7.56000    3.65563   -8.75050    3.01297  -10.65960
   7.57000    3.45077   -8.50209    2.83852  -10.43031
   7.58000    3.26871   -8.25854    2.67910  -10.21013
  7.590000   3.106901  -8.020185   2.533101  -9.998730
  7.600000   2.963149  -7.787125   2.399082  -9.795731
  7.610000   2.835562  -7.559320   2.275803  -9.600762
  7.620000   2.722521  -7.336610   2.162166  -9.413449
  7.630000   2.622641  -7.118762   2.057207  -9.233418
  7.640000   2.534746  -6.905484   1.960076  -9.060305
  7.650000   2.457840  -6.696454   1.870022  -8.893765
  7.660000   2.391085  -6.491322   1.786380  -8.733456
  7.670000   2.333786  -6.289724   1.708558  -8.579062
  7.680001   2.285372  -6.091271   1.636025  -8.430262
  7.690001   2.245400  -5.895620   1.568323  -8.286798
  7.700001   2.213521  -5.702379   1.505029  -8.148376
  7.710001   2.189492  -5.511179   1.445766  -8.014747
  7.720001   2.173166  -5.321648   1.390197  -7.885662
  7.730000   2.164490  -5.133430   1.338021  -7.760893
  7.740001   2.163504  -4.946173   1.288964  -7.640229
  7.750000   2.170349  -4.759540   1.242781  -7.523460
  7.760001   2.185263  -4.573208   1.199248  -7.410399
  7.770000   2.208590  -4.386878   1.158165  -7.300868
  7.780001   2.240791  -4.200278   1.119349  -7.194696
  7.790000   2.282451  -4.013170   1.082633  -7.091724
  7.800001   2.334302  -3.825367   1.047865  -6.991807
  7.810000   2.397224  -3.636755   1.014909  -6.894795
  7.820001   2.472276  -3.447303   0.983638  -6.800563
  7.830000   2.560717  -3.257106   0.953937  -6.708985
  7.840001   2.664022  -3.066429   0.925701  -6.619941
  7.850000   2.783912  -2.875758   0.898831  -6.533320
  7.860000   2.922373  -2.685883   0.873240  -6.449021
  7.870000   3.081669  -2.497995   0.848846  -6.366940
  7.880000   3.264343  -2.313824   0.825573  -6.286987
  7.890000   3.473186  -2.135808   0.803352  -6.209073
  7.900000   3.711170  -1.967308   0.782119  -6.133112
  7.910000   3.981293  -1.812865   0.761814  -6.059029
  7.920000   4.286312  -1.678506   0.742383  -5.986746
  7.930000   4.628321  -1.572043   0.723774  -5.916193
  7.940000   5.008077  -1.503332   0.705941  -5.847301
  7.950000   5.424048  -1.484360   0.688839  -5.780009
  7.960000   5.871160  -1.528965   0.672428  -5.714256
  7.970000   6.339329  -1.651933   0.656670  -5.649982
  7.980000   6.812091  -1.867172   0.641530  -5.587136
  7.990000   7.265878  -2.184788   0.626974  -5.525663
  8.000000   7.670816  -2.607315   0.612972  -5.465515
# 
# 05/04/2016 at 18:38 YAMBO_RT @ narro [start]
# 05/04/2016 at 18:38                  [end]
#
# .-Input file : yambo.in
# | optics                       # [R OPT] Optics
# | bse                          # [R BSE] Bethe Salpeter Equation.
# | bsk                          # [R BSK] Bethe Salpeter Equation kernel
# | bss                          # [R BSS] Bethe Salpeter Equation solver
# | BoseTemp= 0.000000     eV    # Bosonic Temperature
# | FFTGvecs=  3317        RL    # [FFT] Plane-waves
# | BS_nCPU_invert= 1            # [PARALLEL] CPUs for matrix inversion
# | BS_nCPU_diago= 1             # [PARALLEL] CPUs for matrix diagonalization
# | BSEmod= "coupling"           # [BSE] resonant/causal/coupling
# | BSKmod= "Hartree"            # [BSE] IP/Hartree/HF/ALDA/SEX/BSfxc
# | BSSmod= "d"                  # [BSS] (h)aydock/(d)iagonalization/(i)nversion/(t)ddft`
# | BSENGexx=  3413        RL    # [BSK] Exchange components
# | Gauge= "length"              # [BSE] Gauge (length|velocity)
# | % BEnRange
# |  3.000000 | 8.000000 | eV    # [BSS] Energy range
# | %
# | % BDmRange
# |   0.10000 |  0.10000 | eV    # [BSS] Damping range
# | %
# | BEnSteps=  501               # [BSS] Energy steps
# | % BLongDir
# | 0.1000E-4 | 0.000    | 0.000    |        # [BSS] [cc] Electric Field
# | %
# | % BSEBands
# |   7 | 10 |                   # [BSK] Bands range
# | %
