#                                                           
# Y88b    /   e           e    e      888~~\    ,88~-_      
#  Y88b  /   d8b         d8b  d8b     888   |  d888   \     
#   Y88b/   /Y88b       d888bdY88b    888 _/  88888    |    
#    Y8Y   /  Y88b     / Y88Y Y888b   888  \  88888    |    
#     Y   /____Y88b   /   YY   Y888b  888   |  Y888   /     
#    /   /      Y88b /          Y888b 888__/    `88_-~      
#                                                           
#              Version 3.4.0 Revision 2900                  
#               http://www.yambo-code.org                   
#
# EELS @ Q(1)  [q->0 direction]:0.1000E-4  0.000     0.000   
#
#
# - Energies      are Teter 93(XC)
# - Wavefunctions are Teter 93(XC)
#
# - The Green`s function is causal -
# - Using Shifted Grids -
# - [r,Vnl] *is* included -
#
#   BSK|Identifier              :6987
#      |Dimension               :48
#      |Bands                   :3 - 10
#      |Exchange           [res]: yes
#      |Correlation        [res]: yes
#      |Kernel`s coupling       : yes
#      |Exchange           [cpl]: yes
#      |W interaction is bare   : no
#      |Correlation        [cpl]: no
#      |ALDA kernel in R-space  : no
#      |RL vectors    [exchange]:3413
#      |RL vectors [correlation]:107
#      |E/h energy range    [ev]:-1.000000 - -1.000000
#      |Coupling range     [o/o]: 100.0000 -  100.0000
#    W |Interaction is diagonal : no
#      |Matrix size             :107
#      |Bands                   :1 - 50
#      |e/h energy range    [ev]:-1.000000 - -1.000000
#      |Poles              [o/o]: 100.0000
#      |Rl vectors in the sum   :3317
#      |[r,Vnl] included        : yes
#      |Field direction         :0.1000E-4  0.000000  0.000000
#      |Coulomb Cutoff        :none
#      |xc-Kernel               :none
#   RIM|RL components      [col]:0
#      |Random points      [col]:0
#
#  E/ev[1]    eel /Im[2] eel /Re[3] eel0/Im[4] eel0/Re[5]
#
  3.000     0.3701E-2  -.7011E-1  0.2466E-2  -.1153   
  3.007     0.3712E-2  -.6985E-1  0.2473E-2  -.1152   
  3.014     0.3723E-2  -.6959E-1  0.2479E-2  -.1150   
  3.021     0.3734E-2  -.6933E-1  0.2486E-2  -.1148   
  3.028     0.3745E-2  -.6907E-1  0.2493E-2  -.1146   
  3.035     0.3756E-2  -.6881E-1  0.2500E-2  -.1145   
  3.042     0.3766E-2  -.6854E-1  0.2507E-2  -.1143   
  3.049     0.3777E-2  -.6828E-1  0.2514E-2  -.1141   
  3.056     0.3788E-2  -.6801E-1  0.2520E-2  -.1139   
  3.063     0.3799E-2  -.6775E-1  0.2527E-2  -.1138   
  3.070     0.3810E-2  -.6748E-1  0.2534E-2  -.1136   
  3.077     0.3821E-2  -.6721E-1  0.2541E-2  -.1134   
  3.084     0.3832E-2  -.6695E-1  0.2548E-2  -.1132   
  3.091     0.3843E-2  -.6668E-1  0.2555E-2  -.1131   
  3.098     0.3854E-2  -.6641E-1  0.2562E-2  -.1129   
  3.105     0.3865E-2  -.6614E-1  0.2569E-2  -.1127   
  3.112     0.3876E-2  -.6587E-1  0.2576E-2  -.1125   
  3.119     0.3887E-2  -.6559E-1  0.2583E-2  -.1123   
  3.126     0.3898E-2  -.6532E-1  0.2590E-2  -.1122   
  3.133     0.3910E-2  -.6505E-1  0.2597E-2  -.1120   
  3.140     0.3921E-2  -.6477E-1  0.2604E-2  -.1118   
  3.147     0.3932E-2  -.6450E-1  0.2611E-2  -.1116   
  3.154     0.3943E-2  -.6422E-1  0.2618E-2  -.1114   
  3.161     0.3954E-2  -.6395E-1  0.2625E-2  -.1112   
  3.168     0.3965E-2  -.6367E-1  0.2632E-2  -.1111   
  3.175     0.3977E-2  -.6339E-1  0.2639E-2  -.1109   
  3.182     0.3988E-2  -.6311E-1  0.2646E-2  -.1107   
  3.189     0.3999E-2  -.6283E-1  0.2653E-2  -.1105   
  3.196     0.4011E-2  -.6255E-1  0.2660E-2  -.1103   
  3.203     0.4022E-2  -.6227E-1  0.2667E-2  -.1101   
  3.210     0.4033E-2  -.6199E-1  0.2674E-2  -.1099   
  3.217     0.4045E-2  -.6171E-1  0.2681E-2  -.1098   
  3.224     0.4056E-2  -.6142E-1  0.2688E-2  -.1096   
  3.231     0.4067E-2  -.6114E-1  0.2695E-2  -.1094   
  3.238     0.4079E-2  -.6085E-1  0.2702E-2  -.1092   
  3.245     0.4090E-2  -.6057E-1  0.2709E-2  -.1090   
  3.252     0.4102E-2  -.6028E-1  0.2716E-2  -.1088   
  3.259     0.4113E-2  -.5999E-1  0.2724E-2  -.1086   
  3.266     0.4125E-2  -.5970E-1  0.2731E-2  -.1084   
  3.273     0.4136E-2  -.5941E-1  0.2738E-2  -.1082   
  3.280     0.4148E-2  -.5912E-1  0.2745E-2  -.1080   
  3.287     0.4159E-2  -.5883E-1  0.2752E-2  -.1078   
  3.294     0.4171E-2  -.5854E-1  0.2759E-2  -.1077   
  3.301     0.4182E-2  -.5825E-1  0.2767E-2  -.1075   
  3.308     0.4194E-2  -.5796E-1  0.2774E-2  -.1073   
  3.315     0.4206E-2  -.5766E-1  0.2781E-2  -.1071   
  3.322     0.4217E-2  -.5737E-1  0.2788E-2  -.1069   
  3.329     0.4229E-2  -.5707E-1  0.2795E-2  -.1067   
  3.336     0.4241E-2  -.5677E-1  0.2803E-2  -.1065   
  3.343     0.4252E-2  -.5648E-1  0.2810E-2  -.1063   
  3.350     0.4264E-2  -.5618E-1  0.2817E-2  -.1061   
  3.357     0.4276E-2  -.5588E-1  0.2824E-2  -.1059   
  3.364     0.4288E-2  -.5558E-1  0.2832E-2  -.1057   
  3.371     0.4299E-2  -.5528E-1  0.2839E-2  -.1055   
  3.378     0.4311E-2  -.5498E-1  0.2846E-2  -.1053   
  3.385     0.4323E-2  -.5467E-1  0.2854E-2  -.1051   
  3.392     0.4335E-2  -.5437E-1  0.2861E-2  -.1049   
  3.399     0.4347E-2  -.5407E-1  0.2868E-2  -.1047   
  3.406     0.4359E-2  -.5376E-1  0.2876E-2  -.1045   
  3.413     0.4371E-2  -.5346E-1  0.2883E-2  -.1043   
  3.420     0.4383E-2  -.5315E-1  0.2890E-2  -.1041   
  3.427     0.4395E-2  -.5284E-1  0.2898E-2  -.1039   
  3.434     0.4407E-2  -.5253E-1  0.2905E-2  -.1037   
  3.441     0.4419E-2  -.5222E-1  0.2913E-2  -.1035   
  3.448     0.4431E-2  -.5191E-1  0.2920E-2  -.1033   
  3.455     0.4443E-2  -.5160E-1  0.2927E-2  -.1031   
  3.462     0.4455E-2  -.5129E-1  0.2935E-2  -.1029   
  3.469     0.4467E-2  -.5098E-1  0.2942E-2  -.1027   
  3.476     0.4479E-2  -.5067E-1  0.2950E-2  -.1025   
  3.483     0.4491E-2  -.5035E-1  0.2957E-2  -.1023   
  3.490     0.4504E-2  -.5004E-1  0.2965E-2  -.1020   
  3.497     0.4516E-2  -.4972E-1  0.2972E-2  -.1018   
  3.505     0.4528E-2  -.4940E-1  0.2980E-2  -.1016   
  3.512     0.4540E-2  -.4909E-1  0.2987E-2  -.1014   
  3.519     0.4553E-2  -.4877E-1  0.2995E-2  -.1012   
  3.526     0.4565E-2  -.4845E-1  0.3002E-2  -.1010   
  3.533     0.4577E-2  -.4813E-1  0.3010E-2  -.1008   
  3.540     0.4590E-2  -.4781E-1  0.3017E-2  -.1006   
  3.547     0.4602E-2  -.4749E-1  0.3025E-2  -.1004   
  3.554     0.4615E-2  -.4716E-1  0.3033E-2  -.1002   
  3.561     0.4627E-2  -.4684E-1  0.3040E-2  -.9994E-1
  3.568     0.4639E-2  -.4652E-1  0.3048E-2  -.9973E-1
  3.575     0.4652E-2  -.4619E-1  0.3055E-2  -.9951E-1
  3.582     0.4664E-2  -.4586E-1  0.3063E-2  -.9930E-1
  3.589     0.4677E-2  -.4554E-1  0.3071E-2  -.9908E-1
  3.596     0.4690E-2  -.4521E-1  0.3078E-2  -.9887E-1
  3.603     0.4702E-2  -.4488E-1  0.3086E-2  -.9865E-1
  3.610     0.4715E-2  -.4455E-1  0.3094E-2  -.9844E-1
  3.617     0.4727E-2  -.4422E-1  0.3101E-2  -.9822E-1
  3.624     0.4740E-2  -.4389E-1  0.3109E-2  -.9800E-1
  3.631     0.4753E-2  -.4356E-1  0.3117E-2  -.9778E-1
  3.638     0.4766E-2  -.4322E-1  0.3125E-2  -.9756E-1
  3.645     0.4778E-2  -.4289E-1  0.3132E-2  -.9735E-1
  3.652     0.4791E-2  -.4255E-1  0.3140E-2  -.9713E-1
  3.659     0.4804E-2  -.4222E-1  0.3148E-2  -.9691E-1
  3.666     0.4817E-2  -.4188E-1  0.3156E-2  -.9668E-1
  3.673     0.4830E-2  -.4154E-1  0.3163E-2  -.9646E-1
  3.680     0.4843E-2  -.4120E-1  0.3171E-2  -.9624E-1
  3.687     0.4856E-2  -.4086E-1  0.3179E-2  -.9602E-1
  3.694     0.4869E-2  -.4052E-1  0.3187E-2  -.9580E-1
  3.701     0.4882E-2  -.4018E-1  0.3195E-2  -.9557E-1
  3.708     0.4895E-2  -.3984E-1  0.3203E-2  -.9535E-1
  3.715     0.4908E-2  -.3950E-1  0.3211E-2  -.9512E-1
  3.722     0.4921E-2  -.3915E-1  0.3218E-2  -.9490E-1
  3.729     0.4934E-2  -.3881E-1  0.3226E-2  -.9467E-1
  3.736     0.4948E-2  -.3846E-1  0.3234E-2  -.9445E-1
  3.743     0.4961E-2  -.3811E-1  0.3242E-2  -.9422E-1
  3.750     0.4974E-2  -.3777E-1  0.3250E-2  -.9399E-1
  3.757     0.4987E-2  -.3742E-1  0.3258E-2  -.9376E-1
  3.764     0.5001E-2  -.3707E-1  0.3266E-2  -.9354E-1
  3.771     0.5014E-2  -.3672E-1  0.3274E-2  -.9331E-1
  3.778     0.5028E-2  -.3637E-1  0.3282E-2  -.9308E-1
  3.785     0.5041E-2  -.3601E-1  0.3290E-2  -.9285E-1
  3.792     0.5055E-2  -.3566E-1  0.3298E-2  -.9262E-1
  3.799     0.5069E-2  -.3531E-1  0.3306E-2  -.9239E-1
  3.806     0.5082E-2  -.3495E-1  0.3314E-2  -.9215E-1
  3.813     0.5096E-2  -.3459E-1  0.3322E-2  -.9192E-1
  3.820     0.5110E-2  -.3424E-1  0.3330E-2  -.9169E-1
  3.827     0.5124E-2  -.3388E-1  0.3339E-2  -.9145E-1
  3.834     0.5138E-2  -.3352E-1  0.3347E-2  -.9122E-1
  3.841     0.5152E-2  -.3316E-1  0.3355E-2  -.9099E-1
  3.848     0.5166E-2  -.3280E-1  0.3363E-2  -.9075E-1
  3.855     0.5180E-2  -.3244E-1  0.3371E-2  -.9051E-1
  3.862     0.5194E-2  -.3207E-1  0.3379E-2  -.9028E-1
  3.869     0.5209E-2  -.3171E-1  0.3388E-2  -.9004E-1
  3.876     0.5223E-2  -.3135E-1  0.3396E-2  -.8980E-1
  3.883     0.5238E-2  -.3098E-1  0.3404E-2  -.8956E-1
  3.890     0.5252E-2  -.3062E-1  0.3412E-2  -.8933E-1
  3.897     0.5267E-2  -.3025E-1  0.3420E-2  -.8909E-1
  3.904     0.5281E-2  -.2988E-1  0.3429E-2  -.8885E-1
  3.911     0.5296E-2  -.2951E-1  0.3437E-2  -.8861E-1
  3.918     0.5311E-2  -.2914E-1  0.3445E-2  -.8837E-1
  3.925     0.5325E-2  -.2877E-1  0.3454E-2  -.8812E-1
  3.932     0.5339E-2  -.2840E-1  0.3462E-2  -.8788E-1
  3.939     0.5354E-2  -.2803E-1  0.3470E-2  -.8764E-1
  3.946     0.5368E-2  -.2766E-1  0.3479E-2  -.8740E-1
  3.953     0.5382E-2  -.2728E-1  0.3487E-2  -.8715E-1
  3.960     0.5396E-2  -.2691E-1  0.3496E-2  -.8691E-1
  3.967     0.5410E-2  -.2653E-1  0.3504E-2  -.8666E-1
  3.974     0.5423E-2  -.2615E-1  0.3512E-2  -.8642E-1
  3.981     0.5437E-2  -.2578E-1  0.3521E-2  -.8617E-1
  3.988     0.5450E-2  -.2540E-1  0.3529E-2  -.8592E-1
  3.995     0.5464E-2  -.2502E-1  0.3538E-2  -.8568E-1
  4.002     0.5477E-2  -.2464E-1  0.3546E-2  -.8543E-1
  4.009     0.5491E-2  -.2425E-1  0.3555E-2  -.8518E-1
  4.016     0.5504E-2  -.2387E-1  0.3563E-2  -.8493E-1
  4.023     0.5517E-2  -.2349E-1  0.3572E-2  -.8468E-1
  4.030     0.5531E-2  -.2310E-1  0.3581E-2  -.8443E-1
  4.037     0.5545E-2  -.2271E-1  0.3589E-2  -.8418E-1
  4.044     0.5558E-2  -.2232E-1  0.3598E-2  -.8393E-1
  4.051     0.5572E-2  -.2194E-1  0.3606E-2  -.8367E-1
  4.058     0.5586E-2  -.2155E-1  0.3615E-2  -.8342E-1
  4.065     0.5600E-2  -.2115E-1  0.3624E-2  -.8317E-1
  4.072     0.5614E-2  -.2076E-1  0.3633E-2  -.8291E-1
  4.079     0.5628E-2  -.2037E-1  0.3641E-2  -.8266E-1
  4.086     0.5642E-2  -.1997E-1  0.3650E-2  -.8240E-1
  4.093     0.5656E-2  -.1958E-1  0.3659E-2  -.8215E-1
  4.100     0.5671E-2  -.1918E-1  0.3668E-2  -.8189E-1
  4.107     0.5685E-2  -.1879E-1  0.3676E-2  -.8163E-1
  4.114     0.5699E-2  -.1839E-1  0.3685E-2  -.8138E-1
  4.121     0.5714E-2  -.1799E-1  0.3694E-2  -.8112E-1
  4.128     0.5728E-2  -.1759E-1  0.3703E-2  -.8086E-1
  4.135     0.5743E-2  -.1719E-1  0.3712E-2  -.8060E-1
  4.142     0.5758E-2  -.1678E-1  0.3721E-2  -.8034E-1
  4.149     0.5772E-2  -.1638E-1  0.3729E-2  -.8008E-1
  4.156     0.5787E-2  -.1597E-1  0.3738E-2  -.7982E-1
  4.163     0.5802E-2  -.1557E-1  0.3747E-2  -.7955E-1
  4.170     0.5817E-2  -.1516E-1  0.3756E-2  -.7929E-1
  4.177     0.5832E-2  -.1475E-1  0.3765E-2  -.7903E-1
  4.184     0.5847E-2  -.1434E-1  0.3774E-2  -.7876E-1
  4.191     0.5862E-2  -.1393E-1  0.3783E-2  -.7850E-1
  4.198     0.5877E-2  -.1352E-1  0.3793E-2  -.7823E-1
  4.205     0.5892E-2  -.1311E-1  0.3802E-2  -.7797E-1
  4.212     0.5907E-2  -.1270E-1  0.3811E-2  -.7770E-1
  4.219     0.5923E-2  -.1228E-1  0.3820E-2  -.7743E-1
  4.226     0.5938E-2  -.1187E-1  0.3829E-2  -.7717E-1
  4.233     0.5953E-2  -.1145E-1  0.3838E-2  -.7690E-1
  4.240     0.5969E-2  -.1104E-1  0.3847E-2  -.7663E-1
  4.247     0.5984E-2  -.1062E-1  0.3857E-2  -.7636E-1
  4.254     0.6000E-2  -.1020E-1  0.3866E-2  -.7609E-1
  4.261     0.6015E-2  -.9776E-2  0.3875E-2  -.7582E-1
  4.268     0.6031E-2  -.9355E-2  0.3884E-2  -.7554E-1
  4.275     0.6046E-2  -.8932E-2  0.3894E-2  -.7527E-1
  4.282     0.6062E-2  -.8508E-2  0.3903E-2  -.7500E-1
  4.289     0.6078E-2  -.8082E-2  0.3912E-2  -.7473E-1
  4.296     0.6094E-2  -.7656E-2  0.3922E-2  -.7445E-1
  4.303     0.6109E-2  -.7229E-2  0.3931E-2  -.7418E-1
  4.310     0.6125E-2  -.6801E-2  0.3941E-2  -.7390E-1
  4.317     0.6141E-2  -.6371E-2  0.3950E-2  -.7362E-1
  4.324     0.6157E-2  -.5940E-2  0.3960E-2  -.7335E-1
  4.331     0.6173E-2  -.5509E-2  0.3969E-2  -.7307E-1
  4.338     0.6189E-2  -.5076E-2  0.3979E-2  -.7279E-1
  4.345     0.6205E-2  -.4642E-2  0.3988E-2  -.7251E-1
  4.352     0.6222E-2  -.4207E-2  0.3998E-2  -.7223E-1
  4.359     0.6238E-2  -.3770E-2  0.4008E-2  -.7195E-1
  4.366     0.6254E-2  -.3333E-2  0.4017E-2  -.7167E-1
  4.373     0.6270E-2  -.2894E-2  0.4027E-2  -.7139E-1
  4.380     0.6287E-2  -.2455E-2  0.4037E-2  -.7111E-1
  4.387     0.6303E-2  -.2014E-2  0.4046E-2  -.7082E-1
  4.394     0.6320E-2  -.1572E-2  0.4056E-2  -.7054E-1
  4.401     0.6336E-2  -.1129E-2  0.4066E-2  -.7026E-1
  4.408     0.6353E-2  -.6843E-3  0.4076E-2  -.6997E-1
  4.415     0.6369E-2  -.2389E-3  0.4086E-2  -.6968E-1
  4.422     0.6386E-2  0.2078E-3  0.4096E-2  -.6940E-1
  4.429     0.6403E-2  0.6556E-3  0.4106E-2  -.6911E-1
  4.436     0.6420E-2  0.1105E-2  0.4116E-2  -.6882E-1
  4.443     0.6436E-2  0.1555E-2  0.4126E-2  -.6853E-1
  4.450     0.6453E-2  0.2006E-2  0.4136E-2  -.6825E-1
  4.457     0.6470E-2  0.2459E-2  0.4146E-2  -.6796E-1
  4.464     0.6487E-2  0.2912E-2  0.4156E-2  -.6766E-1
  4.471     0.6504E-2  0.3367E-2  0.4166E-2  -.6737E-1
  4.478     0.6521E-2  0.3823E-2  0.4176E-2  -.6708E-1
  4.485     0.6539E-2  0.4280E-2  0.4186E-2  -.6679E-1
  4.492     0.6556E-2  0.4739E-2  0.4196E-2  -.6650E-1
  4.499     0.6573E-2  0.5199E-2  0.4207E-2  -.6620E-1
  4.507     0.6590E-2  0.5660E-2  0.4217E-2  -.6591E-1
  4.514     0.6608E-2  0.6122E-2  0.4227E-2  -.6561E-1
  4.521     0.6625E-2  0.6585E-2  0.4238E-2  -.6531E-1
  4.528     0.6643E-2  0.7050E-2  0.4248E-2  -.6502E-1
  4.535     0.6660E-2  0.7515E-2  0.4258E-2  -.6472E-1
  4.542     0.6678E-2  0.7982E-2  0.4269E-2  -.6442E-1
  4.549     0.6696E-2  0.8451E-2  0.4279E-2  -.6412E-1
  4.556     0.6714E-2  0.8920E-2  0.4290E-2  -.6382E-1
  4.563     0.6731E-2  0.9391E-2  0.4301E-2  -.6352E-1
  4.570     0.6749E-2  0.9863E-2  0.4311E-2  -.6322E-1
  4.577     0.6767E-2  0.1034E-1  0.4322E-2  -.6292E-1
  4.584     0.6785E-2  0.1081E-1  0.4333E-2  -.6261E-1
  4.591     0.6803E-2  0.1129E-1  0.4343E-2  -.6231E-1
  4.598     0.6822E-2  0.1176E-1  0.4354E-2  -.6201E-1
  4.605     0.6840E-2  0.1224E-1  0.4365E-2  -.6170E-1
  4.612     0.6858E-2  0.1272E-1  0.4376E-2  -.6139E-1
  4.619     0.6877E-2  0.1320E-1  0.4387E-2  -.6109E-1
  4.626     0.6895E-2  0.1368E-1  0.4398E-2  -.6078E-1
  4.633     0.6914E-2  0.1417E-1  0.4409E-2  -.6047E-1
  4.640     0.6932E-2  0.1465E-1  0.4420E-2  -.6016E-1
  4.647     0.6951E-2  0.1514E-1  0.4431E-2  -.5985E-1
  4.654     0.6970E-2  0.1563E-1  0.4442E-2  -.5954E-1
  4.661     0.6988E-2  0.1611E-1  0.4453E-2  -.5923E-1
  4.668     0.7007E-2  0.1660E-1  0.4465E-2  -.5892E-1
  4.675     0.7026E-2  0.1710E-1  0.4476E-2  -.5860E-1
  4.682     0.7045E-2  0.1759E-1  0.4487E-2  -.5829E-1
  4.689     0.7064E-2  0.1808E-1  0.4499E-2  -.5798E-1
  4.696     0.7084E-2  0.1858E-1  0.4510E-2  -.5766E-1
  4.703     0.7103E-2  0.1907E-1  0.4522E-2  -.5734E-1
  4.710     0.7122E-2  0.1957E-1  0.4533E-2  -.5703E-1
  4.717     0.7142E-2  0.2007E-1  0.4545E-2  -.5671E-1
  4.724     0.7161E-2  0.2057E-1  0.4557E-2  -.5639E-1
  4.731     0.7181E-2  0.2107E-1  0.4569E-2  -.5607E-1
  4.738     0.7201E-2  0.2158E-1  0.4580E-2  -.5575E-1
  4.745     0.7220E-2  0.2208E-1  0.4592E-2  -.5543E-1
  4.752     0.7240E-2  0.2259E-1  0.4604E-2  -.5511E-1
  4.759     0.7260E-2  0.2310E-1  0.4616E-2  -.5479E-1
  4.766     0.7280E-2  0.2361E-1  0.4628E-2  -.5446E-1
  4.773     0.7301E-2  0.2412E-1  0.4640E-2  -.5414E-1
  4.780     0.7321E-2  0.2463E-1  0.4653E-2  -.5381E-1
  4.787     0.7341E-2  0.2514E-1  0.4665E-2  -.5349E-1
  4.794     0.7362E-2  0.2566E-1  0.4677E-2  -.5316E-1
  4.801     0.7382E-2  0.2617E-1  0.4689E-2  -.5283E-1
  4.808     0.7403E-2  0.2669E-1  0.4702E-2  -.5250E-1
  4.815     0.7424E-2  0.2721E-1  0.4715E-2  -.5217E-1
  4.822     0.7445E-2  0.2773E-1  0.4727E-2  -.5184E-1
  4.829     0.7465E-2  0.2825E-1  0.4740E-2  -.5151E-1
  4.836     0.7487E-2  0.2877E-1  0.4753E-2  -.5118E-1
  4.843     0.7508E-2  0.2930E-1  0.4765E-2  -.5085E-1
  4.850     0.7529E-2  0.2982E-1  0.4778E-2  -.5051E-1
  4.857     0.7551E-2  0.3035E-1  0.4791E-2  -.5018E-1
  4.864     0.7572E-2  0.3088E-1  0.4804E-2  -.4984E-1
  4.871     0.7594E-2  0.3141E-1  0.4818E-2  -.4951E-1
  4.878     0.7616E-2  0.3194E-1  0.4831E-2  -.4917E-1
  4.885     0.7638E-2  0.3248E-1  0.4844E-2  -.4883E-1
  4.892     0.7660E-2  0.3301E-1  0.4858E-2  -.4849E-1
  4.899     0.7682E-2  0.3355E-1  0.4871E-2  -.4815E-1
  4.906     0.7704E-2  0.3409E-1  0.4885E-2  -.4781E-1
  4.913     0.7727E-2  0.3463E-1  0.4899E-2  -.4747E-1
  4.920     0.7749E-2  0.3517E-1  0.4913E-2  -.4712E-1
  4.927     0.7772E-2  0.3571E-1  0.4926E-2  -.4678E-1
    4.9339     0.0078     0.0363     0.0049    -0.0464
    4.9409     0.0078     0.0368     0.0050    -0.0461
    4.9479     0.0078     0.0374     0.0050    -0.0457
    4.9550     0.0079     0.0379     0.0050    -0.0454
    4.9620     0.0079     0.0385     0.0050    -0.0450
    4.9690     0.0079     0.0390     0.0050    -0.0447
    4.9760     0.0079     0.0396     0.0050    -0.0443
    4.9830     0.0080     0.0401     0.0050    -0.0440
    4.9900     0.0080     0.0407     0.0051    -0.0436
    4.9970     0.0080     0.0412     0.0051    -0.0433
    5.0040     0.0080     0.0418     0.0051    -0.0429
    5.0110     0.0081     0.0424     0.0051    -0.0426
    5.0180     0.0081     0.0429     0.0051    -0.0422
    5.0250     0.0081     0.0435     0.0051    -0.0419
    5.0320     0.0081     0.0441     0.0052    -0.0415
    5.0390     0.0082     0.0446     0.0052    -0.0411
    5.0460     0.0082     0.0452     0.0052    -0.0408
    5.0531     0.0082     0.0458     0.0052    -0.0404
    5.0601     0.0082     0.0463     0.0052    -0.0400
    5.0671     0.0083     0.0469     0.0052    -0.0397
    5.0741     0.0083     0.0475     0.0052    -0.0393
    5.0811     0.0083     0.0481     0.0053    -0.0389
    5.0881     0.0083     0.0487     0.0053    -0.0386
    5.0951     0.0084     0.0492     0.0053    -0.0382
    5.1021     0.0084     0.0498     0.0053    -0.0378
    5.1091     0.0084     0.0504     0.0053    -0.0375
    5.1161     0.0085     0.0510     0.0054    -0.0371
    5.1231     0.0085     0.0516     0.0054    -0.0367
    5.1301     0.0085     0.0522     0.0054    -0.0363
    5.1371     0.0085     0.0528     0.0054    -0.0360
    5.1441     0.0086     0.0534     0.0054    -0.0356
    5.1512     0.0086     0.0540     0.0054    -0.0352
    5.1582     0.0086     0.0546     0.0055    -0.0348
    5.1652     0.0087     0.0552     0.0055    -0.0344
    5.1722     0.0087     0.0558     0.0055    -0.0341
    5.1792     0.0087     0.0564     0.0055    -0.0337
    5.1862     0.0088     0.0570     0.0055    -0.0333
    5.1932     0.0088     0.0576     0.0056    -0.0329
    5.2002     0.0088     0.0582     0.0056    -0.0325
    5.2072     0.0088     0.0589     0.0056    -0.0321
    5.2142     0.0089     0.0595     0.0056    -0.0317
    5.2212     0.0089     0.0601     0.0057    -0.0313
    5.2282     0.0089     0.0607     0.0057    -0.0309
    5.2352     0.0090     0.0614     0.0057    -0.0305
    5.2422     0.0090     0.0620     0.0057    -0.0301
    5.2492     0.0091     0.0626     0.0058    -0.0297
    5.2563     0.0091     0.0632     0.0058    -0.0293
    5.2633     0.0091     0.0639     0.0058    -0.0289
    5.2703     0.0092     0.0645     0.0058    -0.0285
    5.2773     0.0092     0.0652     0.0059    -0.0281
    5.2843     0.0092     0.0658     0.0059    -0.0277
    5.2913     0.0093     0.0664     0.0059    -0.0273
    5.2983     0.0093     0.0671     0.0059    -0.0269
    5.3053     0.0094     0.0677     0.0060    -0.0265
    5.3123     0.0094     0.0684     0.0060    -0.0261
    5.3193     0.0094     0.0691     0.0060    -0.0256
    5.3263     0.0095     0.0697     0.0060    -0.0252
    5.3333     0.0095     0.0704     0.0061    -0.0248
    5.3403     0.0096     0.0710     0.0061    -0.0244
    5.3473     0.0096     0.0717     0.0061    -0.0240
    5.3544     0.0097     0.0724     0.0062    -0.0235
    5.3614     0.0097     0.0731     0.0062    -0.0231
    5.3684     0.0098     0.0737     0.0062    -0.0227
    5.3754     0.0098     0.0744     0.0063    -0.0222
    5.3824     0.0099     0.0751     0.0063    -0.0218
    5.3894     0.0099     0.0758     0.0064    -0.0214
    5.3964     0.0100     0.0765     0.0064    -0.0209
    5.4034     0.0100     0.0772     0.0064    -0.0205
    5.4104     0.0101     0.0779     0.0065    -0.0200
    5.4174     0.0101     0.0786     0.0065    -0.0196
    5.4244     0.0102     0.0793     0.0066    -0.0191
    5.4314     0.0103     0.0800     0.0066    -0.0187
    5.4384     0.0103     0.0807     0.0067    -0.0182
    5.4454     0.0104     0.0814     0.0067    -0.0178
    5.4525     0.0105     0.0821     0.0068    -0.0173
    5.4595     0.0105     0.0828     0.0068    -0.0168
    5.4665     0.0106     0.0836     0.0069    -0.0164
    5.4735     0.0107     0.0843     0.0069    -0.0159
    5.4805     0.0107     0.0850     0.0070    -0.0154
    5.4875     0.0108     0.0858     0.0070    -0.0149
    5.4945     0.0109     0.0865     0.0071    -0.0145
    5.5015     0.0110     0.0873     0.0072    -0.0140
    5.5085     0.0111     0.0880     0.0072    -0.0135
    5.5155     0.0112     0.0888     0.0073    -0.0130
    5.5225     0.0113     0.0896     0.0074    -0.0125
    5.5295     0.0114     0.0903     0.0074    -0.0120
    5.5365     0.0115     0.0911     0.0075    -0.0115
    5.5435     0.0116     0.0919     0.0076    -0.0110
    5.5506     0.0117     0.0927     0.0077    -0.0105
    5.5576     0.0118     0.0935     0.0078    -0.0099
    5.5646     0.0119     0.0943     0.0079    -0.0094
    5.5716     0.0121     0.0951     0.0080    -0.0089
    5.5786     0.0122     0.0959     0.0081    -0.0083
    5.5856     0.0124     0.0967     0.0082    -0.0078
    5.5926     0.0125     0.0975     0.0083    -0.0073
    5.5996     0.0127     0.0983     0.0085    -0.0067
    5.6066     0.0128     0.0992     0.0086    -0.0062
  5.614     0.1303E-1  0.1000     0.8725E-2  -.5599E-2
  5.621     0.1322E-1  0.1009     0.8873E-2  -.5031E-2
  5.628     0.1343E-1  0.1017     0.9031E-2  -.4458E-2
  5.635     0.1365E-1  0.1026     0.9199E-2  -.3878E-2
  5.642     0.1388E-1  0.1035     0.9377E-2  -.3291E-2
  5.649     0.1413E-1  0.1044     0.9567E-2  -.2698E-2
  5.656     0.1439E-1  0.1052     0.9770E-2  -.2099E-2
  5.663     0.1468E-1  0.1061     0.9986E-2  -.1493E-2
  5.670     0.1498E-1  0.1070     0.1022E-1  -.8808E-3
  5.677     0.1531E-1  0.1079     0.1047E-1  -.2619E-3
  5.684     0.1566E-1  0.1088     0.1073E-1  0.3631E-3
  5.691     0.1603E-1  0.1097     0.1102E-1  0.9941E-3
  5.698     0.1644E-1  0.1107     0.1133E-1  0.1631E-2
  5.705     0.1687E-1  0.1116     0.1166E-1  0.2272E-2
  5.712     0.1734E-1  0.1125     0.1202E-1  0.2918E-2
  5.719     0.1784E-1  0.1134     0.1240E-1  0.3567E-2
  5.726     0.1839E-1  0.1142     0.1282E-1  0.4217E-2
  5.733     0.1897E-1  0.1151     0.1327E-1  0.4868E-2
  5.740     0.1960E-1  0.1160     0.1376E-1  0.5517E-2
    5.7467     0.0203     0.1168     0.0143     0.0062
    5.7538     0.0210     0.1176     0.0149     0.0068
    5.7608     0.0217     0.1183     0.0155     0.0074
    5.7678     0.0225     0.1190     0.0162     0.0080
    5.7748     0.0234     0.1197     0.0169     0.0086
    5.7818     0.0242     0.1202     0.0177     0.0092
    5.7888     0.0251     0.1207     0.0185     0.0097
   5.79580    0.02599    0.12112    0.01945    0.01013
   5.80280    0.02687    0.12144    0.02043    0.01052
   5.80981    0.02772    0.12168    0.02148    0.01083
   5.81682    0.02854    0.12183    0.02258    0.01105
   5.82382    0.02931    0.12191    0.02374    0.01115
   5.83083    0.03001    0.12193    0.02494    0.01113
   5.83784    0.03064    0.12192    0.02617    0.01095
   5.84484    0.03121    0.12187    0.02739    0.01060
   5.85185    0.03171    0.12182    0.02859    0.01007
    5.8589     0.0322     0.1218     0.0297     0.0094
    5.8659     0.0326     0.1217     0.0307     0.0084
    5.8729     0.0330     0.1217     0.0316     0.0074
    5.8799     0.0333     0.1216     0.0323     0.0061
  5.887     0.3370E-1  0.1216     0.3277E-1  0.4802E-2
  5.894     0.3406E-1  0.1215     0.3298E-1  0.3396E-2
  5.901     0.3443E-1  0.1214     0.3294E-1  0.1977E-2
  5.908     0.3477E-1  0.1212     0.3264E-1  0.5984E-3
  5.915     0.3507E-1  0.1209     0.3210E-1  -.6884E-3
  5.922     0.3532E-1  0.1206     0.3136E-1  -.1841E-2
  5.929     0.3548E-1  0.1201     0.3044E-1  -.2830E-2
  5.936     0.3553E-1  0.1197     0.2940E-1  -.3634E-2
  5.943     0.3545E-1  0.1192     0.2827E-1  -.4248E-2
  5.950     0.3522E-1  0.1187     0.2709E-1  -.4674E-2
  5.957     0.3486E-1  0.1182     0.2590E-1  -.4921E-2
  5.964     0.3435E-1  0.1177     0.2472E-1  -.5005E-2
  5.971     0.3371E-1  0.1173     0.2357E-1  -.4945E-2
  5.978     0.3296E-1  0.1171     0.2247E-1  -.4758E-2
  5.985     0.3213E-1  0.1169     0.2143E-1  -.4464E-2
  5.992     0.3124E-1  0.1169     0.2045E-1  -.4079E-2
  5.999     0.3030E-1  0.1170     0.1953E-1  -.3620E-2
  6.006     0.2935E-1  0.1172     0.1868E-1  -.3099E-2
  6.013     0.2839E-1  0.1175     0.1790E-1  -.2530E-2
  6.020     0.2745E-1  0.1179     0.1718E-1  -.1922E-2
  6.027     0.2652E-1  0.1184     0.1651E-1  -.1284E-2
  6.034     0.2563E-1  0.1190     0.1590E-1  -.6228E-3
  6.041     0.2477E-1  0.1197     0.1534E-1  0.5624E-4
  6.048     0.2396E-1  0.1204     0.1483E-1  0.7482E-3
  6.055     0.2318E-1  0.1212     0.1436E-1  0.1449E-2
  6.062     0.2246E-1  0.1221     0.1393E-1  0.2156E-2
  6.069     0.2178E-1  0.1230     0.1353E-1  0.2867E-2
  6.076     0.2114E-1  0.1239     0.1317E-1  0.3579E-2
  6.083     0.2055E-1  0.1249     0.1285E-1  0.4291E-2
  6.090     0.2001E-1  0.1258     0.1254E-1  0.5003E-2
  6.097     0.1950E-1  0.1268     0.1227E-1  0.5712E-2
    6.1041     0.0190     0.1278     0.0120     0.0064
    6.1111     0.0186     0.1288     0.0118     0.0071
    6.1181     0.0182     0.1299     0.0116     0.0078
    6.1251     0.0178     0.1309     0.0114     0.0085
    6.1321     0.0175     0.1319     0.0112     0.0092
    6.1391     0.0172     0.1329     0.0110     0.0099
   6.14615    0.01692    0.13398    0.01090    0.01059
   6.15315    0.01666    0.13501    0.01077    0.01128
   6.16016    0.01642    0.13603    0.01065    0.01196
   6.16717    0.01620    0.13706    0.01055    0.01263
   6.17417    0.01600    0.13808    0.01045    0.01331
   6.18118    0.01581    0.13910    0.01037    0.01398
   6.18819    0.01564    0.14012    0.01029    0.01464
   6.19520    0.01548    0.14113    0.01023    0.01531
   6.20220    0.01534    0.14214    0.01018    0.01597
   6.20921    0.01520    0.14314    0.01013    0.01663
   6.21622    0.01508    0.14415    0.01010    0.01729
   6.22322    0.01497    0.14515    0.01007    0.01795
   6.23023    0.01486    0.14614    0.01005    0.01860
   6.23724    0.01476    0.14714    0.01004    0.01925
   6.24424    0.01468    0.14813    0.01004    0.01991
   6.25125    0.01459    0.14912    0.01005    0.02056
   6.25826    0.01452    0.15010    0.01007    0.02120
   6.26527    0.01445    0.15108    0.01010    0.02185
   6.27227    0.01438    0.15206    0.01013    0.02250
   6.27928    0.01433    0.15304    0.01018    0.02314
   6.28629    0.01427    0.15402    0.01024    0.02378
   6.29329    0.01422    0.15499    0.01031    0.02442
   6.30030    0.01418    0.15597    0.01039    0.02506
   6.30731    0.01414    0.15694    0.01049    0.02569
   6.31431    0.01410    0.15791    0.01059    0.02632
   6.32132    0.01407    0.15888    0.01072    0.02695
   6.32833    0.01404    0.15985    0.01085    0.02757
   6.33534    0.01401    0.16081    0.01101    0.02818
   6.34234    0.01398    0.16178    0.01117    0.02878
   6.34935    0.01396    0.16275    0.01136    0.02937
   6.35636    0.01394    0.16371    0.01157    0.02994
   6.36336    0.01393    0.16467    0.01179    0.03050
   6.37037    0.01391    0.16564    0.01203    0.03103
   6.37738    0.01390    0.16660    0.01228    0.03154
   6.38438    0.01389    0.16757    0.01255    0.03202
   6.39139    0.01388    0.16853    0.01283    0.03247
   6.39840    0.01388    0.16949    0.01312    0.03287
   6.40541    0.01387    0.17046    0.01340    0.03323
   6.41241    0.01387    0.17142    0.01368    0.03355
   6.41942    0.01387    0.17238    0.01394    0.03382
   6.42643    0.01387    0.17335    0.01417    0.03404
   6.43343    0.01387    0.17431    0.01437    0.03422
   6.44044    0.01387    0.17528    0.01452    0.03437
   6.44745    0.01387    0.17624    0.01461    0.03449
   6.45445    0.01388    0.17721    0.01464    0.03459
   6.46146    0.01389    0.17818    0.01461    0.03469
   6.46847    0.01389    0.17915    0.01451    0.03481
   6.47547    0.01390    0.18011    0.01436    0.03495
   6.48248    0.01391    0.18108    0.01416    0.03512
   6.48949    0.01392    0.18205    0.01392    0.03534
   6.49650    0.01393    0.18303    0.01365    0.03560
   6.50350    0.01395    0.18400    0.01337    0.03590
   6.51051    0.01396    0.18497    0.01307    0.03626
   6.51752    0.01398    0.18595    0.01277    0.03665
   6.52452    0.01399    0.18692    0.01248    0.03709
   6.53153    0.01401    0.18790    0.01219    0.03756
   6.53854    0.01402    0.18888    0.01192    0.03806
   6.54555    0.01404    0.18986    0.01166    0.03859
   6.55255    0.01406    0.19084    0.01142    0.03913
   6.55956    0.01408    0.19182    0.01120    0.03970
   6.56657    0.01410    0.19280    0.01099    0.04028
   6.57357    0.01412    0.19379    0.01080    0.04087
   6.58058    0.01414    0.19478    0.01062    0.04147
   6.58759    0.01416    0.19576    0.01046    0.04208
   6.59459    0.01418    0.19675    0.01031    0.04269
   6.60160    0.01420    0.19775    0.01017    0.04331
   6.60861    0.01423    0.19874    0.01005    0.04392
    6.6156     0.0143     0.1997     0.0099     0.0445
    6.6226     0.0143     0.2007     0.0098     0.0452
    6.6296     0.0143     0.2017     0.0097     0.0458
    6.6366     0.0143     0.2027     0.0096     0.0464
    6.6436     0.0144     0.2037     0.0096     0.0470
    6.6507     0.0144     0.2047     0.0095     0.0477
    6.6577     0.0144     0.2057     0.0094     0.0483
    6.6647     0.0144     0.2067     0.0094     0.0489
    6.6717     0.0145     0.2078     0.0093     0.0495
    6.6787     0.0145     0.2088     0.0093     0.0502
    6.6857     0.0145     0.2098     0.0092     0.0508
    6.6927     0.0145     0.2108     0.0092     0.0514
    6.6997     0.0146     0.2118     0.0091     0.0520
    6.7067     0.0146     0.2128     0.0091     0.0526
    6.7137     0.0146     0.2138     0.0091     0.0533
    6.7207     0.0147     0.2149     0.0090     0.0539
    6.7277     0.0147     0.2159     0.0090     0.0545
    6.7347     0.0147     0.2169     0.0090     0.0551
    6.7417     0.0148     0.2179     0.0090     0.0557
    6.7487     0.0148     0.2190     0.0089     0.0563
    6.7558     0.0148     0.2200     0.0089     0.0570
    6.7628     0.0148     0.2210     0.0089     0.0576
    6.7698     0.0149     0.2221     0.0089     0.0582
    6.7768     0.0149     0.2231     0.0089     0.0588
    6.7838     0.0149     0.2241     0.0089     0.0594
    6.7908     0.0150     0.2252     0.0089     0.0600
    6.7978     0.0150     0.2262     0.0089     0.0607
    6.8048     0.0150     0.2273     0.0088     0.0613
    6.8118     0.0151     0.2283     0.0088     0.0619
    6.8188     0.0151     0.2294     0.0088     0.0625
    6.8258     0.0151     0.2304     0.0088     0.0631
    6.8328     0.0152     0.2315     0.0088     0.0637
    6.8398     0.0152     0.2326     0.0088     0.0643
    6.8468     0.0152     0.2336     0.0088     0.0649
    6.8539     0.0153     0.2347     0.0088     0.0656
    6.8609     0.0153     0.2358     0.0088     0.0662
    6.8679     0.0153     0.2368     0.0088     0.0668
    6.8749     0.0154     0.2379     0.0088     0.0674
    6.8819     0.0154     0.2390     0.0088     0.0680
    6.8889     0.0154     0.2401     0.0088     0.0686
    6.8959     0.0155     0.2412     0.0088     0.0693
    6.9029     0.0155     0.2422     0.0088     0.0699
    6.9099     0.0155     0.2433     0.0088     0.0705
    6.9169     0.0156     0.2444     0.0089     0.0711
    6.9239     0.0156     0.2455     0.0089     0.0717
    6.9309     0.0157     0.2466     0.0089     0.0723
    6.9379     0.0157     0.2477     0.0089     0.0730
    6.9449     0.0157     0.2488     0.0089     0.0736
    6.9520     0.0158     0.2499     0.0089     0.0742
    6.9590     0.0158     0.2510     0.0089     0.0748
    6.9660     0.0158     0.2521     0.0089     0.0754
    6.9730     0.0159     0.2532     0.0089     0.0761
    6.9800     0.0159     0.2543     0.0089     0.0767
    6.9870     0.0160     0.2555     0.0089     0.0773
    6.9940     0.0160     0.2566     0.0089     0.0779
    7.0010     0.0160     0.2577     0.0089     0.0786
    7.0080     0.0161     0.2588     0.0090     0.0792
    7.0150     0.0161     0.2599     0.0090     0.0798
    7.0220     0.0162     0.2611     0.0090     0.0804
    7.0290     0.0162     0.2622     0.0090     0.0811
    7.0360     0.0162     0.2633     0.0090     0.0817
    7.0430     0.0163     0.2645     0.0090     0.0823
    7.0500     0.0163     0.2656     0.0090     0.0830
    7.0571     0.0164     0.2668     0.0090     0.0836
    7.0641     0.0164     0.2679     0.0090     0.0842
    7.0711     0.0165     0.2691     0.0091     0.0849
    7.0781     0.0165     0.2702     0.0091     0.0855
    7.0851     0.0165     0.2714     0.0091     0.0861
    7.0921     0.0166     0.2725     0.0091     0.0868
    7.0991     0.0166     0.2737     0.0091     0.0874
    7.1061     0.0167     0.2749     0.0091     0.0880
    7.1131     0.0167     0.2760     0.0091     0.0887
    7.1201     0.0168     0.2772     0.0091     0.0893
    7.1271     0.0168     0.2784     0.0092     0.0900
    7.1341     0.0168     0.2796     0.0092     0.0906
    7.1411     0.0169     0.2807     0.0092     0.0912
    7.1481     0.0169     0.2819     0.0092     0.0919
    7.1552     0.0170     0.2831     0.0092     0.0925
    7.1622     0.0170     0.2843     0.0092     0.0932
    7.1692     0.0171     0.2855     0.0092     0.0938
    7.1762     0.0171     0.2867     0.0093     0.0945
    7.1832     0.0172     0.2879     0.0093     0.0951
    7.1902     0.0172     0.2891     0.0093     0.0958
    7.1972     0.0173     0.2903     0.0093     0.0964
    7.2042     0.0173     0.2915     0.0093     0.0971
    7.2112     0.0173     0.2927     0.0093     0.0977
    7.2182     0.0174     0.2939     0.0094     0.0984
    7.2252     0.0174     0.2952     0.0094     0.0990
    7.2322     0.0175     0.2964     0.0094     0.0997
    7.2392     0.0175     0.2976     0.0094     0.1004
    7.2462     0.0176     0.2988     0.0094     0.1010
    7.2533     0.0176     0.3001     0.0094     0.1017
    7.2603     0.0177     0.3013     0.0095     0.1023
    7.2673     0.0177     0.3025     0.0095     0.1030
    7.2743     0.0178     0.3038     0.0095     0.1037
    7.2813     0.0178     0.3050     0.0095     0.1043
    7.2883     0.0179     0.3063     0.0095     0.1050
    7.2953     0.0179     0.3075     0.0095     0.1057
    7.3023     0.0180     0.3088     0.0096     0.1063
    7.3093     0.0180     0.3100     0.0096     0.1070
    7.3163     0.0181     0.3113     0.0096     0.1077
    7.3233     0.0181     0.3126     0.0096     0.1083
    7.3303     0.0182     0.3138     0.0096     0.1090
    7.3373     0.0182     0.3151     0.0096     0.1097
    7.3443     0.0183     0.3164     0.0097     0.1104
    7.3514     0.0183     0.3177     0.0097     0.1110
    7.3584     0.0184     0.3190     0.0097     0.1117
    7.3654     0.0184     0.3202     0.0097     0.1124
    7.3724     0.0185     0.3215     0.0097     0.1131
    7.3794     0.0185     0.3228     0.0097     0.1138
    7.3864     0.0186     0.3241     0.0098     0.1144
    7.3934     0.0186     0.3254     0.0098     0.1151
    7.4004     0.0187     0.3267     0.0098     0.1158
    7.4074     0.0188     0.3280     0.0098     0.1165
    7.4144     0.0188     0.3293     0.0098     0.1172
    7.4214     0.0189     0.3307     0.0099     0.1179
    7.4284     0.0189     0.3320     0.0099     0.1186
    7.4354     0.0190     0.3333     0.0099     0.1193
    7.4424     0.0190     0.3346     0.0099     0.1200
    7.4494     0.0191     0.3360     0.0099     0.1207
    7.4565     0.0191     0.3373     0.0100     0.1213
    7.4635     0.0192     0.3386     0.0100     0.1220
    7.4705     0.0192     0.3400     0.0100     0.1227
   7.47748    0.01928    0.34131    0.01001    0.12345
   7.48448    0.01933    0.34266    0.01003    0.12415
   7.49149    0.01939    0.34402    0.01005    0.12485
   7.49850    0.01944    0.34538    0.01007    0.12556
   7.50551    0.01950    0.34674    0.01009    0.12626
   7.51251    0.01955    0.34810    0.01011    0.12697
   7.51952    0.01961    0.34947    0.01013    0.12768
   7.52653    0.01966    0.35085    0.01015    0.12839
   7.53353    0.01972    0.35223    0.01017    0.12910
   7.54054    0.01978    0.35361    0.01019    0.12981
   7.54755    0.01983    0.35500    0.01021    0.13053
   7.55455    0.01989    0.35639    0.01023    0.13124
   7.56156    0.01995    0.35778    0.01025    0.13196
   7.56857    0.02001    0.35918    0.01028    0.13268
   7.57558    0.02006    0.36058    0.01030    0.13340
   7.58258    0.02012    0.36199    0.01032    0.13412
   7.58959    0.02018    0.36340    0.01034    0.13485
   7.59660    0.02024    0.36481    0.01036    0.13557
   7.60360    0.02030    0.36623    0.01038    0.13630
   7.61061    0.02036    0.36765    0.01040    0.13702
   7.61762    0.02042    0.36908    0.01042    0.13775
   7.62462    0.02048    0.37051    0.01044    0.13848
   7.63163    0.02054    0.37195    0.01046    0.13922
   7.63864    0.02060    0.37339    0.01049    0.13995
   7.64565    0.02066    0.37483    0.01051    0.14068
   7.65265    0.02072    0.37628    0.01053    0.14142
   7.65966    0.02078    0.37773    0.01055    0.14216
   7.66667    0.02084    0.37919    0.01057    0.14290
   7.67367    0.02090    0.38065    0.01059    0.14364
   7.68068    0.02096    0.38212    0.01062    0.14438
   7.68769    0.02103    0.38359    0.01064    0.14513
   7.69469    0.02109    0.38506    0.01066    0.14587
   7.70170    0.02115    0.38654    0.01068    0.14662
   7.70871    0.02122    0.38802    0.01070    0.14737
   7.71572    0.02128    0.38951    0.01073    0.14812
   7.72272    0.02134    0.39100    0.01075    0.14887
   7.72973    0.02141    0.39250    0.01077    0.14962
   7.73674    0.02147    0.39400    0.01079    0.15038
   7.74374    0.02153    0.39550    0.01082    0.15114
   7.75075    0.02160    0.39701    0.01084    0.15189
   7.75776    0.02166    0.39853    0.01086    0.15265
   7.76476    0.02173    0.40005    0.01088    0.15342
   7.77177    0.02180    0.40157    0.01091    0.15418
   7.77878    0.02186    0.40310    0.01093    0.15494
   7.78579    0.02193    0.40463    0.01095    0.15571
   7.79279    0.02199    0.40617    0.01098    0.15648
   7.79980    0.02206    0.40771    0.01100    0.15725
   7.80681    0.02213    0.40926    0.01102    0.15802
   7.81381    0.02220    0.41081    0.01104    0.15879
   7.82082    0.02226    0.41236    0.01107    0.15957
   7.82783    0.02233    0.41393    0.01109    0.16034
   7.83483    0.02240    0.41549    0.01112    0.16112
   7.84184    0.02247    0.41706    0.01114    0.16190
   7.84885    0.02254    0.41864    0.01116    0.16268
   7.85586    0.02261    0.42022    0.01119    0.16346
   7.86286    0.02268    0.42180    0.01121    0.16425
   7.86987    0.02275    0.42339    0.01123    0.16503
   7.87688    0.02282    0.42499    0.01126    0.16582
   7.88388    0.02289    0.42659    0.01128    0.16661
   7.89089    0.02296    0.42819    0.01131    0.16740
   7.89790    0.02303    0.42980    0.01133    0.16819
   7.90490    0.02310    0.43142    0.01136    0.16899
   7.91191    0.02317    0.43304    0.01138    0.16978
   7.91892    0.02325    0.43466    0.01140    0.17058
   7.92593    0.02332    0.43629    0.01143    0.17138
   7.93293    0.02339    0.43793    0.01145    0.17218
   7.93994    0.02346    0.43957    0.01148    0.17299
   7.94695    0.02354    0.44121    0.01150    0.17379
   7.95395    0.02361    0.44286    0.01153    0.17460
   7.96096    0.02368    0.44452    0.01155    0.17540
   7.96797    0.02376    0.44618    0.01158    0.17621
   7.97497    0.02383    0.44784    0.01160    0.17703
   7.98198    0.02391    0.44951    0.01163    0.17784
   7.98899    0.02398    0.45119    0.01165    0.17866
   7.99600    0.02406    0.45287    0.01168    0.17947
   8.00300    0.02414    0.45456    0.01171    0.18029
   8.01001    0.02421    0.45625    0.01173    0.18111
   8.01702    0.02429    0.45795    0.01176    0.18193
   8.02402    0.02437    0.45965    0.01178    0.18276
   8.03103    0.02444    0.46136    0.01181    0.18358
   8.03804    0.02452    0.46307    0.01183    0.18441
   8.04504    0.02460    0.46479    0.01186    0.18524
   8.05205    0.02468    0.46652    0.01189    0.18607
   8.05906    0.02476    0.46825    0.01191    0.18691
   8.06607    0.02484    0.46998    0.01194    0.18774
   8.07307    0.02492    0.47172    0.01196    0.18858
   8.08008    0.02500    0.47347    0.01199    0.18942
   8.08709    0.02508    0.47522    0.01202    0.19026
   8.09409    0.02516    0.47698    0.01204    0.19110
   8.10110    0.02524    0.47875    0.01207    0.19195
   8.10811    0.02532    0.48052    0.01210    0.19279
   8.11512    0.02540    0.48229    0.01212    0.19364
   8.12212    0.02548    0.48407    0.01215    0.19449
   8.12913    0.02557    0.48586    0.01218    0.19534
   8.13614    0.02565    0.48765    0.01221    0.19620
   8.14314    0.02573    0.48945    0.01223    0.19705
   8.15015    0.02582    0.49125    0.01226    0.19791
   8.15716    0.02590    0.49306    0.01229    0.19877
   8.16416    0.02599    0.49488    0.01231    0.19963
   8.17117    0.02607    0.49670    0.01234    0.20049
   8.17818    0.02616    0.49853    0.01237    0.20136
   8.18518    0.02624    0.50036    0.01240    0.20223
   8.19219    0.02633    0.50220    0.01243    0.20310
   8.19920    0.02641    0.50405    0.01245    0.20397
   8.20621    0.02650    0.50590    0.01248    0.20484
   8.21321    0.02659    0.50776    0.01251    0.20572
   8.22022    0.02668    0.50962    0.01254    0.20659
   8.22723    0.02677    0.51149    0.01257    0.20747
   8.23423    0.02685    0.51337    0.01259    0.20835
   8.24124    0.02694    0.51525    0.01262    0.20924
   8.24825    0.02703    0.51714    0.01265    0.21012
   8.25526    0.02712    0.51904    0.01268    0.21101
   8.26226    0.02721    0.52094    0.01271    0.21190
   8.26927    0.02730    0.52285    0.01274    0.21279
   8.27628    0.02739    0.52476    0.01277    0.21368
   8.28328    0.02749    0.52668    0.01279    0.21458
   8.29029    0.02758    0.52861    0.01282    0.21547
   8.29730    0.02767    0.53054    0.01285    0.21637
   8.30430    0.02776    0.53248    0.01288    0.21727
   8.31131    0.02786    0.53443    0.01291    0.21818
   8.31832    0.02795    0.53638    0.01294    0.21908
   8.32533    0.02805    0.53834    0.01297    0.21999
   8.33233    0.02814    0.54031    0.01300    0.22090
   8.33934    0.02824    0.54228    0.01303    0.22181
   8.34635    0.02833    0.54426    0.01306    0.22272
   8.35335    0.02843    0.54625    0.01309    0.22364
   8.36036    0.02852    0.54824    0.01312    0.22456
   8.36737    0.02862    0.55024    0.01315    0.22548
   8.37437    0.02872    0.55225    0.01318    0.22640
   8.38138    0.02882    0.55426    0.01321    0.22732
   8.38839    0.02891    0.55628    0.01324    0.22825
   8.39540    0.02901    0.55831    0.01327    0.22918
   8.40240    0.02911    0.56034    0.01330    0.23011
   8.40941    0.02921    0.56238    0.01333    0.23104
   8.41642    0.02931    0.56443    0.01336    0.23198
   8.42342    0.02941    0.56649    0.01339    0.23291
   8.43043    0.02952    0.56855    0.01343    0.23385
   8.43744    0.02962    0.57062    0.01346    0.23479
   8.44444    0.02972    0.57269    0.01349    0.23574
   8.45145    0.02982    0.57478    0.01352    0.23668
   8.45846    0.02993    0.57687    0.01355    0.23763
   8.46547    0.03003    0.57897    0.01358    0.23858
   8.47247    0.03014    0.58107    0.01361    0.23953
   8.47948    0.03024    0.58319    0.01365    0.24049
   8.48649    0.03035    0.58531    0.01368    0.24144
   8.49349    0.03045    0.58743    0.01371    0.24240
   8.50050    0.03056    0.58957    0.01374    0.24336
   8.50751    0.03067    0.59171    0.01377    0.24433
   8.51451    0.03077    0.59386    0.01381    0.24529
   8.52152    0.03088    0.59602    0.01384    0.24626
   8.52853    0.03099    0.59818    0.01387    0.24723
   8.53553    0.03110    0.60036    0.01390    0.24820
   8.54254    0.03121    0.60254    0.01393    0.24918
   8.54955    0.03132    0.60472    0.01397    0.25016
   8.55656    0.03143    0.60692    0.01400    0.25114
   8.56356    0.03154    0.60912    0.01403    0.25212
   8.57057    0.03165    0.61134    0.01407    0.25310
   8.57758    0.03177    0.61355    0.01410    0.25409
   8.58459    0.03188    0.61578    0.01413    0.25508
   8.59159    0.03199    0.61802    0.01417    0.25607
   8.59860    0.03211    0.62026    0.01420    0.25706
   8.60561    0.03222    0.62251    0.01423    0.25806
   8.61261    0.03234    0.62477    0.01427    0.25905
   8.61962    0.03246    0.62704    0.01430    0.26005
   8.62663    0.03257    0.62931    0.01433    0.26106
   8.63363    0.03269    0.63160    0.01437    0.26206
   8.64064    0.03281    0.63389    0.01440    0.26307
   8.64765    0.03293    0.63619    0.01444    0.26408
   8.65465    0.03305    0.63850    0.01447    0.26509
   8.66166    0.03317    0.64081    0.01451    0.26611
   8.66867    0.03329    0.64314    0.01454    0.26712
   8.67568    0.03341    0.64547    0.01458    0.26814
   8.68268    0.03353    0.64781    0.01461    0.26917
   8.68969    0.03365    0.65017    0.01465    0.27019
   8.69670    0.03377    0.65252    0.01468    0.27122
   8.70370    0.03390    0.65489    0.01472    0.27225
   8.71071    0.03402    0.65727    0.01475    0.27328
   8.71772    0.03415    0.65965    0.01479    0.27431
   8.72472    0.03427    0.66205    0.01482    0.27535
   8.73173    0.03440    0.66445    0.01486    0.27639
   8.73874    0.03453    0.66686    0.01489    0.27743
   8.74575    0.03465    0.66928    0.01493    0.27847
   8.75275    0.03478    0.67171    0.01497    0.27952
   8.75976    0.03491    0.67415    0.01500    0.28057
   8.76677    0.03504    0.67660    0.01504    0.28162
   8.77377    0.03517    0.67906    0.01507    0.28268
   8.78078    0.03530    0.68152    0.01511    0.28373
   8.78779    0.03544    0.68400    0.01515    0.28479
   8.79479    0.03557    0.68648    0.01518    0.28586
   8.80180    0.03570    0.68897    0.01522    0.28692
   8.80881    0.03583    0.69148    0.01526    0.28799
   8.81582    0.03597    0.69399    0.01529    0.28906
   8.82282    0.03610    0.69651    0.01533    0.29013
   8.82983    0.03624    0.69904    0.01537    0.29120
   8.83684    0.03638    0.70158    0.01541    0.29228
   8.84384    0.03652    0.70413    0.01544    0.29336
   8.85085    0.03665    0.70669    0.01548    0.29445
   8.85786    0.03679    0.70926    0.01552    0.29553
   8.86486    0.03693    0.71184    0.01556    0.29662
   8.87187    0.03707    0.71443    0.01560    0.29771
   8.87888    0.03722    0.71703    0.01563    0.29880
   8.88589    0.03736    0.71964    0.01567    0.29990
   8.89289    0.03750    0.72226    0.01571    0.30100
   8.89990    0.03764    0.72489    0.01575    0.30210
   8.90691    0.03779    0.72752    0.01579    0.30320
   8.91391    0.03793    0.73017    0.01583    0.30431
   8.92092    0.03808    0.73283    0.01587    0.30542
   8.92793    0.03823    0.73550    0.01591    0.30653
   8.93494    0.03838    0.73818    0.01595    0.30765
   8.94194    0.03852    0.74087    0.01598    0.30877
   8.94895    0.03867    0.74357    0.01602    0.30989
   8.95596    0.03882    0.74628    0.01606    0.31101
   8.96296    0.03898    0.74901    0.01610    0.31214
   8.96997    0.03913    0.75174    0.01614    0.31327
   8.97698    0.03928    0.75448    0.01618    0.31440
   8.98398    0.03943    0.75723    0.01622    0.31553
   8.99099    0.03959    0.76000    0.01626    0.31667
   8.99800    0.03974    0.76278    0.01631    0.31781
   9.00500    0.03990    0.76556    0.01635    0.31896
   9.01201    0.04006    0.76836    0.01639    0.32010
   9.01902    0.04022    0.77117    0.01643    0.32125
   9.02603    0.04038    0.77399    0.01647    0.32240
   9.03303    0.04054    0.77682    0.01651    0.32356
   9.04004    0.04070    0.77966    0.01655    0.32471
   9.04705    0.04086    0.78251    0.01659    0.32588
   9.05405    0.04102    0.78537    0.01663    0.32704
   9.06106    0.04119    0.78825    0.01668    0.32820
   9.06807    0.04135    0.79114    0.01672    0.32937
   9.07508    0.04152    0.79404    0.01676    0.33055
   9.08208    0.04168    0.79695    0.01680    0.33172
   9.08909    0.04185    0.79987    0.01685    0.33290
   9.09610    0.04202    0.80280    0.01689    0.33408
   9.10310    0.04219    0.80575    0.01693    0.33527
   9.11011    0.04236    0.80870    0.01697    0.33645
   9.11712    0.04253    0.81167    0.01702    0.33764
   9.12412    0.04270    0.81466    0.01706    0.33884
   9.13113    0.04288    0.81765    0.01710    0.34003
   9.13814    0.04305    0.82065    0.01715    0.34123
   9.14514    0.04323    0.82367    0.01719    0.34243
   9.15215    0.04340    0.82670    0.01723    0.34364
   9.15916    0.04358    0.82974    0.01728    0.34485
   9.16617    0.04376    0.83280    0.01732    0.34606
   9.17317    0.04394    0.83587    0.01737    0.34727
   9.18018    0.04412    0.83895    0.01741    0.34849
   9.18719    0.04430    0.84204    0.01745    0.34971
   9.19419    0.04449    0.84515    0.01750    0.35093
   9.20120    0.04467    0.84826    0.01754    0.35216
   9.20821    0.04486    0.85139    0.01759    0.35339
   9.21521    0.04504    0.85454    0.01763    0.35463
   9.22222    0.04523    0.85770    0.01768    0.35586
   9.22923    0.04542    0.86087    0.01773    0.35710
   9.23624    0.04561    0.86405    0.01777    0.35834
   9.24324    0.04580    0.86725    0.01782    0.35959
   9.25025    0.04599    0.87046    0.01786    0.36084
   9.25726    0.04619    0.87368    0.01791    0.36209
   9.26426    0.04638    0.87692    0.01796    0.36335
   9.27127    0.04658    0.88017    0.01800    0.36461
   9.27828    0.04677    0.88343    0.01805    0.36587
   9.28529    0.04697    0.88671    0.01810    0.36713
   9.29229    0.04717    0.89000    0.01814    0.36840
   9.29930    0.04737    0.89331    0.01819    0.36968
   9.30631    0.04757    0.89663    0.01824    0.37095
   9.31331    0.04778    0.89997    0.01828    0.37223
   9.32032    0.04798    0.90331    0.01833    0.37351
   9.32733    0.04819    0.90668    0.01838    0.37480
   9.33433    0.04839    0.91006    0.01843    0.37609
   9.34134    0.04860    0.91345    0.01848    0.37738
   9.34835    0.04881    0.91685    0.01852    0.37867
   9.35536    0.04902    0.92027    0.01857    0.37997
   9.36236    0.04923    0.92371    0.01862    0.38127
   9.36937    0.04945    0.92716    0.01867    0.38258
   9.37638    0.04966    0.93063    0.01872    0.38389
   9.38338    0.04988    0.93411    0.01877    0.38520
   9.39039    0.05010    0.93760    0.01882    0.38652
   9.39740    0.05032    0.94112    0.01887    0.38784
   9.40440    0.05054    0.94464    0.01892    0.38916
   9.41141    0.05076    0.94818    0.01897    0.39049
   9.41842    0.05098    0.95174    0.01902    0.39182
   9.42543    0.05121    0.95532    0.01907    0.39315
   9.43243    0.05143    0.95890    0.01912    0.39449
   9.43944    0.05166    0.96251    0.01917    0.39583
   9.44645    0.05189    0.96613    0.01922    0.39717
   9.45345    0.05212    0.96977    0.01927    0.39852
   9.46046    0.05235    0.97342    0.01932    0.39987
   9.46747    0.05258    0.97709    0.01938    0.40123
   9.47447    0.05282    0.98077    0.01943    0.40258
   9.48148    0.05306    0.98448    0.01948    0.40395
   9.48849    0.05329    0.98819    0.01953    0.40531
   9.49549    0.05353    0.99193    0.01958    0.40668
   9.50250    0.05378    0.99568    0.01964    0.40806
   9.50951    0.05402    0.99945    0.01969    0.40943
   9.51652    0.05426    1.00324    0.01974    0.41081
   9.52352    0.05451    1.00704    0.01979    0.41220
   9.53053    0.05476    1.01086    0.01985    0.41358
   9.53754    0.05501    1.01470    0.01990    0.41498
   9.54454    0.05526    1.01855    0.01995    0.41637
   9.55155    0.05551    1.02243    0.02001    0.41777
   9.55856    0.05577    1.02632    0.02006    0.41917
   9.56557    0.05602    1.03022    0.02012    0.42058
   9.57257    0.05628    1.03415    0.02017    0.42199
   9.57958    0.05654    1.03809    0.02023    0.42341
   9.58659    0.05680    1.04206    0.02028    0.42482
   9.59359    0.05706    1.04604    0.02034    0.42625
   9.60060    0.05733    1.05004    0.02039    0.42767
   9.60761    0.05760    1.05405    0.02045    0.42910
   9.61461    0.05786    1.05809    0.02050    0.43053
   9.62162    0.05813    1.06215    0.02056    0.43197
   9.62863    0.05841    1.06622    0.02062    0.43341
   9.63564    0.05868    1.07031    0.02067    0.43486
   9.64264    0.05896    1.07443    0.02073    0.43631
   9.64965    0.05924    1.07856    0.02079    0.43776
   9.65666    0.05952    1.08271    0.02084    0.43922
   9.66366    0.05980    1.08688    0.02090    0.44068
   9.67067    0.06008    1.09107    0.02096    0.44215
   9.67768    0.06037    1.09528    0.02101    0.44362
   9.68468    0.06065    1.09951    0.02107    0.44509
   9.69169    0.06094    1.10376    0.02113    0.44657
   9.69870    0.06124    1.10803    0.02119    0.44805
   9.70571    0.06153    1.11232    0.02125    0.44953
   9.71271    0.06183    1.11663    0.02131    0.45102
   9.71972    0.06212    1.12097    0.02137    0.45252
   9.72673    0.06242    1.12532    0.02143    0.45402
   9.73373    0.06273    1.12970    0.02148    0.45552
   9.74074    0.06303    1.13409    0.02154    0.45702
   9.74775    0.06334    1.13851    0.02160    0.45854
   9.75476    0.06365    1.14295    0.02166    0.46005
   9.76176    0.06396    1.14741    0.02173    0.46157
   9.76877    0.06427    1.15189    0.02179    0.46309
   9.77578    0.06459    1.15639    0.02185    0.46462
   9.78278    0.06491    1.16092    0.02191    0.46615
   9.78979    0.06523    1.16547    0.02197    0.46769
   9.79680    0.06555    1.17004    0.02203    0.46923
   9.80380    0.06587    1.17463    0.02209    0.47077
   9.81081    0.06620    1.17924    0.02216    0.47232
   9.81782    0.06653    1.18388    0.02222    0.47388
   9.82482    0.06686    1.18855    0.02228    0.47543
   9.83183    0.06720    1.19323    0.02234    0.47700
   9.83884    0.06753    1.19794    0.02241    0.47856
   9.84585    0.06787    1.20267    0.02247    0.48013
   9.85285    0.06821    1.20743    0.02253    0.48171
   9.85986    0.06856    1.21221    0.02260    0.48329
   9.86687    0.06891    1.21701    0.02266    0.48487
   9.87387    0.06926    1.22184    0.02273    0.48646
   9.88088    0.06961    1.22669    0.02279    0.48806
   9.88789    0.06996    1.23157    0.02286    0.48965
   9.89489    0.07032    1.23647    0.02292    0.49126
   9.90190    0.07068    1.24140    0.02299    0.49286
   9.90891    0.07104    1.24635    0.02305    0.49447
   9.91592    0.07141    1.25133    0.02312    0.49609
   9.92292    0.07178    1.25633    0.02319    0.49771
   9.92993    0.07215    1.26136    0.02325    0.49934
   9.93694    0.07252    1.26641    0.02332    0.50097
   9.94394    0.07290    1.27149    0.02339    0.50260
   9.95095    0.07328    1.27660    0.02345    0.50424
   9.95796    0.07366    1.28174    0.02352    0.50589
   9.96496    0.07405    1.28690    0.02359    0.50754
   9.97197    0.07444    1.29209    0.02366    0.50919
   9.97898    0.07483    1.29730    0.02373    0.51085
   9.98599    0.07522    1.30254    0.02379    0.51251
   9.99299    0.07562    1.30781    0.02386    0.51418
  10.00000    0.07602    1.31311    0.02393    0.51585
# 
# YAMBO@anomaly x 001 CPUs * 11/15/2013  18:22 [start]
#                            11/15/2013  18:22 [end]
# 
# Cpu Timing [Min/Max/Average]: 02s/02s/02s
#
# .-Input file : INPUTS/in_bse
# | optics                       # [R OPT] Optics
# | bse                          # [R BSE] Bethe Salpeter Equation.
# | bsk                          # [R BSK] Bethe Salpeter Equation kernel
# | bss                          # [R BSS] Bethe Salpeter Equation solver
# | em1s                         # [R Xs] Static Inverse Dielectric Matrix
# | BoseTemp= 0.000000     eV    # Bosonic Temperature
# | FFTGvecs=  3317        RL    # [FFT] Plane-waves
# | Chimod= "Hartree"            # [X] IP/Hartree/ALDA/LRC/BSfxc
# | BSEmod= "coupling"           # [BSE] resonant/causal/coupling
# | BSKmod= "SEX"                # [BSE] IP/Hartree/HF/ALDA/SEX/BSfxc
# | BSSmod= "d"                  # [BSS] (h)aydock/(d)iagonalization/(i)nversion/(t)ddft`
# | BSENGexx=  3413        RL    # [BSK] Exchange components
# | BSENGBlk= 107          RL    # [BSK] Screened interaction block size
# | #WehCpl                      # [BSK] eh interaction included also in coupling
# | % BEnRange
# |   3.00000 | 10.00000 | eV    # [BSS] Energy range
# | %
# | % BDmRange
# |   0.10000 |  0.10000 | eV    # [BSS] Damping range
# | %
# | BEnSteps= 1000               # [BSS] Energy steps
# | % BLongDir
# | 0.1000E-4 | 0.000    | 0.000    |        # [BSS] [cc] Electric Field
# | %
# | % BSEBands
# |   3 | 10 |                   # [BSK] Bands range
# | %
# | % BndsRnXs
# |    1 |  50 |                 # [Xs] Polarization function bands
# | %
# | NGsBlkXs= 107          RL    # [Xs] Response block size
# | % LongDrXs
# | 0.1000E-4 | 0.000    | 0.000    |        # [Xs] [cc] Electric Field
# | %
