#  __      __   ______   __       __  _______    ______     
# |  \    /  \ /      \ |  \     /  \|       \  /      \    
#  \$$\  /  $$|  $$$$$$\| $$\   /  $$| $$$$$$$\|  $$$$$$\   
#   \$$\/  $$ | $$__| $$| $$$\ /  $$$| $$__/ $$| $$  | $$   
#    \$$  $$  | $$    $$| $$$$\  $$$$| $$    $$| $$  | $$   
#     \$$$$   | $$$$$$$$| $$\$$ $$ $$| $$$$$$$\| $$  | $$   
#     | $$    | $$  | $$| $$ \$$$| $$| $$__/ $$| $$__/ $$   
#     | $$    | $$  | $$| $$  \$ | $$| $$    $$ \$$    $$   
#      \$$     \$$   \$$ \$$      \$$ \$$$$$$$   \$$$$$$    
#                                                           
#        Version 4.2.0 Revision 14791 Hash a8d1f41          
#                        MPI Build                          
#                http://www.yambo-code.org                  
#
# Joint density of states @ Q(1) [q->0 direction] :0.5774E-5 0.5774E-5 0.5774E-5
#
# - Energies      are  Analyt. E
# - The Green`s function is Retarded -
#
#   BSK|Identifier              :2096
#      |Dimension               :32
#      |Bands                   :7 - 10
#      |Exchange           [res]: yes
#      |Correlation        [res]: yes
#      |Kernel`s coupling       : no
#      |Exchange           [cpl]: no
#      |Correlation        [cpl]: no
#      |W interaction is bare   : no
#      |ALDA kernel in R-space  : no
#      |RL vectors    [exchange]:51
#      |RL vectors [correlation]:51
#      |E/h energy range    [ev]:-1.000000 - -1.000000
#      |Coupling range     [o/o]: 100.0000 -  100.0000
#    W |Interaction is diagonal : no
#      |Matrix size             :51
#      |Bands                   :1 - 60
#      |e/h energy range    [ev]:-1.000000 - -1.000000
#      |Poles              [o/o]: 100.0000
#      |RL vectors in the sum   :3473
#      |[r,Vnl] included        : yes
#      |Field direction         :0.1000E-4  0.000000  0.000000
#      |Coulomb Cutoff          :none
#      |xc-Kernel               :none
#   RIM|RL components      [col]:0
#      |Random points      [col]:0
#
#    E/ev[1]      jdos-Im[2]   jdos-Re[3]   jdoso-Im[4]  jdoso-Re[5]  jdos`-Im[6]  jdos`-Re[7]
#
    4.000       0.3370E-2    0.6787       0.1659E-1     3.736   
    4.010       0.3392E-2    0.6800       0.1670E-1     3.743   
    4.020       0.3414E-2    0.6814       0.1681E-1     3.749   
    4.030       0.3436E-2    0.6828       0.1692E-1     3.756   
    4.040       0.3459E-2    0.6841       0.1704E-1     3.763   
    4.050       0.3482E-2    0.6855       0.1715E-1     3.770   
    4.060       0.3505E-2    0.6869       0.1726E-1     3.777   
    4.070       0.3528E-2    0.6883       0.1738E-1     3.784   
    4.080       0.3551E-2    0.6898       0.1749E-1     3.791   
    4.090       0.3574E-2    0.6912       0.1761E-1     3.798   
    4.100       0.3598E-2    0.6926       0.1773E-1     3.805   
    4.110       0.3622E-2    0.6941       0.1785E-1     3.812   
    4.120       0.3646E-2    0.6955       0.1797E-1     3.819   
    4.130       0.3670E-2    0.6970       0.1809E-1     3.826   
    4.140       0.3695E-2    0.6985       0.1822E-1     3.834   
    4.150       0.3720E-2    0.7000       0.1834E-1     3.841   
    4.160       0.3745E-2    0.7015       0.1847E-1     3.848   
    4.170       0.3770E-2    0.7030       0.1859E-1     3.856   
    4.180       0.3795E-2    0.7045       0.1872E-1     3.863   
    4.190       0.3821E-2    0.7060       0.1885E-1     3.871   
    4.201       0.3847E-2    0.7075       0.1898E-1     3.878   
    4.211       0.3873E-2    0.7091       0.1911E-1     3.886   
    4.221       0.3899E-2    0.7107       0.1924E-1     3.894   
    4.231       0.3926E-2    0.7122       0.1938E-1     3.901   
    4.241       0.3952E-2    0.7138       0.1951E-1     3.909   
    4.251       0.3979E-2    0.7154       0.1965E-1     3.917   
    4.261       0.4007E-2    0.7170       0.1979E-1     3.925   
    4.271       0.4034E-2    0.7186       0.1993E-1     3.933   
    4.281       0.4062E-2    0.7202       0.2007E-1     3.941   
    4.291       0.4090E-2    0.7219       0.2021E-1     3.949   
    4.301       0.4118E-2    0.7235       0.2035E-1     3.957   
    4.311       0.4147E-2    0.7252       0.2050E-1     3.965   
    4.321       0.4176E-2    0.7268       0.2064E-1     3.974   
    4.331       0.4205E-2    0.7285       0.2079E-1     3.982   
    4.341       0.4234E-2    0.7302       0.2094E-1     3.990   
    4.351       0.4264E-2    0.7319       0.2109E-1     3.999   
    4.361       0.4294E-2    0.7336       0.2124E-1     4.007   
    4.371       0.4324E-2    0.7354       0.2140E-1     4.016   
    4.381       0.4354E-2    0.7371       0.2155E-1     4.024   
    4.391       0.4385E-2    0.7388       0.2171E-1     4.033   
      4.4010       0.0044       0.7406       0.0219       4.0418
      4.4110       0.0044       0.7424       0.0220       4.0506
      4.4211       0.0045       0.7442       0.0222       4.0595
      4.4311       0.0045       0.7460       0.0224       4.0684
      4.4411       0.0045       0.7478       0.0225       4.0774
      4.4511       0.0046       0.7496       0.0227       4.0864
      4.4612       0.0046       0.7515       0.0229       4.0956
      4.4712       0.0046       0.7533       0.0230       4.1048
      4.4812       0.0047       0.7552       0.0232       4.1140
      4.4912       0.0047       0.7571       0.0234       4.1234
      4.5013       0.0047       0.7590       0.0236       4.1328
      4.5113       0.0048       0.7609       0.0237       4.1423
      4.5213       0.0048       0.7628       0.0239       4.1518
      4.5313       0.0048       0.7647       0.0241       4.1615
      4.5414       0.0049       0.7667       0.0243       4.1712
      4.5514       0.0049       0.7686       0.0245       4.1809
      4.5614       0.0050       0.7706       0.0247       4.1908
      4.5714       0.0050       0.7726       0.0249       4.2007
      4.5815       0.0050       0.7746       0.0251       4.2107
      4.5915       0.0051       0.7767       0.0252       4.2208
      4.6015       0.0051       0.7787       0.0254       4.2310
      4.6115       0.0051       0.7807       0.0256       4.2412
      4.6216       0.0052       0.7828       0.0259       4.2515
      4.6316       0.0052       0.7849       0.0261       4.2619
      4.6416       0.0053       0.7870       0.0263       4.2724
      4.6516       0.0053       0.7891       0.0265       4.2830
      4.6617       0.0053       0.7912       0.0267       4.2937
      4.6717       0.0054       0.7934       0.0269       4.3044
      4.6817       0.0054       0.7956       0.0271       4.3152
      4.6917       0.0055       0.7977       0.0273       4.3261
      4.7018       0.0055       0.7999       0.0276       4.3372
      4.7118       0.0055       0.8022       0.0278       4.3483
      4.7218       0.0056       0.8044       0.0280       4.3594
      4.7318       0.0056       0.8066       0.0283       4.3707
      4.7419       0.0057       0.8089       0.0285       4.3821
      4.7519       0.0057       0.8112       0.0287       4.3936
      4.7619       0.0058       0.8135       0.0290       4.4051
      4.7719       0.0058       0.8158       0.0292       4.4168
      4.7820       0.0059       0.8182       0.0295       4.4286
      4.7920       0.0059       0.8205       0.0297       4.4404
      4.8020       0.0059       0.8229       0.0300       4.4524
      4.8120       0.0060       0.8253       0.0302       4.4645
      4.8221       0.0060       0.8277       0.0305       4.4766
      4.8321       0.0061       0.8301       0.0308       4.4889
      4.8421       0.0061       0.8326       0.0310       4.5013
      4.8521       0.0062       0.8351       0.0313       4.5138
      4.8622       0.0062       0.8375       0.0316       4.5264
      4.8722       0.0063       0.8401       0.0319       4.5391
      4.8822       0.0063       0.8426       0.0321       4.5519
      4.8922       0.0064       0.8451       0.0324       4.5649
      4.9023       0.0064       0.8477       0.0327       4.5779
      4.9123       0.0065       0.8503       0.0330       4.5911
      4.9223       0.0066       0.8529       0.0333       4.6044
      4.9323       0.0066       0.8556       0.0336       4.6178
      4.9424       0.0067       0.8582       0.0339       4.6313
      4.9524       0.0067       0.8609       0.0342       4.6450
      4.9624       0.0068       0.8636       0.0346       4.6588
      4.9724       0.0068       0.8663       0.0349       4.6727
      4.9825       0.0069       0.8691       0.0352       4.6868
      4.9925       0.0069       0.8719       0.0355       4.7009
      5.0025       0.0070       0.8747       0.0359       4.7153
      5.0125       0.0071       0.8775       0.0362       4.7297
      5.0226       0.0071       0.8803       0.0366       4.7443
      5.0326       0.0072       0.8832       0.0369       4.7590
      5.0426       0.0072       0.8861       0.0373       4.7739
      5.0526       0.0073       0.8890       0.0376       4.7889
      5.0627       0.0074       0.8919       0.0380       4.8041
      5.0727       0.0074       0.8949       0.0384       4.8194
      5.0827       0.0075       0.8979       0.0388       4.8348
      5.0927       0.0076       0.9009       0.0392       4.8505
      5.1028       0.0076       0.9040       0.0395       4.8662
      5.1128       0.0077       0.9070       0.0399       4.8822
      5.1228       0.0078       0.9101       0.0404       4.8983
      5.1328       0.0078       0.9133       0.0408       4.9145
      5.1429       0.0079       0.9164       0.0412       4.9309
      5.1529       0.0080       0.9196       0.0416       4.9475
      5.1629       0.0080       0.9228       0.0421       4.9643
      5.1729       0.0081       0.9261       0.0425       4.9813
      5.1830       0.0082       0.9293       0.0429       4.9984
      5.1930       0.0083       0.9326       0.0434       5.0157
      5.2030       0.0083       0.9359       0.0439       5.0332
      5.2130       0.0084       0.9393       0.0443       5.0509
      5.2231       0.0085       0.9427       0.0448       5.0687
      5.2331       0.0086       0.9461       0.0453       5.0868
      5.2431       0.0087       0.9496       0.0458       5.1051
      5.2531       0.0087       0.9531       0.0463       5.1235
      5.2632       0.0088       0.9566       0.0469       5.1422
      5.2732       0.0089       0.9601       0.0474       5.1611
      5.2832       0.0090       0.9637       0.0479       5.1802
      5.2932       0.0091       0.9673       0.0485       5.1995
      5.3033       0.0092       0.9710       0.0490       5.2191
      5.3133       0.0092       0.9747       0.0496       5.2389
      5.3233       0.0093       0.9784       0.0502       5.2589
      5.3333       0.0094       0.9821       0.0508       5.2791
      5.3434       0.0095       0.9859       0.0514       5.2996
      5.3534       0.0096       0.9898       0.0520       5.3203
      5.3634       0.0097       0.9936       0.0527       5.3413
      5.3734       0.0098       0.9975       0.0533       5.3625
      5.3835       0.0099       1.0015       0.0540       5.3840
      5.3935       0.0100       1.0055       0.0546       5.4058
     5.40351      0.01008      1.00947      0.05533      5.42781
     5.41353      0.01018      1.01353      0.05603      5.45013
     5.42356      0.01028      1.01763      0.05675      5.47273
     5.43358      0.01038      1.02178      0.05748      5.49562
     5.44361      0.01049      1.02596      0.05824      5.51881
     5.45363      0.01059      1.03018      0.05900      5.54230
     5.46366      0.01070      1.03445      0.05979      5.56610
     5.47368      0.01081      1.03877      0.06060      5.59022
     5.48371      0.01092      1.04312      0.06142      5.61467
     5.49373      0.01103      1.04752      0.06226      5.63945
     5.50376      0.01115      1.05197      0.06313      5.66457
     5.51378      0.01126      1.05646      0.06401      5.69005
     5.52381      0.01138      1.06100      0.06492      5.71587
     5.53383      0.01150      1.06559      0.06585      5.74207
     5.54386      0.01162      1.07022      0.06680      5.76865
     5.55388      0.01175      1.07491      0.06777      5.79561
     5.56391      0.01187      1.07964      0.06878      5.82296
     5.57394      0.01200      1.08443      0.06981      5.85073
     5.58396      0.01213      1.08926      0.07086      5.87891
     5.59398      0.01226      1.09415      0.07195      5.90752
     5.60401      0.01239      1.09909      0.07306      5.93656
     5.61404      0.01253      1.10409      0.07421      5.96606
     5.62406      0.01267      1.10914      0.07538      5.99603
     5.63409      0.01281      1.11424      0.07660      6.02647
     5.64411      0.01295      1.11940      0.07784      6.05740
     5.65414      0.01309      1.12462      0.07912      6.08885
     5.66416      0.01324      1.12990      0.08045      6.12080
     5.67419      0.01339      1.13524      0.08181      6.15330
     5.68421      0.01354      1.14063      0.08321      6.18635
     5.69424      0.01369      1.14609      0.08466      6.21997
     5.70426      0.01385      1.15161      0.08615      6.25417
     5.71429      0.01401      1.15720      0.08769      6.28898
     5.72431      0.01417      1.16284      0.08928      6.32442
     5.73434      0.01434      1.16856      0.09092      6.36051
     5.74436      0.01451      1.17434      0.09262      6.39725
     5.75439      0.01468      1.18019      0.09438      6.43470
     5.76441      0.01485      1.18611      0.09619      6.47285
     5.77444      0.01503      1.19209      0.09807      6.51175
     5.78446      0.01521      1.19815      0.10002      6.55140
     5.79449      0.01539      1.20428      0.10204      6.59186
     5.80451      0.01558      1.21049      0.10414      6.63313
     5.81454      0.01576      1.21677      0.10632      6.67526
     5.82456      0.01596      1.22313      0.10857      6.71827
     5.83459      0.01615      1.22956      0.11092      6.76220
     5.84461      0.01635      1.23608      0.11336      6.80708
     5.85464      0.01656      1.24267      0.11591      6.85296
     5.86466      0.01677      1.24935      0.11855      6.89988
     5.87469      0.01698      1.25611      0.12131      6.94788
     5.88471      0.01719      1.26296      0.12419      6.99699
     5.89474      0.01741      1.26989      0.12720      7.04728
     5.90476      0.01763      1.27692      0.13034      7.09879
     5.91479      0.01786      1.28403      0.13362      7.15159
     5.92481      0.01809      1.29124      0.13706      7.20572
     5.93484      0.01833      1.29853      0.14066      7.26126
     5.94486      0.01857      1.30593      0.14444      7.31827
     5.95489      0.01882      1.31342      0.14841      7.37682
     5.96491      0.01907      1.32101      0.15258      7.43698
     5.97494      0.01932      1.32871      0.15697      7.49885
     5.98496      0.01958      1.33650      0.16159      7.56251
     5.99499      0.01985      1.34440      0.16646      7.62806
     6.00501      0.02012      1.35241      0.17161      7.69559
     6.01504      0.02040      1.36053      0.17706      7.76524
     6.02506      0.02068      1.36877      0.18282      7.83710
     6.03509      0.02097      1.37711      0.18893      7.91133
     6.04511      0.02126      1.38557      0.19542      7.98804
     6.05514      0.02156      1.39415      0.20232      8.06741
     6.06516      0.02187      1.40286      0.20967      8.14961
     6.07519      0.02218      1.41169      0.21751      8.23481
     6.08521      0.02250      1.42064      0.22589      8.32322
     6.09524      0.02283      1.42972      0.23486      8.41506
     6.10526      0.02317      1.43894      0.24448      8.51058
     6.11529      0.02351      1.44829      0.25483      8.61003
     6.12531      0.02386      1.45778      0.26598      8.71372
     6.13534      0.02421      1.46741      0.27801      8.82198
     6.14536      0.02458      1.47719      0.29103      8.93516
     6.15539      0.02495      1.48711      0.30515      9.05368
     6.16541      0.02533      1.49718      0.32052      9.17799
     6.17544      0.02572      1.50741      0.33728      9.30859
     6.18546      0.02612      1.51780      0.35560      9.44605
     6.19549      0.02653      1.52834      0.37572      9.59102
     6.20551      0.02695      1.53906      0.39786      9.74424
     6.21554      0.02737      1.54994      0.42232      9.90652
     6.22556      0.02781      1.56099      0.44945     10.07881
     6.23559      0.02826      1.57223      0.47966     10.26221
     6.24561      0.02872      1.58364      0.51343     10.45795
     6.25564      0.02919      1.59524      0.55138     10.66749
     6.26566      0.02967      1.60703      0.59422     10.89253
     6.27569      0.03016      1.61902      0.64286     11.13503
     6.28571      0.03067      1.63121      0.69840     11.39732
     6.29574      0.03119      1.64360      0.76222     11.68215
     6.30576      0.03172      1.65620      0.83609     11.99284
     6.31579      0.03227      1.66902      0.92223     12.33335
     6.32581      0.03283      1.68205      1.02354     12.70847
     6.33584      0.03340      1.69532      1.14381     13.12411
     6.34586      0.03399      1.70882      1.28808     13.58753
     6.35589      0.03460      1.72256      1.46318     14.10771
     6.36591      0.03522      1.73654      1.67847     14.69601
     6.37594      0.03585      1.75078      1.94716     15.36677
     6.38596      0.03651      1.76527      2.28822     16.13830
     6.39599      0.03718      1.78003      2.72960     17.03408
     6.40602      0.03788      1.79506      3.31376     18.08409
     6.41604      0.03859      1.81038      4.10720     19.32591
     6.42607      0.03932      1.82598      5.21776     20.80412
     6.43609      0.04007      1.84188      6.82669     22.56236
     6.44612      0.04085      1.85809      9.24796     24.61191
     6.45614      0.04164      1.87461     13.03115     26.82368
     6.46617      0.04247      1.89145     19.07233     28.58353
     6.47619      0.04331      1.90862     28.31958     27.87876
     6.48622      0.04418      1.92614     39.29417     20.34787
     6.49624      0.04508      1.94402     43.68801      4.41368
     6.50627      0.04600      1.96226     36.17560     -9.55065
     6.51629      0.04696      1.98087     25.19943    -14.50116
     6.52632      0.04794      1.99987     16.96446    -14.10930
     6.53634      0.04895      2.01927     11.71949    -12.08678
     6.54637      0.05000      2.03908      8.42608     -9.88579
     6.55639      0.05108      2.05932      6.29687     -7.91227
     6.56642      0.05219      2.07999      4.86662     -6.23268
     6.57644      0.05335      2.10112      3.86976     -4.81978
     6.58647      0.05454      2.12272      3.15179     -3.62799
     6.59649      0.05577      2.14480      2.61976     -2.61443
     6.60652      0.05704      2.16738      2.21579     -1.74389
     6.61654      0.05836      2.19048      1.90257     -0.98846
     6.62657      0.05973      2.21411      1.65528     -0.32638
     6.63659      0.06114      2.23830      1.45696      0.25942
     6.64662      0.06260      2.26307      1.29572      0.78229
     6.65664      0.06412      2.28843      1.16308      1.25281
     6.66667      0.06569      2.31441      1.05281      1.67944
     6.67669      0.06732      2.34102      0.96030      2.06901
     6.68672      0.06901      2.36830      0.88206      2.42707
     6.69674      0.07077      2.39627      0.81543      2.75817
     6.70677      0.07259      2.42495      0.75833      3.06609
     6.71679      0.07449      2.45438      0.70913      3.35398
     6.72682      0.07646      2.48458      0.66654      3.62449
     6.73684      0.07851      2.51558      0.62954      3.87984
     6.74687      0.08064      2.54741      0.59727      4.12198
     6.75689      0.08287      2.58012      0.56907      4.35254
     6.76692      0.08518      2.61373      0.54437      4.57294
     6.77694      0.08760      2.64829      0.52271      4.78441
     6.78697      0.09012      2.68383      0.50370      4.98804
     6.79699      0.09275      2.72039      0.48703      5.18478
     6.80702      0.09550      2.75803      0.47242      5.37545
     6.81704      0.09837      2.79679      0.45964      5.56083
    6.827068     0.101377     2.836726     0.448506     5.741560
    6.837093     0.104522     2.877883     0.438844     5.918258
    6.847118     0.107816     2.920325     0.430516     6.091462
    6.857143     0.111270     2.964110     0.423402     6.261666
    6.867168     0.114893     3.009305     0.417398     6.429324
    6.877193     0.118697     3.055978     0.412416     6.594851
    6.887218     0.122695     3.104205     0.408380     6.758628
    6.897243     0.126899     3.154064     0.405224     6.921020
    6.907269     0.131324     3.205639     0.402894     7.082355
    6.917294     0.135987     3.259023     0.401341     7.242949
    6.927318     0.140904     3.314307     0.400526     7.403087
    6.937343     0.146095     3.371605     0.400415     7.563082
    6.947368     0.151581     3.431025     0.400979     7.723188
    6.957394     0.157385     3.492687     0.402197     7.883668
    6.967419     0.163531     3.556722     0.404049     8.044776
    6.977444     0.170048     3.623271     0.406523     8.206766
    6.987469     0.176967     3.692486     0.409608     8.369877
    6.997494     0.184321     3.764531     0.413299     8.534349
    7.007519     0.192148     3.839585     0.417593     8.700418
    7.017544     0.200491     3.917843     0.422491     8.868335
    7.027569     0.209396     3.999517     0.427999     9.038328
    7.037594     0.218915     4.084829     0.434121     9.210632
    7.047619     0.229108     4.174047     0.440872     9.385520
    7.057644     0.240040     4.267439     0.448263     9.563235
    7.067669     0.251785     4.365309     0.456315     9.744022
    7.077694     0.264428     4.467992     0.465046     9.928162
     7.08772      0.27806      4.57585      0.47448     10.11591
     7.09774      0.29280      4.68931      0.48465     10.30758
     7.10777      0.30876      4.80879      0.49558     10.50343
     7.11779      0.32609      4.93483      0.50732     10.70381
     7.12782      0.34495      5.06796      0.51990     10.90902
     7.13785      0.36554      5.20883      0.53337     11.11940
     7.14787      0.38806      5.35813      0.54778     11.33534
     7.15790      0.41278      5.51665      0.56319     11.55720
     7.16792      0.44000      5.68531      0.57966     11.78539
     7.17795      0.47008      5.86511      0.59727     12.02036
     7.18797      0.50344      6.05723      0.61609     12.26255
     7.19800      0.54059      6.26299      0.63621     12.51247
     7.20802      0.58214      6.48394      0.65773     12.77064
     7.21804      0.62883      6.72185      0.68075     13.03763
     7.22807      0.68158      6.97881      0.70541     13.31409
     7.23810      0.74150      7.25725      0.73184     13.60066
     7.24812      0.81002      7.56005      0.76018     13.89808
     7.25815      0.88889      7.89062      0.79061     14.20712
     7.26817      0.98040      8.25305      0.82332     14.52865
     7.27820      1.08747      8.65227      0.85852     14.86359
     7.28822      1.21399      9.09432      0.89646     15.21298
     7.29825      1.36512      9.58657      0.93741     15.57792
     7.30827      1.54790     10.13820      0.98168     15.95967
     7.31830      1.77216     10.76069      1.02963     16.35958
     7.32832      2.05183     11.46851      1.08166     16.77916
     7.33835      2.40731     12.27996      1.13822     17.22005
     7.34837      2.86937     13.21839      1.19986     17.68416
     7.35840      3.48581     14.31268      1.26719     18.17357
     7.36842      4.33371     15.59694      1.34092     18.69059
     7.37845      5.54202     17.10489      1.42187     19.23784
     7.38847      7.33325     18.84706      1.51101     19.81827
     7.39850     10.09440     20.73242      1.60948     20.43524
     7.40852     14.44779     22.32023      1.71861     21.09256
     7.41855     21.00530     22.17754      1.84002     21.79457
     7.42857     28.54429     17.33870      1.97559     22.54627
     7.43860     31.28263      7.23899      2.12764     23.35342
     7.44862     26.37848     -0.80132      2.29894     24.22268
     7.45865     19.82925     -2.69486      2.49290     25.16186
     7.46867     15.50333     -1.06945      2.71371     26.18009
     7.47870     13.59540      1.73316      2.96658     27.28811
     7.48872     13.70989      4.74905      3.25807     28.49874
     7.49875     15.78157      7.38020      3.59646     29.82730
     7.50877     19.77732      8.54084      3.99245     31.29227
     7.51880     24.25625      6.76074      4.45989     32.91608
     7.52882     26.48701      3.29966      5.01712     34.72627
     7.53885     27.91888      1.18869      5.68863     36.75673
     7.54887     31.60526     -1.71679      6.50804     39.05030
     7.55890     34.69437     -9.62377      7.52194     41.66044
     7.56892     30.92068    -19.40962      8.79663     44.65515
     7.57895     22.69098    -23.96453     10.42881     48.12139
     7.58897     15.65106    -23.82506     12.56333     52.17028
     7.59900     10.97243    -21.97968     15.42399     56.94252
     7.60902      7.99144    -19.87651     19.36810     62.60914
     7.61905      6.04758    -17.95500     24.98857     69.35764
     7.62907      4.73043    -16.30030     33.29999     77.31387
     7.63910      3.80287    -14.89550     46.07837     86.27269
     7.64912      3.12679    -13.70149     66.35020     94.80801
     7.65915      2.61918    -12.67987     98.28021     97.66623
      7.6692       2.2283     -11.7984     141.9180      80.8817
      7.6792       1.9207     -11.0312     175.1065      28.3141
      7.6892       1.6741     -10.3580     161.9546     -36.4137
      7.6992       1.4733      -9.7627     118.9715     -69.1308
     7.70927      1.30741     -9.23257     81.30866    -72.75892
     7.71930      1.16870     -8.75754     56.74870    -65.22839
     7.72932      1.05146     -8.32939     41.79908    -55.29499
     7.73935      0.95142     -7.94146     32.86470    -45.66669
     7.74937      0.86533     -7.58831     27.82302    -36.90834
     7.75940      0.79067     -7.26541     25.66839    -28.98690
     7.76942      0.72547     -6.96901     26.18932    -21.85955
     7.77945      0.66819     -6.69594     29.82963    -15.95648
     7.78947      0.61756     -6.44351     37.26381    -13.12673
     7.79950      0.57258     -6.20945     46.86118    -17.60078
     7.80952      0.53243     -5.99180     50.22808    -30.90532
     7.81955      0.49644     -5.78888     41.89439    -42.63570
     7.82957      0.46404     -5.59923     30.21211    -45.62449
     7.83960      0.43476     -5.42157     21.38638    -43.47263
     7.84962      0.40821     -5.25478     15.65301    -39.86671
     7.85965      0.38405     -5.09789     11.95411    -36.23769
     7.86967      0.36201     -4.95004      9.48505    -32.97021
     7.87970      0.34184     -4.81045      7.76749    -30.11176
     7.88972      0.32333     -4.67844      6.52605    -27.61888
     7.89975      0.30630     -4.55342      5.59881    -25.43219
     7.90977      0.29061     -4.43484      4.88713    -23.49741
     7.91980      0.27610     -4.32220      4.32852    -21.76896
     7.92982      0.26266     -4.21506      3.88216    -20.21054
     7.93985      0.25019     -4.11303      3.52046    -18.79289
     7.94987      0.23860     -4.01575      3.22423    -17.49239
     7.95990      0.22780     -3.92289      2.97986    -16.28977
     7.96992      0.21773     -3.83416      2.77751    -15.16914
     7.97995      0.20832     -3.74929      2.60997    -14.11711
     7.98997      0.19951     -3.66802      2.47195    -13.12229
     8.00000      0.19125     -3.59013      2.35956    -12.17473
# 
# 10/19/2017 at 14:17 YAMBO @ 1oO-367 [start]
# 10/19/2017 at 14:17                 [end]
#  
# Timing   [Min/Max/Average]: 11s/11s/11s
#
# .-Input file : yambo.in
# | optics                         # [R OPT] Optics
# | bse                            # [R BSE] Bethe Salpeter Equation.
# | bsk                            # [R BSK] Bethe Salpeter Equation kernel
# | bss                            # [R BSS] Bethe Salpeter Equation solver
# | em1s                           # [R Xs] Static Inverse Dielectric Matrix
# | BoseTemp= 0.000000     eV      # Bosonic Temperature
# | FFTGvecs=  3473        RL      # [FFT] Plane-waves
# | Chimod= "hartree"              # [X] IP/Hartree/ALDA/LRC/BSfxc
# | BSEmod= "retarded"             # [BSE] resonant/retarded/coupling
# | BSKmod= "SEX"                  # [BSE] IP/Hartree/HF/ALDA/SEX/BSfxc
# | BSSmod= "s"                    # [BSS] (h)aydock/(d)iagonalization/(i)nversion/(t)ddft`
# | BSENGexx=  51          RL      # [BSK] Exchange components
# | BSENGBlk=  51          RL      # [BSK] Screened interaction block size
# | #WehCpl                        # [BSK] eh interaction included also in coupling
# | % KfnQP_E
# |  2.400000 | 1.000000 | 1.000000 |        # [EXTQP BSK BSS] E parameters  (c/v) eV|adim|adim
# | %
# | % BEnRange
# |  4.000000 | 8.000000 | eV      # [BSS] Energy range
# | %
# | % BDmRange
# |   0.02500 |  0.02500 | eV      # [BSS] Damping range
# | %
# | BEnSteps=  400                 # [BSS] Energy steps
# | % BLongDir
# | 0.5774E-5 |0.5774E-5 |0.5774E-5 |        # [BSS] [cc] Electric Field
# | %
# | % BSEBands
# |   7 | 10 |                     # [BSK] Bands range
# | %
# | BSSNEig=  5                    # [SLEPC] Number of eigenvalues to compute
# | BSSEnTarget= 7.500000  eV      # [SLEPC] Target energy to find eigenvalues
# | % BndsRnXs
# |    1 |  60 |                   # [Xs] Polarization function bands
# | %
# | NGsBlkXs=  51          RL      # [Xs] Response block size
# | % DmRngeXs
# | 0.1000E-2 |0.1000E-2 | eV      # [Xs] Damping range
# | %
# | % LongDrXs
# | 0.1000E-4 | 0.000    | 0.000    |        # [Xs] [cc] Electric Field
# | %
