#                                                           
#  __  __   ________   ___ __ __    _______   ______        
# /_/\/_/\ /_______/\ /__//_//_/\ /_______/\ /_____/\       
# \ \ \ \ \\::: _  \ \\::\| \| \ \\::: _  \ \\:::_ \ \      
#  \:\_\ \ \\::(_)  \ \\:.      \ \\::(_)  \/_\:\ \ \ \     
#   \::::_\/ \:: __  \ \\:.\-/\  \ \\::  _  \ \\:\ \ \ \    
#     \::\ \  \:.\ \  \ \\. \  \  \ \\::(_)  \ \\:\_\ \ \   
#      \__\/   \__\/\__\/ \__\/ \__\/ \_______\/ \_____\/   
#                                                           
#                                                           
#        Version 4.1.2 Revision 14030 Hash 116e4f9          
#                        MPI Build                          
#                http://www.yambo-code.org                  
#
# Joint density of states @ Q(1) [q->0 direction] :0.1000E-4  0.000     0.000   
#
# - Energies      are Slater exchange(X)+Perdew & Zunger(C)+Scissor
# - The Green`s function is Retarded -
#
#   BSK|Identifier              :2509
#      |Dimension               :144
#      |Bands                   :25 - 28
#      |Exchange           [res]: yes
#      |Correlation        [res]: yes
#      |Kernel`s coupling       : no
#      |Exchange           [cpl]: no
#      |Correlation        [cpl]: no
#      |W interaction is bare   : no
#      |ALDA kernel in R-space  : no
#      |RL vectors    [exchange]:2055
#      |RL vectors [correlation]:85
#      |E/h energy range    [ev]:-1.000000 - -1.000000
#      |Coupling range     [o/o]: 100.0000 -  100.0000
#    W |Interaction is diagonal : no
#      |Matrix size             :85
#      |Bands                   :1 - 60
#      |e/h energy range    [ev]:-1.000000 - -1.000000
#      |Poles              [o/o]: 100.0000
#      |RL vectors in the sum   :2055
#      |[r,Vnl] included        : yes
#      |Field direction         :0.1000E-4  0.000000  0.000000
#      |Coulomb Cutoff          :box z
#      |xc-Kernel               :none
#   RIM|RL components      [col]:1
#      |Random points      [col]:1000000
#
#  E/ev[1]    PL[2]      PLo[3]
#  E/ev[1]    jdos-Im[2] jdos-Re[3] jdoso-Im[4]jdoso-Re[5]jdos`-Im[6]jdos`-Re[7]
  -4.00000    0.35789   90.08572
  -3.99199    0.36046   83.94388
  -3.98398    0.36307   80.09997
  -3.97598    0.36570   78.31582
  -3.96797    0.36836   78.56030
  -3.95996    0.37105   81.03150
  -3.95195    0.37377   86.27457
  -3.94394    0.37652   95.54800
   -3.9359     0.3793   111.4224
   -3.9279     0.3821   131.6510
   -3.9199     0.3850   153.4906
   -3.9119     0.3878   193.1688
   -3.9039     0.3907   263.5469
   -3.8959     0.3937   393.6550
 -3.888     0.3967      661.7   
 -3.880     0.3997      1298.   
 -3.872     0.4027      2781.   
 -3.864     0.4058      3340.   
 -3.856     0.4089      1691.   
 -3.848     0.4121      833.5   
 -3.840     0.4153      500.8   
   -3.8318     0.4185   326.1966
   -3.8238     0.4217   220.1765
   -3.8158     0.4251   161.1623
   -3.8078     0.4284   125.7881
   -3.7998     0.4318   103.4109
  -3.79179    0.43521   89.57443
  -3.78378    0.43867   83.46453
  -3.77578    0.44218   82.25673
  -3.76777    0.44573   70.92216
  -3.75976    0.44933   61.56673
  -3.75175    0.45296   56.95449
  -3.74374    0.45665   54.87598
  -3.73574    0.46038   54.50084
  -3.72773    0.46415   55.61517
  -3.71972    0.46798   58.29688
  -3.71171    0.47185   62.85878
  -3.70370    0.47577   69.91451
  -3.69570    0.47974   80.56588
  -3.68769    0.48376   96.82639
   -3.6797     0.4878   122.5894
   -3.6717     0.4920   166.0483
   -3.6637     0.4961   246.5435
   -3.6557     0.5004   416.3531
 -3.648     0.5047      828.3   
 -3.640     0.5090      1647.   
 -3.632     0.5134      1467.   
 -3.624     0.5179      723.5   
   -3.6156     0.5224   408.5525
   -3.6076     0.5269   292.5859
   -3.5996     0.5316   260.4345
   -3.5916     0.5363   281.7267
   -3.5836     0.5411   365.1627
 -3.576     0.5459      567.4   
 -3.568     0.5508      1071.   
 -3.560     0.5557      2260.   
 -3.552     0.5608      2704.   
 -3.544     0.5659      1366.   
 -3.536     0.5710      661.0   
   -3.5275     0.5763   372.9697
   -3.5195     0.5816   237.8947
   -3.5115     0.5870   165.3620
   -3.5035     0.5925   122.2028
  -3.49550    0.59802   94.47456
  -3.48749    0.60365   75.58868
  -3.47948    0.60936   62.12284
  -3.47147    0.61515   52.16296
  -3.46346    0.62103   44.57381
  -3.45546    0.62699   38.64539
  -3.44745    0.63304   33.91726
  -3.43944    0.63918   30.07829
  -3.43143    0.64541   26.91351
  -3.42342    0.65174   24.26935
  -3.41542    0.65816   22.03406
  -3.40741    0.66467   20.12499
  -3.39940    0.67129   18.47924
  -3.39139    0.67801   17.04888
  -3.38338    0.68483   15.79645
  -3.37538    0.69175   14.69241
  -3.36737    0.69878   13.71321
  -3.35936    0.70593   12.83991
  -3.35135    0.71318   12.05710
  -3.34334    0.72055   11.35208
  -3.33534    0.72804   10.71439
  -3.32733    0.73564   10.13527
 -3.319319   0.743371   9.607449
 -3.311311   0.751224   9.124681
 -3.303303   0.759205   8.681731
 -3.295295   0.767316   8.274080
 -3.287287   0.775561   7.897870
 -3.279279   0.783942   7.549771
 -3.271271   0.792463   7.226902
 -3.263263   0.801127   6.926726
 -3.255255   0.809936   6.647036
 -3.247247   0.818895   6.385909
 -3.239239   0.828006   6.141662
 -3.231231   0.837274   5.912731
 -3.223223   0.846702   5.697821
 -3.215215   0.856293   5.495735
 -3.207207   0.866053   5.305398
 -3.199199   0.875984   5.125875
 -3.191191   0.886090   4.956300
 -3.183183   0.896377   4.795912
 -3.175175   0.906849   4.644012
 -3.167167   0.917509   4.499981
 -3.159159   0.928363   4.363251
 -3.151151   0.939416   4.233300
 -3.143143   0.950672   4.109669
 -3.135135   0.962137   3.991921
 -3.127127   0.973816   3.879679
 -3.119119   0.985714   3.772571
 -3.111111   0.997837   3.670285
 -3.103103   1.010191   3.572512
 -3.095095   1.022783   3.478989
 -3.087087   1.035617   3.389461
 -3.079079   1.048702   3.303711
 -3.071071   1.062042   3.221546
 -3.063063   1.075646   3.142801
 -3.055055   1.089520   3.067391
 -3.047047   1.103673   2.995331
 -3.039039   1.118110   2.927000
 -3.031031   1.132841   2.863771
 -3.023023   1.147874   2.808943
 -3.015015   1.163217   2.751531
 -3.007007   1.178879   2.679469
 -2.998999   1.194869   2.614737
 -2.990991   1.211197   2.555911
 -2.982983   1.227872   2.500440
 -2.974975   1.244904   2.447394
 -2.966967   1.262306   2.396367
 -2.958959   1.280085   2.347154
 -2.950951   1.298256   2.299618
 -2.942943   1.316830   2.253655
 -2.934935   1.335818   2.209178
 -2.926927   1.355234   2.166115
 -2.918919   1.375090   2.124397
 -2.910911   1.395402   2.083965
 -2.902903   1.416183   2.044760
 -2.894895   1.437448   2.006729
 -2.886887   1.459213   1.969822
 -2.878879   1.481495   1.933994
 -2.870871   1.504308   1.899198
 -2.862863   1.527674   1.865394
 -2.854855   1.551609   1.832545
 -2.846847   1.576133   1.800605
 -2.838839   1.601265   1.769550
 -2.830831   1.627026   1.739337
 -2.822823   1.653441   1.709940
 -2.814815   1.680529   1.681326
 -2.806807   1.708316   1.653467
 -2.798799   1.736827   1.626333
 -2.790791   1.766088   1.599900
 -2.782783   1.796127   1.574144
 -2.774775   1.826971   1.549037
 -2.766767   1.858653   1.524559
 -2.758759   1.891202   1.500688
 -2.750751   1.924653   1.477406
 -2.742743   1.959043   1.454684
 -2.734735   1.994403   1.432515
 -2.726727   2.030776   1.410871
 -2.718719   2.068201   1.389741
 -2.710711   2.106719   1.369108
 -2.702703   2.146379   1.348949
 -2.694695   2.187227   1.329257
 -2.686687   2.229311   1.310010
 -2.678679   2.272685   1.291201
 -2.670671   2.317403   1.272813
 -2.662663   2.363526   1.254832
 -2.654655   2.411116   1.237247
 -2.646647   2.460236   1.220046
 -2.638638   2.510960   1.203217
 -2.630631   2.563356   1.186750
 -2.622623   2.617507   1.170632
 -2.614615   2.673495   1.154855
 -2.606607   2.731405   1.139408
 -2.598598   2.791336   1.124283
 -2.590591   2.853381   1.109468
 -2.582583   2.917653   1.094957
 -2.574575   2.984259   1.080740
 -2.566567   3.053323   1.066810
 -2.558558   3.124977   1.053157
 -2.550551   3.199350   1.039776
 -2.542543   3.276599   1.026657
 -2.534534   3.356877   1.013795
 -2.526527   3.440354   1.001182
 -2.518518   3.527218   0.988811
 -2.510511   3.617656   0.976678
 -2.502502   3.711886   0.964775
 -2.494494   3.810134   0.953094
 -2.486487   3.912641   0.941633
 -2.478479   4.019683   0.930385
 -2.470470   4.131542   0.919344
 -2.462462   4.248530   0.908505
 -2.454454   4.370988   0.897863
 -2.446447   4.499283   0.887414
 -2.438439   4.633824   0.877151
 -2.430430   4.775045   0.867072
 -2.422423   4.923426   0.857173
 -2.414414   5.079507   0.847444
 -2.406407   5.243850   0.837889
 -2.398398   5.417106   0.828497
 -2.390390   5.599978   0.819269
 -2.382383   5.793237   0.810197
 -2.374374   5.997765   0.801280
 -2.366366   6.214501   0.792515
 -2.358358   6.444535   0.783898
 -2.350350   6.689059   0.775424
 -2.342343   6.949408   0.767090
 -2.334334   7.227120   0.758894
 -2.326326   7.523870   0.750833
 -2.318318   7.841617   0.742903
 -2.310310   8.182557   0.735101
 -2.302302   8.549191   0.727426
 -2.294294   8.944421   0.719873
 -2.286286   9.371559   0.712440
 -2.278278   9.834459   0.705125
  -2.27027   10.33759    0.69792
  -2.26226   10.88618    0.69084
  -2.25425   11.48643    0.68386
  -2.24625   12.14562    0.67699
  -2.23824   12.87247    0.67023
  -2.23023   13.67747    0.66357
  -2.22222   14.57325    0.65701
  -2.21421   15.57539    0.65055
  -2.20621   16.70295    0.64419
  -2.19820   17.97977    0.63792
  -2.19019   19.43581    0.63175
  -2.18218   21.10944    0.62567
  -2.17417   23.05010    0.61967
  -2.16617   25.32281    0.61377
  -2.15816   28.01433    0.60795
  -2.15015   31.24261    0.60221
  -2.14214   35.17196    0.59656
  -2.13413   40.03613    0.59099
  -2.12613   46.17774    0.58550
  -2.11812   54.11566    0.58008
  -2.11011   64.66653    0.57475
  -2.10210   79.17850    0.56948
   -2.0941   100.0052     0.5643
   -2.0861   131.5619     0.5592
   -2.0781   182.9174     0.5541
   -2.0701   274.9636     0.5492
   -2.0621   461.8635     0.5442
 -2.054      864.8     0.5394   
 -2.046      1618.     0.5346   
 -2.038      2560.     0.5299   
 -2.030      1737.     0.5253   
 -2.022      851.4     0.5207   
   -2.0140   455.9345     0.5162
   -2.0060   283.8243     0.5117
   -1.9980   199.8013     0.5073
   -1.9900   154.6676     0.5029
   -1.9820   129.3168     0.4986
   -1.9740   115.4550     0.4944
   -1.9660   109.2812     0.4902
   -1.9580   109.2686     0.4861
   -1.9500   115.5718     0.4820
   -1.9419   129.6974     0.4780
   -1.9339   152.9240     0.4740
   -1.9259   194.8424     0.4701
   -1.9179   233.6682     0.4662
   -1.9099   273.0931     0.4624
   -1.9019   368.9726     0.4586
 -1.894      576.1     0.4549   
 -1.886      1058.     0.4512   
 -1.878      2105.     0.4476   
 -1.870      2529.     0.4440   
 -1.862      2001.     0.4405   
 -1.854      1754.     0.4369   
 -1.846      1619.     0.4335   
 -1.838      1371.     0.4301   
 -1.830      1653.     0.4267   
 -1.822      1896.     0.4233   
 -1.814      1917.     0.4200   
 -1.806      1331.     0.4168   
 -1.798      894.1     0.4136   
 -1.790      967.3     0.4104   
 -1.782      1006.     0.4072   
 -1.774      592.3     0.4041   
   -1.7658   380.6512     0.4010
   -1.7578   333.0597     0.3980
 -1.750      420.1     0.3950   
 -1.742      512.8     0.3920   
   -1.7337   323.7088     0.3891
   -1.7257   196.8587     0.3862
   -1.7177   143.0100     0.3833
   -1.7097   117.9158     0.3805
   -1.7017   105.8308     0.3777
   -1.6937   101.2630     0.3749
   -1.6857   102.4396     0.3721
   -1.6777   109.5497     0.3694
   -1.6697   124.8362     0.3667
   -1.6617   152.6285     0.3641
   -1.6537   192.4646     0.3615
   -1.6456   265.7766     0.3589
 -1.638      431.6     0.3563   
 -1.630      826.6     0.3538   
 -1.622      1305.     0.3513   
 -1.614      1222.     0.3488   
 -1.606      1386.     0.3463   
 -1.598      958.6     0.3439   
 -1.590      595.8     0.3415   
 -1.582      543.0     0.3391   
 -1.574      733.7     0.3367   
 -1.566      1219.     0.3344   
 -1.558      1296.     0.3321   
 -1.550      1045.     0.3298   
 -1.542      1318.     0.3276   
 -1.534      1063.     0.3253   
 -1.526      541.2     0.3231   
   -1.5175   305.9138     0.3209
   -1.5095   201.5587     0.3187
   -1.5015   149.2038     0.3166
   -1.4935   121.8008     0.3145
   -1.4855   110.3683     0.3124
  -1.47748   99.85039    0.31030
  -1.46947   85.39465    0.30824
  -1.46146   77.64207    0.30620
  -1.45345   74.82111    0.30418
  -1.44545   75.62335    0.30218
  -1.43744   79.88831    0.30021
  -1.42943   88.54426    0.29825
   -1.4214   104.0459     0.2963
   -1.4134   127.1677     0.2944
   -1.4054   157.1502     0.2925
   -1.3974   214.3582     0.2906
 -1.389      329.0     0.2887   
 -1.381      580.2     0.2869   
 -1.373      1187.     0.2851   
 -1.365      1841.     0.2833   
 -1.357      1284.     0.2815   
 -1.349      716.3     0.2797   
 -1.341      572.7     0.2779   
 -1.333      745.3     0.2762   
 -1.325      1033.     0.2745   
 -1.317      743.0     0.2727   
 -1.309      571.8     0.2710   
 -1.301      727.4     0.2694   
 -1.293      1103.     0.2677   
 -1.285      789.0     0.2661   
 -1.277      453.3     0.2644   
 -1.269      371.2     0.2628   
 -1.261      274.8     0.2612   
   -1.2533   172.2768     0.2596
   -1.2452   126.1557     0.2581
   -1.2372   108.7690     0.2565
   -1.2292   110.2687     0.2550
   -1.2212   135.2650     0.2534
   -1.2132   211.5969     0.2519
 -1.205      405.5     0.2504   
 -1.197      499.9     0.2489   
 -1.189      268.2     0.2474   
   -1.1812   140.3716     0.2460
  -1.17317   86.81171    0.24453
  -1.16517   59.79141    0.24309
  -1.15716   44.93334    0.24167
  -1.14915   35.86624    0.24026
  -1.14114   29.82531    0.23886
  -1.13313   25.52964    0.23748
  -1.12513   22.32152    0.23610
  -1.11712   19.83311    0.23474
  -1.10911   17.84446    0.23339
  -1.10110   16.21655    0.23205
  -1.09309   14.85767    0.23073
  -1.08509   13.70487    0.22941
  -1.07708   12.71356    0.22811
  -1.06907   11.85133    0.22681
  -1.06106   11.09392    0.22553
  -1.05305   10.42295    0.22426
 -1.045045   9.824132   0.223003
 -1.037037   9.286230   0.221753
 -1.029029   8.800261   0.220514
 -1.021021   8.358934   0.219286
 -1.013013   7.956316   0.218068
 -1.005005   7.587478   0.216861
 -0.996997   7.248325   0.215663
 -0.988989   6.935380   0.214475
 -0.980981   6.645718   0.213298
 -0.972973   6.376832   0.212130
 -0.964965   6.126577   0.210971
 -0.956957   5.893087   0.209823
 -0.948949   5.674735   0.208683
 -0.940941   5.470115   0.207553
 -0.932933   5.277980   0.206432
 -0.924925   5.097233   0.205321
 -0.916917   4.926910   0.204218
 -0.908909   4.766143   0.203124
 -0.900901   4.614165   0.202039
 -0.892893   4.470287   0.200963
 -0.884885   4.333898   0.199896
 -0.876877   4.204430   0.198837
 -0.868869   4.081386   0.197786
 -0.860861   3.964313   0.196744
 -0.852853   3.852798   0.195710
 -0.844845   3.746466   0.194685
 -0.836837   3.644972   0.193667
 -0.828829   3.548007   0.192658
 -0.820821   3.455283   0.191656
 -0.812813   3.366544   0.190662
 -0.804805   3.281545   0.189676
 -0.796797   3.200068   0.188698
 -0.788789   3.121915   0.187727
 -0.780781   3.046899   0.186764
 -0.772773   2.974861   0.185808
 -0.764765   2.905651   0.184860
 -0.756757   2.839151   0.183919
 -0.748749   2.775272   0.182986
 -0.740741   2.713988   0.182059
 -0.732733   2.655398   0.181139
 -0.724725   2.599910   0.180227
 -0.716717   2.548849   0.179321
 -0.708709   2.506285   0.178422
 -0.700701   2.475440   0.177530
 -0.692693   2.418024   0.176645
 -0.684685   2.350808   0.175767
 -0.676677   2.295901   0.174895
 -0.668669   2.247135   0.174029
 -0.660661   2.201542   0.173170
 -0.652653   2.158063   0.172318
 -0.644645   2.116260   0.171472
 -0.636637   2.075911   0.170632
 -0.628629   2.036877   0.169798
 -0.620621   1.999068   0.168971
 -0.612613   1.962409   0.168149
 -0.604605   1.926840   0.167334
 -0.596597   1.892311   0.166525
 -0.588589   1.858774   0.165722
 -0.580581   1.826184   0.164924
 -0.572573   1.794506   0.164133
 -0.564565   1.763700   0.163348
 -0.556557   1.733731   0.162568
 -0.548549   1.704570   0.161795
 -0.540541   1.676183   0.161027
 -0.532533   1.648543   0.160266
 -0.524525   1.621622   0.159512
 -0.516517   1.595392   0.158764
 -0.508509   1.569832   0.158024
 -0.500500   1.544913   0.157294
 -0.492493   1.520618   0.156578
 -0.484485   1.496922   0.155884
 -0.476477   1.473804   0.155238
 -0.468469   1.451247   0.154711
 -0.460460   1.429229   0.154414
 -0.452453   1.407735   0.153695
 -0.444445   1.386746   0.152571
 -0.436436   1.366246   0.151677
 -0.428429   1.346220   0.150900
 -0.420421   1.326653   0.150170
 -0.412413   1.307528   0.149462
 -0.404405   1.288834   0.148767
 -0.396396   1.270556   0.148081
 -0.388389   1.252682   0.147403
 -0.380381   1.235200   0.146731
 -0.372372   1.218097   0.146064
 -0.364365   1.201362   0.145402
 -0.356356   1.184984   0.144745
 -0.348348   1.168954   0.144094
 -0.340341   1.153260   0.143446
 -0.332332   1.137893   0.142804
 -0.324325   1.122844   0.142165
 -0.316316   1.108103   0.141532
 -0.308308   1.093663   0.140902
 -0.300301   1.079514   0.140277
 -0.292292   1.065648   0.139656
 -0.284285   1.052059   0.139039
 -0.276276   1.038736   0.138427
 -0.268268   1.025676   0.137818
 -0.260261   1.012869   0.137214
 -0.252252   1.000309   0.136614
 -0.244244   0.987990   0.136017
 -0.236236   0.975905   0.135425
 -0.228228   0.964049   0.134836
 -0.220220   0.952415   0.134251
 -0.212212   0.940997   0.133670
 -0.204204   0.929790   0.133093
 -0.196197   0.918790   0.132520
 -0.188188   0.907989   0.131951
 -0.180180   0.897384   0.131385
 -0.172172   0.886970   0.130822
 -0.164164   0.876742   0.130264
 -0.156156   0.866696   0.129709
 -0.148148   0.856826   0.129158
 -0.140140   0.847130   0.128610
 -0.132132   0.837602   0.128066
 -0.124124   0.828239   0.127525
 -0.116116   0.819037   0.126988
 -0.108108   0.809992   0.126455
 -0.100100   0.801100   0.125925
  -0.09209    0.79236    0.12540
  -0.08408    0.78376    0.12488
  -0.07608    0.77531    0.12436
  -0.06807    0.76700    0.12385
  -0.06006    0.75882    0.12334
  -0.05205    0.75078    0.12284
  -0.04404    0.74287    0.12237
  -0.03604    0.73509    0.12194
  -0.02803    0.72743    0.12158
  -0.02002    0.71989    0.12102
  -0.01201    0.71247    0.12040
   -0.0040     0.7052     0.1199
    0.0040     0.6980     0.1193
   0.01201    0.69092    0.11885
   0.02002    0.68395    0.11836
   0.02803    0.67710    0.11788
   0.03604    0.67034    0.11740
   0.04404    0.66370    0.11692
   0.05205    0.65715    0.11645
   0.06006    0.65070    0.11598
   0.06807    0.64435    0.11551
   0.07608    0.63809    0.11505
   0.08408    0.63193    0.11459
   0.09209    0.62585    0.11413
  0.100100   0.619869   0.113674
  0.108108   0.613972   0.113222
  0.116116   0.608161   0.112773
  0.124124   0.602434   0.112326
  0.132132   0.596788   0.111882
  0.140140   0.591224   0.111441
  0.148148   0.585739   0.111002
  0.156156   0.580332   0.110566
  0.164164   0.575000   0.110132
  0.172172   0.569744   0.109701
  0.180180   0.564560   0.109273
  0.188188   0.559449   0.108847
  0.196196   0.554407   0.108424
  0.204204   0.549435   0.108003
  0.212212   0.544532   0.107584
  0.220220   0.539694   0.107168
  0.228228   0.534922   0.106755
  0.236236   0.530215   0.106344
  0.244244   0.525570   0.105935
  0.252252   0.520987   0.105529
  0.260260   0.516466   0.105125
  0.268268   0.512004   0.104723
  0.276276   0.507600   0.104324
  0.284284   0.503255   0.103926
  0.292292   0.498965   0.103532
  0.300300   0.494732   0.103139
  0.308308   0.490553   0.102749
  0.316316   0.486428   0.102361
  0.324324   0.482355   0.101975
  0.332332   0.478335   0.101591
  0.340340   0.474365   0.101210
  0.348348   0.470445   0.100831
  0.356356   0.466575   0.100453
  0.364364   0.462753   0.100078
   0.37237    0.45898    0.09971
   0.38038    0.45525    0.09933
   0.38839    0.45157    0.09897
   0.39640    0.44793    0.09860
   0.40440    0.44434    0.09823
   0.41241    0.44079    0.09787
   0.42042    0.43729    0.09751
   0.42843    0.43382    0.09715
   0.43644    0.43040    0.09680
   0.44444    0.42702    0.09644
   0.45245    0.42368    0.09609
   0.46046    0.42038    0.09574
   0.46847    0.41712    0.09539
   0.47648    0.41390    0.09504
   0.48448    0.41071    0.09470
   0.49249    0.40756    0.09435
   0.50050    0.40445    0.09401
   0.50851    0.40138    0.09367
   0.51652    0.39834    0.09334
   0.52452    0.39533    0.09300
   0.53253    0.39236    0.09267
   0.54054    0.38942    0.09234
   0.54855    0.38652    0.09201
   0.55656    0.38365    0.09168
   0.56456    0.38081    0.09135
   0.57257    0.37800    0.09103
   0.58058    0.37523    0.09070
   0.58859    0.37248    0.09038
   0.59660    0.36977    0.09006
   0.60460    0.36709    0.08974
   0.61261    0.36443    0.08943
   0.62062    0.36181    0.08911
   0.62863    0.35921    0.08880
   0.63664    0.35664    0.08849
   0.64464    0.35410    0.08818
   0.65265    0.35159    0.08787
   0.66066    0.34910    0.08756
   0.66867    0.34664    0.08726
   0.67668    0.34421    0.08696
   0.68468    0.34180    0.08666
   0.69269    0.33942    0.08636
   0.70070    0.33706    0.08606
   0.70871    0.33473    0.08576
   0.71672    0.33242    0.08547
   0.72472    0.33014    0.08517
   0.73273    0.32788    0.08488
   0.74074    0.32564    0.08459
   0.74875    0.32343    0.08430
   0.75676    0.32123    0.08401
   0.76476    0.31907    0.08373
   0.77277    0.31692    0.08344
   0.78078    0.31480    0.08316
   0.78879    0.31269    0.08288
   0.79680    0.31061    0.08260
   0.80480    0.30855    0.08232
   0.81281    0.30651    0.08204
   0.82082    0.30449    0.08176
   0.82883    0.30249    0.08149
   0.83684    0.30051    0.08122
   0.84484    0.29855    0.08095
   0.85285    0.29661    0.08067
   0.86086    0.29469    0.08041
   0.86887    0.29279    0.08014
   0.87688    0.29090    0.07987
   0.88488    0.28904    0.07961
   0.89289    0.28719    0.07934
   0.90090    0.28536    0.07908
   0.90891    0.28355    0.07882
   0.91692    0.28175    0.07856
   0.92492    0.27997    0.07830
   0.93293    0.27821    0.07805
   0.94094    0.27647    0.07779
   0.94895    0.27474    0.07754
   0.95696    0.27303    0.07728
   0.96496    0.27133    0.07703
   0.97297    0.26966    0.07678
   0.98098    0.26799    0.07653
   0.98899    0.26634    0.07628
   0.99700    0.26471    0.07604
   1.00500    0.26309    0.07579
   1.01301    0.26149    0.07555
   1.02102    0.25990    0.07530
   1.02903    0.25833    0.07506
   1.03704    0.25677    0.07482
   1.04504    0.25523    0.07458
   1.05305    0.25369    0.07434
   1.06106    0.25218    0.07410
   1.06907    0.25067    0.07387
   1.07708    0.24918    0.07363
   1.08508    0.24771    0.07340
   1.09309    0.24624    0.07317
   1.10110    0.24479    0.07293
   1.10911    0.24336    0.07270
   1.11712    0.24193    0.07248
   1.12512    0.24052    0.07225
   1.13313    0.23912    0.07202
   1.14114    0.23773    0.07179
   1.14915    0.23636    0.07157
   1.15716    0.23500    0.07135
   1.16516    0.23364    0.07112
   1.17317    0.23231    0.07090
   1.18118    0.23098    0.07068
   1.18919    0.22966    0.07046
   1.19720    0.22836    0.07024
   1.20520    0.22706    0.07003
   1.21321    0.22578    0.06981
   1.22122    0.22451    0.06959
   1.22923    0.22325    0.06938
   1.23724    0.22200    0.06917
   1.24524    0.22076    0.06896
   1.25325    0.21953    0.06874
   1.26126    0.21831    0.06853
   1.26927    0.21710    0.06833
   1.27728    0.21590    0.06812
   1.28528    0.21471    0.06791
   1.29329    0.21353    0.06770
   1.30130    0.21236    0.06750
   1.30931    0.21120    0.06730
   1.31732    0.21005    0.06709
   1.32533    0.20891    0.06689
   1.33333    0.20778    0.06669
   1.34134    0.20666    0.06649
   1.34935    0.20555    0.06629
   1.35736    0.20444    0.06609
   1.36537    0.20335    0.06589
   1.37337    0.20226    0.06570
   1.38138    0.20118    0.06550
   1.38939    0.20012    0.06531
   1.39740    0.19906    0.06511
   1.40541    0.19800    0.06492
   1.41341    0.19696    0.06473
   1.42142    0.19593    0.06454
   1.42943    0.19490    0.06435
   1.43744    0.19388    0.06416
   1.44545    0.19287    0.06397
   1.45345    0.19187    0.06379
   1.46146    0.19087    0.06360
   1.46947    0.18989    0.06342
   1.47748    0.18891    0.06323
   1.48549    0.18793    0.06305
   1.49349    0.18697    0.06287
   1.50150    0.18601    0.06268
   1.50951    0.18506    0.06250
   1.51752    0.18412    0.06232
   1.52553    0.18319    0.06214
   1.53353    0.18226    0.06197
   1.54154    0.18134    0.06179
   1.54955    0.18043    0.06161
   1.55756    0.17952    0.06144
   1.56557    0.17862    0.06126
   1.57357    0.17773    0.06109
   1.58158    0.17684    0.06092
   1.58959    0.17596    0.06075
   1.59760    0.17509    0.06057
   1.60561    0.17422    0.06040
   1.61361    0.17336    0.06023
   1.62162    0.17251    0.06007
   1.62963    0.17166    0.05990
   1.63764    0.17082    0.05973
   1.64565    0.16999    0.05957
   1.65365    0.16916    0.05940
   1.66166    0.16834    0.05924
   1.66967    0.16752    0.05907
   1.67768    0.16671    0.05891
   1.68569    0.16591    0.05875
   1.69369    0.16511    0.05859
   1.70170    0.16432    0.05843
   1.70971    0.16353    0.05827
   1.71772    0.16275    0.05811
   1.72573    0.16198    0.05796
   1.73373    0.16121    0.05780
   1.74174    0.16045    0.05765
   1.74975    0.15969    0.05749
   1.75776    0.15895    0.05734
   1.76577    0.15820    0.05719
   1.77377    0.15747    0.05704
   1.78178    0.15674    0.05688
   1.78979    0.15602    0.05674
   1.79780    0.15531    0.05659
   1.80581    0.15462    0.05644
   1.81381    0.15394    0.05629
   1.82182    0.15330    0.05615
   1.82983    0.15272    0.05600
   1.83784    0.15227    0.05586
   1.84585    0.15217    0.05572
   1.85385    0.15289    0.05557
   1.86186    0.15293    0.05543
   1.86987    0.15062    0.05529
   1.87788    0.14903    0.05515
   1.88589    0.14799    0.05502
   1.89389    0.14715    0.05488
   1.90190    0.14640    0.05475
   1.90991    0.14568    0.05461
   1.91792    0.14499    0.05448
   1.92593    0.14432    0.05435
   1.93393    0.14366    0.05422
   1.94194    0.14300    0.05409
   1.94995    0.14236    0.05396
   1.95796    0.14172    0.05383
   1.96597    0.14108    0.05371
   1.97397    0.14045    0.05358
   1.98198    0.13983    0.05346
   1.98999    0.13921    0.05334
   1.99800    0.13859    0.05322
   2.00601    0.13798    0.05310
   2.01401    0.13738    0.05299
   2.02202    0.13677    0.05287
   2.03003    0.13618    0.05276
   2.03804    0.13558    0.05265
   2.04605    0.13499    0.05254
   2.05405    0.13441    0.05243
   2.06206    0.13382    0.05233
   2.07007    0.13325    0.05223
   2.07808    0.13267    0.05213
   2.08609    0.13210    0.05203
   2.09409    0.13154    0.05194
   2.10210    0.13097    0.05184
   2.11011    0.13041    0.05176
   2.11812    0.12986    0.05167
   2.12613    0.12931    0.05159
   2.13413    0.12876    0.05151
   2.14214    0.12822    0.05143
   2.15015    0.12768    0.05136
   2.15816    0.12714    0.05130
   2.16617    0.12661    0.05124
   2.17417    0.12608    0.05118
   2.18218    0.12555    0.05113
   2.19019    0.12503    0.05108
   2.19820    0.12452    0.05105
   2.20621    0.12400    0.05102
   2.21421    0.12350    0.05099
   2.22222    0.12300    0.05098
   2.23023    0.12251    0.05097
   2.23824    0.12203    0.05098
   2.24625    0.12156    0.05100
   2.25425    0.12112    0.05103
   2.26226    0.12074    0.05107
   2.27027    0.12047    0.05113
   2.27828    0.12050    0.05121
   2.28629    0.12127    0.05131
   2.29429    0.12157    0.05143
   2.30230    0.11962    0.05158
   2.31031    0.11828    0.05176
   2.31832    0.11745    0.05197
   2.32633    0.11682    0.05222
   2.33433    0.11627    0.05252
   2.34234    0.11575    0.05287
   2.35035    0.11526    0.05328
   2.35836    0.11478    0.05376
   2.36637    0.11430    0.05434
   2.37437    0.11384    0.05502
   2.38238    0.11338    0.05583
   2.39039    0.11292    0.05680
   2.39840    0.11247    0.05796
   2.40641    0.11202    0.05937
   2.41441    0.11158    0.06109
   2.42242    0.11113    0.06321
   2.43043    0.11069    0.06586
   2.43844    0.11026    0.06921
   2.44645    0.10983    0.07354
   2.45445    0.10940    0.07922
   2.46246    0.10897    0.08688
   2.47047    0.10854    0.09751
  2.478478   0.108121   0.112848
  2.486486   0.107702   0.136023
  2.494494   0.107285   0.173254
  2.502502   0.106870   0.238117
  2.510510   0.106458   0.364105
  2.518518   0.106048   0.645860
  2.526526   0.105641   1.345025
  2.534534   0.105236   2.280569
  2.542542   0.104833   1.477520
  2.550550   0.104433   0.701751
  2.558558   0.104035   0.386867
  2.566566   0.103640   0.248532
  2.574574   0.103246   0.178332
  2.582582   0.102855   0.138412
  2.590590   0.102467   0.113701
   2.59860    0.10208    0.09739
   2.60661    0.10170    0.08606
   2.61461    0.10131    0.07788
   2.62262    0.10093    0.07177
   2.63063    0.10056    0.06708
   2.63864    0.10018    0.06341
   2.64665    0.09981    0.06046
   2.65465    0.09944    0.05807
   2.66266    0.09907    0.05608
   2.67067    0.09870    0.05442
   2.67868    0.09833    0.05301
   2.68669    0.09797    0.05180
   2.69469    0.09761    0.05075
   2.70270    0.09725    0.04984
   2.71071    0.09689    0.04903
   2.71872    0.09654    0.04832
   2.72673    0.09618    0.04768
   2.73473    0.09583    0.04710
   2.74274    0.09548    0.04658
   2.75075    0.09514    0.04610
   2.75876    0.09479    0.04566
   2.76677    0.09445    0.04526
   2.77477    0.09411    0.04489
   2.78278    0.09377    0.04455
   2.79079    0.09343    0.04422
   2.79880    0.09309    0.04392
   2.80681    0.09276    0.04364
   2.81481    0.09243    0.04337
   2.82282    0.09210    0.04312
   2.83083    0.09177    0.04288
   2.83884    0.09144    0.04265
   2.84685    0.09111    0.04243
   2.85485    0.09079    0.04223
   2.86286    0.09047    0.04203
   2.87087    0.09015    0.04183
   2.87888    0.08983    0.04165
   2.88689    0.08951    0.04147
   2.89490    0.08920    0.04130
   2.90290    0.08889    0.04113
   2.91091    0.08857    0.04097
   2.91892    0.08826    0.04081
   2.92693    0.08796    0.04066
   2.93493    0.08765    0.04051
   2.94294    0.08734    0.04036
   2.95095    0.08704    0.04022
   2.95896    0.08674    0.04008
   2.96697    0.08644    0.03995
   2.97497    0.08614    0.03981
   2.98298    0.08584    0.03968
   2.99099    0.08555    0.03955
   2.99900    0.08525    0.03943
   3.00701    0.08496    0.03931
   3.01501    0.08467    0.03918
   3.02302    0.08438    0.03906
   3.03103    0.08409    0.03895
   3.03904    0.08380    0.03883
   3.04705    0.08352    0.03872
   3.05505    0.08324    0.03860
   3.06306    0.08295    0.03849
   3.07107    0.08267    0.03838
   3.07908    0.08239    0.03827
   3.08709    0.08212    0.03817
   3.09509    0.08184    0.03806
   3.10310    0.08157    0.03796
   3.11111    0.08129    0.03785
   3.11912    0.08102    0.03775
   3.12713    0.08075    0.03765
   3.13513    0.08048    0.03755
   3.14314    0.08021    0.03745
   3.15115    0.07994    0.03735
   3.15916    0.07968    0.03725
   3.16717    0.07942    0.03715
   3.17517    0.07915    0.03706
   3.18318    0.07889    0.03696
   3.19119    0.07863    0.03687
   3.19920    0.07837    0.03677
   3.20721    0.07812    0.03668
   3.21521    0.07786    0.03659
   3.22322    0.07760    0.03649
   3.23123    0.07735    0.03640
   3.23924    0.07710    0.03631
   3.24725    0.07685    0.03622
   3.25526    0.07660    0.03613
   3.26326    0.07635    0.03604
   3.27127    0.07610    0.03596
   3.27928    0.07586    0.03587
   3.28729    0.07561    0.03578
   3.29529    0.07537    0.03569
   3.30330    0.07513    0.03561
   3.31131    0.07488    0.03552
   3.31932    0.07464    0.03544
   3.32733    0.07441    0.03535
   3.33534    0.07417    0.03527
   3.34334    0.07393    0.03518
   3.35135    0.07370    0.03510
   3.35936    0.07346    0.03502
   3.36737    0.07323    0.03494
   3.37537    0.07300    0.03485
   3.38338    0.07277    0.03477
   3.39139    0.07254    0.03469
   3.39940    0.07231    0.03461
   3.40741    0.07208    0.03453
   3.41542    0.07185    0.03445
   3.42342    0.07163    0.03437
   3.43143    0.07141    0.03429
   3.43944    0.07118    0.03421
   3.44745    0.07096    0.03414
   3.45546    0.07074    0.03406
   3.46346    0.07052    0.03398
   3.47147    0.07030    0.03390
   3.47948    0.07008    0.03383
   3.48749    0.06987    0.03375
   3.49550    0.06965    0.03367
   3.50350    0.06944    0.03360
   3.51151    0.06922    0.03352
   3.51952    0.06901    0.03345
   3.52753    0.06880    0.03337
   3.53554    0.06859    0.03330
   3.54354    0.06838    0.03322
   3.55155    0.06817    0.03315
   3.55956    0.06796    0.03307
   3.56757    0.06776    0.03300
   3.57558    0.06755    0.03293
   3.58358    0.06735    0.03285
   3.59159    0.06714    0.03278
   3.59960    0.06694    0.03271
   3.60761    0.06674    0.03264
   3.61562    0.06654    0.03257
   3.62362    0.06634    0.03249
   3.63163    0.06614    0.03242
   3.63964    0.06594    0.03235
   3.64765    0.06575    0.03228
   3.65566    0.06555    0.03221
   3.66366    0.06536    0.03214
   3.67167    0.06516    0.03207
   3.67968    0.06497    0.03200
   3.68769    0.06478    0.03193
   3.69570    0.06459    0.03186
   3.70370    0.06440    0.03180
   3.71171    0.06421    0.03173
   3.71972    0.06402    0.03166
   3.72773    0.06383    0.03159
   3.73574    0.06364    0.03152
   3.74374    0.06346    0.03146
   3.75175    0.06327    0.03139
   3.75976    0.06309    0.03132
   3.76777    0.06291    0.03126
   3.77578    0.06272    0.03119
   3.78378    0.06254    0.03112
   3.79179    0.06236    0.03106
   3.79980    0.06218    0.03099
   3.80781    0.06201    0.03093
   3.81582    0.06183    0.03086
   3.82382    0.06165    0.03080
   3.83183    0.06147    0.03073
   3.83984    0.06130    0.03067
   3.84785    0.06113    0.03060
   3.85586    0.06095    0.03054
   3.86386    0.06078    0.03047
   3.87187    0.06061    0.03041
   3.87988    0.06044    0.03035
   3.88789    0.06027    0.03028
   3.89590    0.06010    0.03022
   3.90390    0.05993    0.03016
   3.91191    0.05976    0.03009
   3.91992    0.05960    0.03003
   3.92793    0.05943    0.02997
   3.93594    0.05927    0.02991
   3.94394    0.05910    0.02985
   3.95195    0.05894    0.02978
   3.95996    0.05878    0.02972
   3.96797    0.05862    0.02966
   3.97598    0.05845    0.02960
   3.98398    0.05830    0.02954
   3.99199    0.05814    0.02948
   4.00000    0.05798    0.02942
 -4.000     -.1320E-2  -.2658     -.4010     0.5504   
 -3.992     -.1336E-2  -.2669     -.4083     0.2338   
 -3.984     -.1352E-2  -.2679     -.4328     -.9324E-1
 -3.976     -.1368E-2  -.2690     -.4812     -.4444   
 -3.968     -.1384E-2  -.2701     -.5685     -.8384   
 -3.960     -.1401E-2  -.2712     -.7292     -1.303   
 -3.952     -.1417E-2  -.2724     -1.052     -1.876   
 -3.944     -.1433E-2  -.2735     -1.792     -2.554   
 -3.936     -.1449E-2  -.2747     -3.548     -2.727   
 -3.928     -.1466E-2  -.2758     -4.675     -.2976   
 -3.920     -.1482E-2  -.2770     -2.738     0.7645   
 -3.912     -.1499E-2  -.2782     -1.680     0.1558E-1
 -3.904     -.1515E-2  -.2794     -1.403     -.9104   
 -3.896     -.1532E-2  -.2806     -1.541     -1.885   
 -3.888     -.1549E-2  -.2819     -2.139     -3.009   
 -3.880     -.1566E-2  -.2831     -3.721     -4.268   
 -3.872     -.1582E-2  -.2844     -7.474     -4.154   
 -3.864     -.1600E-2  -.2857     -9.055      1.164   
 -3.856     -.1617E-2  -.2869     -5.427      2.749   
 -3.848     -.1634E-2  -.2882     -4.433      1.449   
 -3.840     -.1652E-2  -.2896     -5.623      1.730   
 -3.832     -.1669E-2  -.2909     -4.329      3.711   
 -3.824     -.1687E-2  -.2922     -2.434      3.159   
 -3.816     -.1705E-2  -.2936     -1.708      2.051   
 -3.808     -.1723E-2  -.2950     -1.562     0.9825   
 -3.800     -.1741E-2  -.2963     -1.845     -.1166   
 -3.792     -.1759E-2  -.2977     -2.824     -1.330   
 -3.784     -.1778E-2  -.2992     -5.485     -2.097   
 -3.776     -.1796E-2  -.3006     -9.093      1.527   
 -3.768     -.1815E-2  -.3020     -5.908      5.927   
 -3.760     -.1834E-2  -.3035     -2.848      5.483   
 -3.752     -.1853E-2  -.3050     -1.600      4.437   
 -3.744     -.1872E-2  -.3065     -1.050      3.607   
 -3.736     -.1892E-2  -.3080     -.7722      2.970   
 -3.728     -.1911E-2  -.3095     -.6186      2.457   
 -3.720     -.1931E-2  -.3110     -.5303      2.022   
 -3.712     -.1951E-2  -.3126     -.4816      1.633   
 -3.704     -.1972E-2  -.3142     -.4610      1.268   
 -3.696     -.1992E-2  -.3158     -.4643     0.9091   
 -3.688     -.2013E-2  -.3174     -.4932     0.5397   
 -3.680     -.2034E-2  -.3190     -.5559     0.1404   
 -3.672     -.2055E-2  -.3206     -.6730     -.3144   
 -3.664     -.2076E-2  -.3223     -.8950     -.8613   
 -3.656     -.2098E-2  -.3239     -1.358     -1.542   
 -3.648     -.2120E-2  -.3256     -2.454     -2.263   
 -3.640     -.2142E-2  -.3273     -4.620     -1.721   
 -3.632     -.2164E-2  -.3291     -4.384     0.7610   
 -3.624     -.2187E-2  -.3308     -2.999     0.5502   
 -3.616     -.2209E-2  -.3326     -3.344     -.2431   
 -3.608     -.2233E-2  -.3343     -4.020     0.6601   
 -3.600     -.2256E-2  -.3361     -2.764     0.9589   
 -3.592     -.2280E-2  -.3379     -2.181     -.1501   
 -3.584     -.2304E-2  -.3398     -2.431     -1.570   
 -3.576     -.2328E-2  -.3416     -3.568     -3.295   
 -3.568     -.2352E-2  -.3435     -6.609     -5.235   
 -3.560     -.2377E-2  -.3454     -13.89     -4.321   
 -3.552     -.2402E-2  -.3473     -16.60      7.174   
 -3.544     -.2428E-2  -.3493     -8.379      11.44   
 -3.536     -.2454E-2  -.3512     -4.053      9.874   
 -3.528     -.2480E-2  -.3532     -2.284      8.235   
 -3.520     -.2506E-2  -.3552     -1.454      7.048   
 -3.512     -.2533E-2  -.3572     -1.009      6.193   
 -3.504     -.2560E-2  -.3592     -.7439      5.556   
 -3.495     -.2588E-2  -.3613     -.5737      5.064   
 -3.487     -.2616E-2  -.3634     -.4580      4.671   
 -3.479     -.2644E-2  -.3655     -.3755      4.351   
 -3.471     -.2673E-2  -.3676     -.3146      4.083   
 -3.463     -.2702E-2  -.3698     -.2683      3.855   
 -3.455     -.2731E-2  -.3719     -.2322      3.659   
 -3.447     -.2761E-2  -.3741     -.2034      3.488   
 -3.439     -.2791E-2  -.3764     -.1801      3.337   
 -3.431     -.2822E-2  -.3786     -.1609      3.202   
 -3.423     -.2853E-2  -.3809     -.1448      3.081   
 -3.415     -.2885E-2  -.3832     -.1313      2.971   
 -3.407     -.2917E-2  -.3855     -.1198      2.872   
 -3.399     -.2949E-2  -.3878     -.1099      2.780   
 -3.391     -.2982E-2  -.3902     -.1013      2.696   
 -3.383     -.3016E-2  -.3926     -.9381E-1   2.619   
 -3.375     -.3050E-2  -.3951     -.8721E-1   2.547   
 -3.367     -.3084E-2  -.3975     -.8137E-1   2.479   
 -3.359     -.3119E-2  -.4000     -.7618E-1   2.417   
 -3.351     -.3155E-2  -.4025     -.7154E-1   2.358   
 -3.343     -.3191E-2  -.4050     -.6738E-1   2.302   
 -3.335     -.3227E-2  -.4076     -.6363E-1   2.250   
 -3.327     -.3265E-2  -.4102     -.6023E-1   2.201   
 -3.319     -.3302E-2  -.4128     -.5716E-1   2.154   
   -3.3113    -0.0033    -0.4155    -0.0544     2.1092
   -3.3033    -0.0034    -0.4182    -0.0518     2.0668
   -3.2953    -0.0034    -0.4209    -0.0495     2.0264
   -3.2873    -0.0035    -0.4237    -0.0474     1.9877
   -3.2793    -0.0035    -0.4265    -0.0454     1.9506
   -3.2713    -0.0035    -0.4293    -0.0436     1.9150
   -3.2633    -0.0036    -0.4321    -0.0420     1.8808
   -3.2553    -0.0036    -0.4350    -0.0405     1.8479
   -3.2472    -0.0037    -0.4379    -0.0391     1.8161
   -3.2392    -0.0037    -0.4409    -0.0379     1.7853
   -3.2312    -0.0038    -0.4439    -0.0367     1.7555
   -3.2232    -0.0038    -0.4469    -0.0357     1.7265
   -3.2152    -0.0039    -0.4500    -0.0348     1.6983
   -3.2072    -0.0039    -0.4531    -0.0340     1.6709
   -3.1992    -0.0039    -0.4562    -0.0333     1.6440
   -3.1912    -0.0040    -0.4594    -0.0327     1.6176
   -3.1832    -0.0040    -0.4626    -0.0322     1.5917
   -3.1752    -0.0041    -0.4659    -0.0319     1.5661
   -3.1672    -0.0041    -0.4692    -0.0316     1.5407
   -3.1592    -0.0042    -0.4725    -0.0316     1.5155
   -3.1512    -0.0043    -0.4759    -0.0317     1.4902
   -3.1431    -0.0043    -0.4793    -0.0320     1.4648
   -3.1351    -0.0044    -0.4828    -0.0326     1.4391
   -3.1271    -0.0044    -0.4863    -0.0335     1.4128
   -3.1191    -0.0045    -0.4899    -0.0348     1.3857
   -3.1111    -0.0045    -0.4935    -0.0366     1.3574
   -3.1031    -0.0046    -0.4972    -0.0392     1.3274
   -3.0951    -0.0047    -0.5009    -0.0428     1.2952
   -3.0871    -0.0047    -0.5046    -0.0479     1.2597
   -3.0791    -0.0048    -0.5084    -0.0553     1.2198
   -3.0711    -0.0048    -0.5123    -0.0663     1.1734
   -3.0631    -0.0049    -0.5162    -0.0835     1.1176
   -3.0551    -0.0050    -0.5202    -0.1121     1.0473
   -3.0470    -0.0050    -0.5242    -0.1639     0.9547
   -3.0390    -0.0051    -0.5282    -0.2695     0.8288
   -3.0310    -0.0052    -0.5324    -0.5180     0.6755
   -3.0230    -0.0053    -0.5365    -1.1083     0.7223
   -3.0150    -0.0053    -0.5408    -1.4108     1.6523
   -3.0070    -0.0054    -0.5451    -0.7314     2.0664
   -2.9990    -0.0055    -0.5495    -0.3530     1.9411
   -2.9910    -0.0056    -0.5539    -0.1994     1.8000
   -2.9830    -0.0056    -0.5584    -0.1283     1.6960
   -2.9750    -0.0057    -0.5629    -0.0905     1.6198
   -2.9670    -0.0058    -0.5675    -0.0683     1.5617
   -2.9590    -0.0059    -0.5722    -0.0541     1.5157
   -2.9510    -0.0060    -0.5770    -0.0445     1.4780
   -2.9429    -0.0061    -0.5818    -0.0376     1.4462
   -2.9349    -0.0062    -0.5867    -0.0326     1.4188
   -2.9269    -0.0063    -0.5916    -0.0287     1.3947
   -2.9189    -0.0063    -0.5967    -0.0257     1.3732
   -2.9109    -0.0064    -0.6018    -0.0233     1.3539
   -2.9029    -0.0065    -0.6070    -0.0213     1.3362
   -2.8949    -0.0066    -0.6123    -0.0196     1.3199
   -2.8869    -0.0067    -0.6176    -0.0182     1.3049
   -2.8789    -0.0068    -0.6231    -0.0170     1.2909
   -2.8709    -0.0070    -0.6286    -0.0159     1.2777
   -2.8629    -0.0071    -0.6342    -0.0150     1.2654
   -2.8549    -0.0072    -0.6399    -0.0141     1.2538
   -2.8468    -0.0073    -0.6457    -0.0134     1.2428
   -2.8388    -0.0074    -0.6516    -0.0127     1.2324
   -2.8308    -0.0075    -0.6576    -0.0120     1.2225
   -2.8228    -0.0077    -0.6637    -0.0114     1.2131
   -2.8148    -0.0078    -0.6698    -0.0109     1.2042
   -2.8068    -0.0079    -0.6761    -0.0103     1.1957
   -2.7988    -0.0080    -0.6825    -0.0098     1.1877
   -2.7908    -0.0082    -0.6890    -0.0093     1.1800
   -2.7828    -0.0083    -0.6956    -0.0088     1.1727
   -2.7748    -0.0085    -0.7023    -0.0084     1.1658
   -2.7668    -0.0086    -0.7092    -0.0079     1.1593
   -2.7588    -0.0088    -0.7161    -0.0074     1.1532
   -2.7508    -0.0089    -0.7232    -0.0069     1.1474
   -2.7427    -0.0091    -0.7304    -0.0064     1.1421
   -2.7347    -0.0092    -0.7377    -0.0059     1.1371
   -2.7267    -0.0094    -0.7452    -0.0054     1.1325
   -2.7187    -0.0096    -0.7527    -0.0048     1.1284
   -2.7107    -0.0097    -0.7605    -0.0042     1.1248
   -2.7027    -0.0099    -0.7683    -0.0036     1.1216
   -2.6947    -0.0101    -0.7763    -0.0029     1.1190
 -2.687     -.1028E-1  -.7845     -.2070E-2   1.117   
 -2.679     -.1047E-1  -.7928     -.1178E-2   1.116   
 -2.671     -.1067E-1  -.8013     -.1621E-3   1.115   
 -2.663     -.1087E-1  -.8099     0.1012E-2   1.115   
 -2.655     -.1108E-1  -.8187     0.2389E-2   1.117   
   -2.6466    -0.0113    -0.8276     0.0040     1.1190
   -2.6386    -0.0115    -0.8367     0.0060     1.1228
   -2.6306    -0.0117    -0.8460     0.0085     1.1283
  -2.62262   -0.01196   -0.85553    0.01161    1.13600
  -2.61461   -0.01219   -0.86519    0.01566    1.14637
  -2.60661   -0.01243   -0.87505    0.02105    1.16026
  -2.59860   -0.01267   -0.88509    0.02849    1.17884
  -2.59059   -0.01292   -0.89534    0.03919    1.20388
  -2.58258   -0.01317   -0.90578    0.05535    1.23812
  -2.57457   -0.01343   -0.91643    0.08145    1.28598
  -2.56657   -0.01370   -0.92730    0.12730    1.35462
  -2.55856   -0.01397   -0.93837    0.21762    1.45471
  -2.55055   -0.01424   -0.94967    0.42314    1.58917
  -2.54254   -0.01452   -0.96118    0.92947    1.62060
  -2.53453   -0.01480   -0.97292    1.45363    0.84044
  -2.52653   -0.01508   -0.98488    0.84309    0.18619
  -2.51852   -0.01536   -0.99707    0.38676    0.25530
  -2.51051   -0.01564   -1.00948    0.20290    0.38736
  -2.50250   -0.01592   -1.02212    0.12068    0.48345
  -2.49449   -0.01619   -1.03498    0.07836    0.54967
  -2.48649   -0.01645   -1.04805    0.05406    0.59635
  -2.47848   -0.01670   -1.06133    0.03894    0.63023
  -2.47047   -0.01693   -1.07481    0.02894    0.65548
  -2.46246   -0.01713   -1.08846    0.02200    0.67469
  -2.45445   -0.01730   -1.10227    0.01700    0.68954
  -2.44645   -0.01742   -1.11619    0.01329    0.70115
  -2.43844   -0.01747   -1.13020    0.01046    0.71030
   -2.4304    -0.0174    -1.1442     0.0083     0.7175
   -2.4224    -0.0173    -1.1582     0.0065     0.7233
   -2.4144    -0.0170    -1.1720     0.0051     0.7278
   -2.4064    -0.0165    -1.1856     0.0040     0.7313
   -2.3984    -0.0158    -1.1987     0.0031     0.7341
 -2.390     -.1461E-1  -1.211     0.2299E-2  0.7362   
 -2.382     -.1292E-1  -1.222     0.1652E-2  0.7377   
 -2.374     -.1046E-1  -1.232     0.1106E-2  0.7388   
 -2.366     -.6865E-2  -1.240     0.6420E-3  0.7394   
 -2.358     -.1537E-2  -1.244     0.2462E-3  0.7398   
 -2.350     0.6538E-2  -1.244     -.9331E-4  0.7398   
 -2.342     0.1920E-1  -1.237     -.3858E-3  0.7396   
 -2.334     0.4005E-1  -1.219     -.6388E-3  0.7392   
 -2.326     0.7679E-1  -1.184     -.8583E-3  0.7385   
 -2.318     0.1481     -1.122     -.1049E-2  0.7378   
 -2.310     0.3056     -1.025     -.1216E-2  0.7368   
 -2.302     0.6979     -.9540     -.1361E-2  0.7358   
 -2.294      1.368     -1.466     -.1489E-2  0.7347   
 -2.286      1.006     -2.419     -.1600E-2  0.7334   
 -2.278     0.4310     -2.495     -.1698E-2  0.7321   
 -2.270     0.1896     -2.398     -.1783E-2  0.7307   
 -2.262     0.8411E-1  -2.334     -.1858E-2  0.7292   
 -2.254     0.2982E-1  -2.305     -.1924E-2  0.7277   
 -2.246     -.2460E-2  -2.302     -.1982E-2  0.7261   
 -2.238     -.2413E-1  -2.316     -.2032E-2  0.7245   
 -2.230     -.4028E-1  -2.344     -.2075E-2  0.7229   
 -2.222     -.5347E-1  -2.382     -.2113E-2  0.7212   
 -2.214     -.6514E-1  -2.430     -.2146E-2  0.7195   
 -2.206     -.7617E-1  -2.487     -.2174E-2  0.7178   
 -2.198     -.8718E-1  -2.552     -.2198E-2  0.7160   
 -2.190     -.9866E-1  -2.627     -.2218E-2  0.7142   
 -2.182     -.1111     -2.710     -.2235E-2  0.7125   
 -2.174     -.1249     -2.804     -.2249E-2  0.7107   
 -2.166     -.1406     -2.909     -.2260E-2  0.7088   
 -2.158     -.1590     -3.027     -.2268E-2  0.7070   
 -2.150     -.1809     -3.161     -.2275E-2  0.7052   
 -2.142     -.2075     -3.314     -.2279E-2  0.7034   
 -2.134     -.2407     -3.490     -.2282E-2  0.7016   
 -2.126     -.2833     -3.694     -.2283E-2  0.6997   
 -2.118     -.3397     -3.935     -.2283E-2  0.6979   
 -2.110     -.4175     -4.225     -.2281E-2  0.6961   
 -2.102     -.5311     -4.581     -.2278E-2  0.6943   
 -2.094     -.7112     -5.028     -.2274E-2  0.6924   
 -2.086     -1.033     -5.593     -.2269E-2  0.6906   
 -2.078     -1.651     -6.186     -.2263E-2  0.6888   
 -2.070     -2.302     -6.572     -.2256E-2  0.6870   
 -2.062     -3.105     -7.563     -.2249E-2  0.6852   
 -2.054     -5.371     -8.619     -.2240E-2  0.6834   
 -2.046     -9.137     -8.207     -.2232E-2  0.6816   
 -2.038     -12.95     -3.780     -.2222E-2  0.6798   
 -2.030     -11.52      2.329     -.2212E-2  0.6780   
 -2.022     -6.859      4.762     -.2202E-2  0.6763   
 -2.014     -3.513      3.807     -.2191E-2  0.6745   
 -2.006     -2.049      2.408     -.2180E-2  0.6728   
   -1.9980    -1.3868     1.3051    -0.0022     0.6710
   -1.9900    -1.0588     0.4426    -0.0022     0.6693
   -1.9820    -0.8974    -0.2767    -0.0021     0.6676
   -1.9740    -0.8426    -0.9252    -0.0021     0.6658
   -1.9660    -0.8865    -1.5596    -0.0021     0.6641
 -1.958     -1.078     -2.228     -.2108E-2  0.6624   
 -1.950     -1.586     -2.909     -.2095E-2  0.6608   
 -1.942     -2.534     -3.089     -.2082E-2  0.6591   
 -1.934     -2.842     -2.880     -.2069E-2  0.6574   
 -1.926     -3.666     -2.962     -.2056E-2  0.6558   
 -1.918     -3.913     -1.776     -.2043E-2  0.6541   
 -1.910     -3.087     -1.659     -.2029E-2  0.6525   
 -1.902     -2.635     -2.262     -.2016E-2  0.6509   
 -1.894     -2.968     -3.350     -.2002E-2  0.6493   
 -1.886     -4.200     -4.096     -.1989E-2  0.6477   
 -1.878     -6.508     -3.847     -.1976E-2  0.6461   
 -1.870     -7.261     -.6937     -.1962E-2  0.6445   
 -1.862     -4.980     -.1862     -.1949E-2  0.6429   
 -1.854     -5.064     -1.436     -.1935E-2  0.6414   
 -1.846     -6.266     -1.001     -.1922E-2  0.6399   
 -1.838     -6.428     -.2138     -.1908E-2  0.6383   
 -1.830     -6.583     0.4540     -.1895E-2  0.6368   
 -1.822     -6.649      1.182     -.1882E-2  0.6353   
 -1.814     -7.190      2.588     -.1868E-2  0.6338   
 -1.806     -5.179      4.671     -.1855E-2  0.6323   
 -1.798     -3.093      3.975     -.1842E-2  0.6308   
 -1.790     -2.667      2.993     -.1829E-2  0.6293   
 -1.782     -2.498      3.074     -.1816E-2  0.6279   
 -1.774     -1.616      2.766     -.1803E-2  0.6264   
 -1.766     -1.200      2.020     -.1790E-2  0.6250   
   -1.7578    -1.1893     1.2995    -0.0018     0.6236
   -1.7497    -1.6206     0.7848    -0.0018     0.6221
 -1.742     -2.071      1.159     -.1751E-2  0.6207   
   -1.7337    -1.5233     1.3070    -0.0017     0.6193
   -1.7257    -1.3832     0.9210    -0.0017     0.6180
 -1.718     -1.328     0.9308     -.1714E-2  0.6166   
 -1.710     -.9398     0.6596     -.1701E-2  0.6152   
 -1.702     -.7868     0.1442     -.1689E-2  0.6139   
 -1.694     -.8164     -.4124     -.1677E-2  0.6125   
 -1.686     -1.015     -1.032     -.1665E-2  0.6112   
 -1.678     -1.525     -1.753     -.1653E-2  0.6098   
 -1.670     -2.788     -2.352     -.1641E-2  0.6085   
 -1.662     -4.682     -1.389     -.1629E-2  0.6072   
 -1.654     -4.532     0.9467     -.1617E-2  0.6059   
 -1.646     -2.722      1.430     -.1606E-2  0.6046   
 -1.638     -1.926     0.5674     -.1594E-2  0.6033   
 -1.630     -2.125     -.2688     -.1583E-2  0.6021   
 -1.622     -2.726     -.2606     -.1572E-2  0.6008   
 -1.614     -2.666     -.2939     -.1561E-2  0.5996   
 -1.606     -3.238     -.2230     -.1550E-2  0.5983   
 -1.598     -2.828     0.3683     -.1539E-2  0.5971   
 -1.590     -2.404     -.2348     -.1528E-2  0.5958   
 -1.582     -2.814     -.7733     -.1517E-2  0.5946   
 -1.574     -3.340     -1.083     -.1507E-2  0.5934   
 -1.566     -4.427     -1.313     -.1496E-2  0.5922   
 -1.558     -5.513     -.1260     -.1486E-2  0.5910   
 -1.550     -5.453      1.019     -.1476E-2  0.5898   
 -1.542     -5.202      1.638     -.1465E-2  0.5887   
 -1.534     -4.924      2.456     -.1455E-2  0.5875   
 -1.526     -4.452      3.420     -.1446E-2  0.5863   
 -1.518     -2.839      3.893     -.1436E-2  0.5852   
 -1.510     -1.721      3.117     -.1426E-2  0.5840   
 -1.502     -1.357      2.223     -.1417E-2  0.5829   
 -1.493     -1.474      1.419     -.1407E-2  0.5818   
 -1.485     -2.168     0.9820     -.1398E-2  0.5806   
 -1.477     -2.639      1.512     -.1389E-2  0.5795   
 -1.469     -2.541      2.063     -.1380E-2  0.5784   
 -1.461     -1.687      2.370     -.1371E-2  0.5773   
 -1.453     -1.061      1.867     -.1362E-2  0.5762   
 -1.445     -.8435      1.273     -.1354E-2  0.5751   
 -1.437     -.8333     0.6986     -.1345E-2  0.5740   
 -1.429     -1.022     0.1160     -.1337E-2  0.5730   
 -1.421     -1.578     -.3573     -.1328E-2  0.5719   
 -1.413     -2.177     -.3994E-1  -.1320E-2  0.5708   
 -1.405     -1.777     0.4500E-2  -.1312E-2  0.5698   
 -1.397     -1.845     -.7130     -.1304E-2  0.5687   
 -1.389     -2.609     -1.193     -.1297E-2  0.5677   
 -1.381     -3.343     -1.192     -.1289E-2  0.5667   
 -1.373     -4.254     -1.134     -.1282E-2  0.5656   
 -1.365     -5.212     0.9149E-2  -.1275E-2  0.5646   
 -1.357     -4.332     0.9598     -.1268E-2  0.5636   
 -1.349     -4.177     0.2354     -.1261E-2  0.5626   
 -1.341     -5.107     0.4246     -.1254E-2  0.5616   
 -1.333     -5.323     0.7782     -.1247E-2  0.5606   
 -1.325     -6.419      1.535     -.1241E-2  0.5596   
 -1.317     -6.356      3.385     -.1234E-2  0.5586   
 -1.309     -4.674      4.529     -.1228E-2  0.5576   
 -1.301     -3.595      3.750     -.1222E-2  0.5566   
 -1.293     -3.874      3.642     -.1216E-2  0.5556   
 -1.285     -3.179      3.838     -.1211E-2  0.5547   
 -1.277     -3.236      3.192     -.1205E-2  0.5537   
 -1.269     -3.883      3.754     -.1200E-2  0.5527   
 -1.261     -3.150      4.639     -.1195E-2  0.5518   
 -1.253     -2.203      4.619     -.1190E-2  0.5508   
 -1.245     -1.536      4.017     -.1185E-2  0.5499   
 -1.237     -1.503      3.254     -.1181E-2  0.5489   
 -1.229     -2.109      2.863     -.1176E-2  0.5480   
 -1.221     -2.388      3.361     -.1172E-2  0.5470   
 -1.213     -2.245      3.455     -.1169E-2  0.5461   
 -1.205     -2.289      3.502     -.1165E-2  0.5452   
 -1.197     -2.278      4.020     -.1161E-2  0.5442   
 -1.189     -1.704      3.994     -.1158E-2  0.5433   
 -1.181     -1.885      3.835     -.1155E-2  0.5424   
 -1.173     -1.693      4.515     -.1153E-2  0.5415   
 -1.165     -.9170      4.483     -.1150E-2  0.5405   
 -1.157     -.5398      4.143     -.1148E-2  0.5396   
 -1.149     -.3679      3.850     -.1146E-2  0.5387   
 -1.141     -.2761      3.619     -.1145E-2  0.5378   
 -1.133     -.2202      3.433     -.1144E-2  0.5369   
 -1.125     -.1829      3.279     -.1143E-2  0.5360   
 -1.117     -.1562      3.147     -.1142E-2  0.5350   
 -1.109     -.1362      3.033     -.1142E-2  0.5341   
 -1.101     -.1207      2.932     -.1142E-2  0.5332   
 -1.093     -.1082      2.841     -.1142E-2  0.5323   
 -1.085     -.9800E-1   2.760     -.1143E-2  0.5314   
 -1.077     -.8948E-1   2.685     -.1145E-2  0.5305   
 -1.069     -.8227E-1   2.617     -.1146E-2  0.5295   
 -1.061     -.7608E-1   2.554     -.1148E-2  0.5286   
 -1.053     -.7071E-1   2.496     -.1151E-2  0.5277   
 -1.045     -.6601E-1   2.441     -.1154E-2  0.5268   
 -1.037     -.6186E-1   2.390     -.1158E-2  0.5259   
 -1.029     -.5818E-1   2.342     -.1162E-2  0.5249   
 -1.021     -.5489E-1   2.297     -.1167E-2  0.5240   
 -1.013     -.5193E-1   2.255     -.1172E-2  0.5231   
 -1.005     -.4926E-1   2.214     -.1178E-2  0.5221   
 -.9970     -.4685E-1   2.176     -.1185E-2  0.5212   
 -.9890     -.4466E-1   2.139     -.1192E-2  0.5202   
 -.9810     -.4266E-1   2.105     -.1200E-2  0.5193   
 -.9730     -.4084E-1   2.071     -.1209E-2  0.5183   
 -.9650     -.3917E-1   2.039     -.1218E-2  0.5173   
 -.9570     -.3765E-1   2.009     -.1229E-2  0.5164   
 -.9489     -.3625E-1   1.979     -.1240E-2  0.5154   
 -.9409     -.3498E-1   1.951     -.1253E-2  0.5144   
 -.9329     -.3381E-1   1.923     -.1266E-2  0.5134   
 -.9249     -.3276E-1   1.896     -.1281E-2  0.5123   
 -.9169     -.3180E-1   1.871     -.1297E-2  0.5113   
 -.9089     -.3093E-1   1.846     -.1314E-2  0.5103   
 -.9009     -.3016E-1   1.821     -.1333E-2  0.5092   
 -.8929     -.2948E-1   1.797     -.1353E-2  0.5081   
 -.8849     -.2890E-1   1.774     -.1374E-2  0.5070   
 -.8769     -.2841E-1   1.751     -.1398E-2  0.5059   
 -.8689     -.2802E-1   1.729     -.1423E-2  0.5048   
 -.8609     -.2774E-1   1.706     -.1450E-2  0.5037   
 -.8529     -.2758E-1   1.684     -.1479E-2  0.5025   
 -.8448     -.2755E-1   1.662     -.1511E-2  0.5013   
 -.8368     -.2768E-1   1.640     -.1545E-2  0.5001   
 -.8288     -.2799E-1   1.618     -.1582E-2  0.4988   
   -0.8208    -0.0285     1.5955    -0.0016     0.4975
   -0.8128    -0.0293     1.5724    -0.0017     0.4962
   -0.8048    -0.0305     1.5487    -0.0017     0.4949
   -0.7968    -0.0321     1.5239    -0.0018     0.4935
   -0.7888    -0.0343     1.4977    -0.0018     0.4920
   -0.7808    -0.0373     1.4695    -0.0019     0.4906
   -0.7728    -0.0415     1.4387    -0.0019     0.4890
   -0.7648    -0.0475     1.4041    -0.0020     0.4875
   -0.7568    -0.0562     1.3643    -0.0021     0.4858
   -0.7487    -0.0693     1.3170    -0.0022     0.4841
   -0.7407    -0.0903     1.2584    -0.0023     0.4824
   -0.7327    -0.1262     1.1826    -0.0024     0.4805
   -0.7247    -0.1941     1.0802    -0.0025     0.4786
   -0.7167    -0.3404     0.9414    -0.0026     0.4766
   -0.7087    -0.7007     0.8108    -0.0027     0.4744
   -0.7007    -1.3825     1.1742    -0.0029     0.4722
   -0.6927    -1.1445     2.1335    -0.0030     0.4699
   -0.6847    -0.5345     2.2134    -0.0032     0.4674
   -0.6767    -0.2732     2.0639    -0.0034     0.4647
   -0.6687    -0.1625     1.9399    -0.0036     0.4619
   -0.6607    -0.1082     1.8503    -0.0039     0.4589
   -0.6527    -0.0780     1.7841    -0.0042     0.4557
   -0.6446    -0.0596     1.7332    -0.0045     0.4522
   -0.6366    -0.0476     1.6927    -0.0049     0.4485
   -0.6286    -0.0394     1.6592    -0.0053     0.4445
   -0.6206    -0.0334     1.6310    -0.0058     0.4401
   -0.6126    -0.0289     1.6067    -0.0063     0.4353
   -0.6046    -0.0255     1.5853    -0.0070     0.4300
   -0.5966    -0.0228     1.5663    -0.0078     0.4241
   -0.5886    -0.0206     1.5491    -0.0087     0.4176
   -0.5806    -0.0188     1.5335    -0.0098     0.4103
  -0.57257   -0.01731    1.51915   -0.01112    0.40209
  -0.56456   -0.01604    1.50589   -0.01276    0.39270
  -0.55656   -0.01495    1.49356   -0.01480    0.38190
  -0.54855   -0.01401    1.48202   -0.01739    0.36932
  -0.54054   -0.01318    1.47119   -0.02075    0.35449
  -0.53253   -0.01245    1.46097   -0.02521    0.33674
  -0.52452   -0.01179    1.45130   -0.03128    0.31510
  -0.51652   -0.01120    1.44212   -0.03986    0.28817
  -0.50851   -0.01066    1.43340   -0.05251    0.25381
  -0.50050   -0.01018    1.42507   -0.07224    0.20863
   -0.4925    -0.0097     1.4171    -0.1053     0.1471
   -0.4845    -0.0093     1.4095    -0.1662     0.0606
   -0.4765    -0.0089     1.4022    -0.2941    -0.0618
   -0.4685    -0.0086     1.3952    -0.6033    -0.1962
   -0.4605    -0.0082     1.3885    -1.2672     0.0251
   -0.4525    -0.0079     1.3820    -1.2555     1.0347
   -0.4444    -0.0076     1.3758    -0.5953     1.2421
   -0.4364    -0.0074     1.3698    -0.2909     1.1069
   -0.4284    -0.0071     1.3640    -0.1648     0.9852
   -0.4204    -0.0069     1.3584    -0.1046     0.8991
   -0.4124    -0.0066     1.3530    -0.0718     0.8379
   -0.4044    -0.0064     1.3478    -0.0523     0.7930
   -0.3964    -0.0062     1.3428    -0.0397     0.7588
   -0.3884    -0.0060     1.3380    -0.0312     0.7319
   -0.3804    -0.0058     1.3333    -0.0251     0.7104
   -0.3724    -0.0056     1.3287    -0.0207     0.6927
   -0.3644    -0.0054     1.3244    -0.0174     0.6779
   -0.3564    -0.0052     1.3201    -0.0148     0.6653
   -0.3483    -0.0050     1.3160    -0.0128     0.6545
   -0.3403    -0.0049     1.3121    -0.0111     0.6451
   -0.3323    -0.0047     1.3082    -0.0098     0.6368
   -0.3243    -0.0045     1.3045    -0.0087     0.6295
   -0.3163    -0.0044     1.3010    -0.0078     0.6230
   -0.3083    -0.0042     1.2975    -0.0071     0.6170
   -0.3003    -0.0041     1.2942    -0.0065     0.6116
   -0.2923    -0.0040     1.2910    -0.0059     0.6067
   -0.2843    -0.0038     1.2879    -0.0055     0.6022
   -0.2763    -0.0037     1.2849    -0.0051     0.5979
   -0.2683    -0.0035     1.2820    -0.0048     0.5940
   -0.2603    -0.0034     1.2792    -0.0045     0.5903
   -0.2523    -0.0033     1.2765    -0.0043     0.5868
   -0.2442    -0.0032     1.2739    -0.0042     0.5834
   -0.2362    -0.0030     1.2714    -0.0040     0.5801
   -0.2282    -0.0029     1.2690    -0.0039     0.5770
   -0.2202    -0.0028     1.2668    -0.0039     0.5739
   -0.2122    -0.0027     1.2646    -0.0039     0.5708
   -0.2042    -0.0026     1.2625    -0.0039     0.5677
   -0.1962    -0.0025     1.2604    -0.0040     0.5646
   -0.1882    -0.0023     1.2585    -0.0041     0.5613
   -0.1802    -0.0022     1.2567    -0.0043     0.5580
   -0.1722    -0.0021     1.2549    -0.0046     0.5544
   -0.1642    -0.0020     1.2533    -0.0050     0.5507
   -0.1562    -0.0019     1.2517    -0.0055     0.5465
   -0.1481    -0.0018     1.2502    -0.0061     0.5420
   -0.1401    -0.0017     1.2488    -0.0069     0.5369
   -0.1321    -0.0016     1.2475    -0.0080     0.5311
   -0.1241    -0.0015     1.2462    -0.0094     0.5243
   -0.1161    -0.0014     1.2451    -0.0113     0.5163
   -0.1081    -0.0013     1.2440    -0.0139     0.5066
 -.1001     -.1202E-2   1.243     -.1748E-1  0.4946   
 -.9209E-1  -.1104E-2   1.242     -.2261E-1  0.4795   
 -.8408E-1  -.1006E-2   1.241     -.3019E-1  0.4600   
 -.7608E-1  -.9082E-3   1.240     -.4191E-1  0.4338   
 -.6807E-1  -.8112E-3   1.240     -.6105E-1  0.3977   
 -.6006E-1  -.7148E-3   1.239     -.9472E-1  0.3461   
 -.5205E-1  -.6187E-3   1.239     -.1601     0.2700   
 -.4404E-1  -.5229E-3   1.238     -.3046     0.1609   
 -.3604E-1  -.4275E-3   1.238     -.6667     0.6899E-1
 -.2803E-1  -.3322E-3   1.237     -1.336     0.5028   
 -.2002E-1  -.2372E-3   1.237     -1.044      1.500   
 -.1201E-1  -.1423E-3   1.237     -.4154      1.629   
 -.4004E-2  -.4741E-4   1.237     -.1080      1.569   
 0.4004E-2  0.4741E-4   1.237     0.1080      1.569   
 0.1201E-1  0.1423E-3   1.237     0.4154      1.629   
 0.2002E-1  0.2372E-3   1.237      1.044      1.500   
 0.2803E-1  0.3322E-3   1.237      1.336     0.5029   
 0.3604E-1  0.4275E-3   1.238     0.6667     0.6899E-1
 0.4404E-1  0.5229E-3   1.238     0.3046     0.1609   
 0.5205E-1  0.6187E-3   1.239     0.1601     0.2700   
 0.6006E-1  0.7148E-3   1.239     0.9472E-1  0.3461   
 0.6807E-1  0.8112E-3   1.240     0.6105E-1  0.3977   
 0.7608E-1  0.9082E-3   1.240     0.4191E-1  0.4338   
 0.8408E-1  0.1006E-2   1.241     0.3019E-1  0.4599   
 0.9209E-1  0.1104E-2   1.242     0.2261E-1  0.4795   
 0.1001     0.1202E-2   1.243     0.1748E-1  0.4946   
    0.1081     0.0013     1.2440     0.0139     0.5066
    0.1161     0.0014     1.2451     0.0113     0.5163
    0.1241     0.0015     1.2462     0.0094     0.5243
    0.1321     0.0016     1.2475     0.0080     0.5311
    0.1401     0.0017     1.2488     0.0069     0.5369
    0.1481     0.0018     1.2502     0.0061     0.5420
    0.1562     0.0019     1.2517     0.0055     0.5465
    0.1642     0.0020     1.2533     0.0050     0.5507
    0.1722     0.0021     1.2549     0.0046     0.5544
    0.1802     0.0022     1.2567     0.0043     0.5580
    0.1882     0.0023     1.2585     0.0041     0.5613
    0.1962     0.0025     1.2604     0.0040     0.5646
    0.2042     0.0026     1.2625     0.0039     0.5677
    0.2122     0.0027     1.2646     0.0039     0.5708
    0.2202     0.0028     1.2668     0.0039     0.5739
    0.2282     0.0029     1.2690     0.0039     0.5770
    0.2362     0.0030     1.2714     0.0040     0.5801
    0.2442     0.0032     1.2739     0.0042     0.5834
    0.2523     0.0033     1.2765     0.0043     0.5868
    0.2603     0.0034     1.2792     0.0045     0.5903
    0.2683     0.0035     1.2820     0.0048     0.5940
    0.2763     0.0037     1.2849     0.0051     0.5979
    0.2843     0.0038     1.2879     0.0055     0.6022
    0.2923     0.0040     1.2910     0.0059     0.6067
    0.3003     0.0041     1.2942     0.0065     0.6116
    0.3083     0.0042     1.2975     0.0071     0.6170
    0.3163     0.0044     1.3010     0.0078     0.6230
    0.3243     0.0045     1.3045     0.0087     0.6295
    0.3323     0.0047     1.3082     0.0098     0.6368
    0.3403     0.0049     1.3121     0.0111     0.6451
    0.3483     0.0050     1.3160     0.0128     0.6545
    0.3564     0.0052     1.3201     0.0148     0.6653
    0.3644     0.0054     1.3244     0.0174     0.6779
    0.3724     0.0056     1.3287     0.0207     0.6927
    0.3804     0.0058     1.3333     0.0251     0.7104
    0.3884     0.0060     1.3380     0.0312     0.7319
    0.3964     0.0062     1.3428     0.0397     0.7588
    0.4044     0.0064     1.3478     0.0523     0.7930
    0.4124     0.0066     1.3530     0.0718     0.8379
    0.4204     0.0069     1.3584     0.1046     0.8991
    0.4284     0.0071     1.3640     0.1648     0.9852
    0.4364     0.0074     1.3698     0.2909     1.1069
    0.4444     0.0076     1.3758     0.5953     1.2421
    0.4525     0.0079     1.3820     1.2554     1.0347
    0.4605     0.0082     1.3885     1.2672     0.0251
    0.4685     0.0086     1.3952     0.6033    -0.1962
    0.4765     0.0089     1.4022     0.2941    -0.0618
    0.4845     0.0093     1.4095     0.1662     0.0605
    0.4925     0.0097     1.4171     0.1053     0.1471
   0.50050    0.01018    1.42507    0.07224    0.20863
   0.50851    0.01066    1.43340    0.05251    0.25381
   0.51652    0.01120    1.44212    0.03986    0.28817
   0.52452    0.01179    1.45130    0.03128    0.31510
   0.53253    0.01245    1.46097    0.02521    0.33673
   0.54054    0.01318    1.47119    0.02075    0.35449
   0.54855    0.01401    1.48202    0.01739    0.36932
   0.55656    0.01495    1.49356    0.01480    0.38190
   0.56456    0.01604    1.50589    0.01276    0.39270
   0.57257    0.01731    1.51915    0.01112    0.40209
    0.5806     0.0188     1.5335     0.0098     0.4103
    0.5886     0.0206     1.5491     0.0087     0.4176
    0.5966     0.0228     1.5663     0.0078     0.4241
    0.6046     0.0255     1.5853     0.0070     0.4300
    0.6126     0.0289     1.6067     0.0063     0.4353
    0.6206     0.0334     1.6310     0.0058     0.4401
    0.6286     0.0394     1.6592     0.0053     0.4445
    0.6366     0.0476     1.6926     0.0049     0.4485
    0.6446     0.0596     1.7332     0.0045     0.4522
    0.6527     0.0780     1.7841     0.0042     0.4557
    0.6607     0.1082     1.8503     0.0039     0.4589
    0.6687     0.1625     1.9399     0.0036     0.4619
    0.6767     0.2731     2.0639     0.0034     0.4647
    0.6847     0.5344     2.2134     0.0032     0.4674
    0.6927     1.1445     2.1336     0.0030     0.4699
    0.7007     1.3825     1.1743     0.0029     0.4722
    0.7087     0.7007     0.8108     0.0027     0.4744
    0.7167     0.3404     0.9414     0.0026     0.4766
    0.7247     0.1941     1.0802     0.0025     0.4786
    0.7327     0.1262     1.1826     0.0024     0.4805
    0.7407     0.0903     1.2584     0.0023     0.4824
    0.7487     0.0693     1.3170     0.0022     0.4841
    0.7568     0.0562     1.3643     0.0021     0.4858
    0.7648     0.0475     1.4041     0.0020     0.4875
    0.7728     0.0415     1.4387     0.0019     0.4890
    0.7808     0.0373     1.4695     0.0019     0.4906
    0.7888     0.0343     1.4977     0.0018     0.4920
    0.7968     0.0321     1.5239     0.0018     0.4935
    0.8048     0.0305     1.5487     0.0017     0.4949
    0.8128     0.0293     1.5724     0.0017     0.4962
    0.8208     0.0285     1.5955     0.0016     0.4975
 0.8288     0.2799E-1   1.618     0.1582E-2  0.4988   
 0.8368     0.2768E-1   1.640     0.1545E-2  0.5001   
 0.8448     0.2755E-1   1.662     0.1511E-2  0.5013   
 0.8529     0.2758E-1   1.684     0.1479E-2  0.5025   
 0.8609     0.2774E-1   1.706     0.1450E-2  0.5037   
 0.8689     0.2802E-1   1.729     0.1423E-2  0.5048   
 0.8769     0.2841E-1   1.751     0.1398E-2  0.5059   
 0.8849     0.2890E-1   1.774     0.1374E-2  0.5070   
 0.8929     0.2948E-1   1.797     0.1353E-2  0.5081   
 0.9009     0.3016E-1   1.821     0.1333E-2  0.5092   
 0.9089     0.3093E-1   1.846     0.1314E-2  0.5103   
 0.9169     0.3180E-1   1.871     0.1297E-2  0.5113   
 0.9249     0.3276E-1   1.896     0.1281E-2  0.5123   
 0.9329     0.3381E-1   1.923     0.1266E-2  0.5134   
 0.9409     0.3498E-1   1.951     0.1253E-2  0.5144   
 0.9489     0.3625E-1   1.979     0.1240E-2  0.5154   
 0.9570     0.3765E-1   2.009     0.1229E-2  0.5164   
 0.9650     0.3917E-1   2.039     0.1218E-2  0.5173   
 0.9730     0.4084E-1   2.071     0.1209E-2  0.5183   
 0.9810     0.4266E-1   2.105     0.1200E-2  0.5193   
 0.9890     0.4466E-1   2.139     0.1192E-2  0.5202   
 0.9970     0.4685E-1   2.176     0.1185E-2  0.5212   
  1.005     0.4926E-1   2.214     0.1178E-2  0.5221   
  1.013     0.5193E-1   2.255     0.1172E-2  0.5231   
  1.021     0.5489E-1   2.297     0.1167E-2  0.5240   
  1.029     0.5818E-1   2.342     0.1162E-2  0.5249   
  1.037     0.6186E-1   2.390     0.1158E-2  0.5259   
  1.045     0.6601E-1   2.441     0.1154E-2  0.5268   
  1.053     0.7071E-1   2.496     0.1151E-2  0.5277   
  1.061     0.7608E-1   2.554     0.1148E-2  0.5286   
  1.069     0.8227E-1   2.617     0.1146E-2  0.5295   
  1.077     0.8948E-1   2.685     0.1145E-2  0.5305   
  1.085     0.9800E-1   2.760     0.1143E-2  0.5314   
  1.093     0.1082      2.841     0.1142E-2  0.5323   
  1.101     0.1207      2.932     0.1142E-2  0.5332   
  1.109     0.1362      3.033     0.1142E-2  0.5341   
  1.117     0.1562      3.147     0.1142E-2  0.5350   
  1.125     0.1829      3.279     0.1143E-2  0.5360   
  1.133     0.2202      3.433     0.1144E-2  0.5369   
  1.141     0.2761      3.619     0.1145E-2  0.5378   
  1.149     0.3679      3.850     0.1146E-2  0.5387   
  1.157     0.5398      4.143     0.1148E-2  0.5396   
  1.165     0.9169      4.483     0.1150E-2  0.5405   
  1.173      1.693      4.515     0.1153E-2  0.5415   
  1.181      1.885      3.835     0.1155E-2  0.5424   
  1.189      1.704      3.994     0.1158E-2  0.5433   
  1.197      2.278      4.020     0.1161E-2  0.5442   
  1.205      2.289      3.502     0.1165E-2  0.5452   
  1.213      2.245      3.455     0.1169E-2  0.5461   
  1.221      2.388      3.361     0.1172E-2  0.5470   
  1.229      2.109      2.863     0.1176E-2  0.5480   
  1.237      1.503      3.254     0.1181E-2  0.5489   
  1.245      1.536      4.017     0.1185E-2  0.5499   
  1.253      2.203      4.619     0.1190E-2  0.5508   
  1.261      3.150      4.639     0.1195E-2  0.5518   
  1.269      3.883      3.754     0.1200E-2  0.5527   
  1.277      3.236      3.192     0.1205E-2  0.5537   
  1.285      3.179      3.838     0.1211E-2  0.5547   
  1.293      3.874      3.642     0.1216E-2  0.5556   
  1.301      3.595      3.750     0.1222E-2  0.5566   
  1.309      4.674      4.529     0.1228E-2  0.5576   
  1.317      6.356      3.385     0.1234E-2  0.5586   
  1.325      6.419      1.535     0.1241E-2  0.5596   
  1.333      5.323     0.7782     0.1247E-2  0.5606   
  1.341      5.107     0.4246     0.1254E-2  0.5616   
  1.349      4.177     0.2354     0.1261E-2  0.5626   
  1.357      4.332     0.9598     0.1268E-2  0.5636   
  1.365      5.212     0.9239E-2  0.1275E-2  0.5646   
  1.373      4.254     -1.134     0.1282E-2  0.5656   
  1.381      3.343     -1.192     0.1289E-2  0.5667   
  1.389      2.609     -1.193     0.1297E-2  0.5677   
  1.397      1.845     -.7130     0.1304E-2  0.5687   
  1.405      1.777     0.4472E-2  0.1312E-2  0.5698   
  1.413      2.177     -.3991E-1  0.1320E-2  0.5708   
  1.421      1.578     -.3573     0.1328E-2  0.5719   
  1.429      1.022     0.1159     0.1337E-2  0.5730   
  1.437     0.8333     0.6986     0.1345E-2  0.5740   
  1.445     0.8435      1.273     0.1353E-2  0.5751   
  1.453      1.061      1.866     0.1362E-2  0.5762   
  1.461      1.687      2.370     0.1371E-2  0.5773   
  1.469      2.541      2.063     0.1380E-2  0.5784   
  1.477      2.639      1.512     0.1389E-2  0.5795   
  1.485      2.168     0.9820     0.1398E-2  0.5806   
  1.493      1.474      1.419     0.1407E-2  0.5818   
  1.502      1.357      2.223     0.1417E-2  0.5829   
  1.510      1.721      3.117     0.1426E-2  0.5840   
  1.518      2.838      3.893     0.1436E-2  0.5852   
  1.526      4.452      3.420     0.1446E-2  0.5863   
  1.534      4.924      2.456     0.1455E-2  0.5875   
  1.542      5.202      1.638     0.1465E-2  0.5887   
  1.550      5.453      1.019     0.1476E-2  0.5898   
  1.558      5.513     -.1259     0.1486E-2  0.5910   
  1.566      4.427     -1.313     0.1496E-2  0.5922   
  1.574      3.340     -1.083     0.1507E-2  0.5934   
  1.582      2.814     -.7733     0.1517E-2  0.5946   
  1.590      2.404     -.2349     0.1528E-2  0.5958   
  1.598      2.828     0.3683     0.1539E-2  0.5971   
  1.606      3.238     -.2230     0.1550E-2  0.5983   
  1.614      2.666     -.2939     0.1561E-2  0.5996   
  1.622      2.726     -.2606     0.1572E-2  0.6008   
  1.630      2.125     -.2688     0.1583E-2  0.6021   
  1.638      1.926     0.5674     0.1594E-2  0.6033   
  1.646      2.722      1.430     0.1606E-2  0.6046   
  1.654      4.532     0.9468     0.1617E-2  0.6059   
  1.662      4.682     -1.389     0.1629E-2  0.6072   
  1.670      2.788     -2.352     0.1641E-2  0.6085   
  1.678      1.525     -1.753     0.1653E-2  0.6098   
  1.686      1.015     -1.032     0.1665E-2  0.6112   
  1.694     0.8165     -.4124     0.1677E-2  0.6125   
  1.702     0.7868     0.1442     0.1689E-2  0.6139   
  1.710     0.9398     0.6596     0.1701E-2  0.6152   
  1.718      1.328     0.9308     0.1714E-2  0.6166   
    1.7257     1.3832     0.9210     0.0017     0.6180
    1.7337     1.5233     1.3069     0.0017     0.6193
  1.742      2.071      1.159     0.1751E-2  0.6207   
    1.7497     1.6206     0.7848     0.0018     0.6221
    1.7578     1.1893     1.2994     0.0018     0.6236
  1.766      1.200      2.020     0.1790E-2  0.6250   
  1.774      1.616      2.766     0.1803E-2  0.6264   
  1.782      2.498      3.074     0.1816E-2  0.6279   
  1.790      2.667      2.993     0.1829E-2  0.6293   
  1.798      3.093      3.975     0.1842E-2  0.6308   
  1.806      5.179      4.671     0.1855E-2  0.6323   
  1.814      7.190      2.588     0.1868E-2  0.6338   
  1.822      6.649      1.182     0.1882E-2  0.6353   
  1.830      6.583     0.4540     0.1895E-2  0.6368   
  1.838      6.428     -.2138     0.1908E-2  0.6383   
  1.846      6.266     -1.001     0.1922E-2  0.6399   
  1.854      5.064     -1.436     0.1935E-2  0.6414   
  1.862      4.980     -.1862     0.1949E-2  0.6430   
  1.870      7.261     -.6936     0.1962E-2  0.6445   
  1.878      6.508     -3.847     0.1976E-2  0.6461   
  1.886      4.200     -4.096     0.1989E-2  0.6477   
  1.894      2.968     -3.350     0.2002E-2  0.6493   
  1.902      2.635     -2.262     0.2016E-2  0.6509   
  1.910      3.087     -1.659     0.2029E-2  0.6525   
  1.918      3.913     -1.776     0.2043E-2  0.6541   
  1.926      3.666     -2.962     0.2056E-2  0.6558   
  1.934      2.842     -2.880     0.2069E-2  0.6574   
  1.942      2.534     -3.089     0.2082E-2  0.6591   
  1.950      1.586     -2.909     0.2095E-2  0.6608   
  1.958      1.078     -2.228     0.2108E-2  0.6624   
    1.9660     0.8865    -1.5597     0.0021     0.6641
    1.9740     0.8426    -0.9252     0.0021     0.6658
    1.9820     0.8974    -0.2768     0.0021     0.6676
    1.9900     1.0588     0.4426     0.0022     0.6693
    1.9980     1.3868     1.3050     0.0022     0.6710
  2.006      2.049      2.408     0.2180E-2  0.6728   
  2.014      3.513      3.807     0.2191E-2  0.6745   
  2.022      6.859      4.762     0.2202E-2  0.6763   
  2.030      11.52      2.329     0.2212E-2  0.6780   
  2.038      12.95     -3.779     0.2222E-2  0.6798   
  2.046      9.137     -8.207     0.2232E-2  0.6816   
  2.054      5.371     -8.619     0.2240E-2  0.6834   
  2.062      3.105     -7.563     0.2249E-2  0.6852   
  2.070      2.302     -6.572     0.2256E-2  0.6870   
  2.078      1.651     -6.186     0.2263E-2  0.6888   
  2.086      1.033     -5.593     0.2269E-2  0.6906   
  2.094     0.7112     -5.028     0.2274E-2  0.6924   
  2.102     0.5311     -4.581     0.2278E-2  0.6943   
  2.110     0.4175     -4.225     0.2281E-2  0.6961   
  2.118     0.3397     -3.935     0.2283E-2  0.6979   
  2.126     0.2833     -3.694     0.2283E-2  0.6997   
  2.134     0.2407     -3.490     0.2282E-2  0.7016   
  2.142     0.2075     -3.314     0.2279E-2  0.7034   
  2.150     0.1809     -3.161     0.2275E-2  0.7052   
  2.158     0.1590     -3.027     0.2268E-2  0.7070   
  2.166     0.1406     -2.909     0.2260E-2  0.7088   
  2.174     0.1249     -2.804     0.2249E-2  0.7107   
  2.182     0.1111     -2.710     0.2235E-2  0.7125   
  2.190     0.9866E-1  -2.627     0.2218E-2  0.7142   
  2.198     0.8718E-1  -2.552     0.2198E-2  0.7160   
  2.206     0.7617E-1  -2.487     0.2174E-2  0.7178   
  2.214     0.6514E-1  -2.430     0.2146E-2  0.7195   
  2.222     0.5347E-1  -2.382     0.2113E-2  0.7212   
  2.230     0.4028E-1  -2.344     0.2075E-2  0.7229   
  2.238     0.2413E-1  -2.316     0.2032E-2  0.7245   
  2.246     0.2461E-2  -2.302     0.1982E-2  0.7261   
  2.254     -.2982E-1  -2.305     0.1924E-2  0.7277   
  2.262     -.8410E-1  -2.334     0.1858E-2  0.7292   
  2.270     -.1896     -2.398     0.1783E-2  0.7307   
  2.278     -.4310     -2.495     0.1698E-2  0.7321   
  2.286     -1.006     -2.419     0.1600E-2  0.7334   
  2.294     -1.368     -1.466     0.1489E-2  0.7347   
  2.302     -.6980     -.9540     0.1361E-2  0.7358   
  2.310     -.3056     -1.025     0.1216E-2  0.7368   
  2.318     -.1481     -1.122     0.1049E-2  0.7378   
  2.326     -.7679E-1  -1.183     0.8583E-3  0.7385   
  2.334     -.4005E-1  -1.219     0.6388E-3  0.7392   
  2.342     -.1920E-1  -1.237     0.3858E-3  0.7396   
  2.350     -.6539E-2  -1.244     0.9333E-4  0.7398   
  2.358     0.1537E-2  -1.244     -.2462E-3  0.7398   
  2.366     0.6864E-2  -1.240     -.6419E-3  0.7394   
  2.374     0.1046E-1  -1.232     -.1106E-2  0.7388   
  2.382     0.1292E-1  -1.222     -.1652E-2  0.7377   
  2.390     0.1461E-1  -1.211     -.2299E-2  0.7362   
    2.3984     0.0158    -1.1987    -0.0031     0.7341
    2.4064     0.0165    -1.1856    -0.0040     0.7313
    2.4144     0.0170    -1.1720    -0.0051     0.7278
    2.4224     0.0173    -1.1582    -0.0065     0.7233
    2.4304     0.0174    -1.1442    -0.0083     0.7175
   2.43844    0.01747   -1.13020   -0.01046    0.71030
   2.44645    0.01742   -1.11619   -0.01329    0.70115
   2.45445    0.01730   -1.10227   -0.01700    0.68954
   2.46246    0.01713   -1.08846   -0.02200    0.67469
   2.47047    0.01693   -1.07481   -0.02894    0.65548
   2.47848    0.01670   -1.06133   -0.03894    0.63023
   2.48649    0.01645   -1.04805   -0.05406    0.59635
   2.49449    0.01619   -1.03498   -0.07835    0.54968
   2.50250    0.01592   -1.02212   -0.12068    0.48345
   2.51051    0.01564   -1.00948   -0.20289    0.38737
   2.51852    0.01536   -0.99707   -0.38676    0.25530
   2.52653    0.01508   -0.98488   -0.84306    0.18618
   2.53453    0.01480   -0.97292   -1.45362    0.84038
   2.54254    0.01452   -0.96118   -0.92949    1.62060
   2.55055    0.01424   -0.94967   -0.42315    1.58917
   2.55856    0.01397   -0.93837   -0.21762    1.45471
   2.56657    0.01370   -0.92730   -0.12730    1.35463
   2.57457    0.01343   -0.91644   -0.08145    1.28598
   2.58258    0.01317   -0.90578   -0.05536    1.23812
   2.59059    0.01292   -0.89534   -0.03919    1.20388
   2.59860    0.01267   -0.88509   -0.02849    1.17884
   2.60661    0.01243   -0.87505   -0.02105    1.16026
   2.61461    0.01219   -0.86519   -0.01566    1.14637
   2.62262    0.01196   -0.85553   -0.01161    1.13600
    2.6306     0.0117    -0.8460    -0.0085     1.1283
    2.6386     0.0115    -0.8367    -0.0060     1.1228
    2.6466     0.0113    -0.8276    -0.0040     1.1189
  2.655     0.1108E-1  -.8187     -.2389E-2   1.117   
  2.663     0.1087E-1  -.8099     -.1012E-2   1.115   
  2.671     0.1067E-1  -.8013     0.1621E-3   1.115   
  2.679     0.1047E-1  -.7928     0.1178E-2   1.116   
  2.687     0.1028E-1  -.7845     0.2070E-2   1.117   
    2.6947     0.0101    -0.7763     0.0029     1.1190
    2.7027     0.0099    -0.7683     0.0036     1.1216
    2.7107     0.0097    -0.7605     0.0042     1.1248
    2.7187     0.0096    -0.7527     0.0048     1.1284
    2.7267     0.0094    -0.7452     0.0054     1.1325
    2.7347     0.0092    -0.7377     0.0059     1.1371
    2.7427     0.0091    -0.7304     0.0064     1.1421
    2.7508     0.0089    -0.7232     0.0069     1.1474
    2.7588     0.0088    -0.7161     0.0074     1.1532
    2.7668     0.0086    -0.7092     0.0079     1.1593
    2.7748     0.0085    -0.7023     0.0084     1.1658
    2.7828     0.0083    -0.6956     0.0088     1.1727
    2.7908     0.0082    -0.6890     0.0093     1.1800
    2.7988     0.0080    -0.6825     0.0098     1.1877
    2.8068     0.0079    -0.6761     0.0103     1.1957
    2.8148     0.0078    -0.6698     0.0109     1.2042
    2.8228     0.0077    -0.6637     0.0114     1.2131
    2.8308     0.0075    -0.6576     0.0120     1.2225
    2.8388     0.0074    -0.6516     0.0127     1.2324
    2.8468     0.0073    -0.6457     0.0134     1.2428
    2.8549     0.0072    -0.6399     0.0141     1.2538
    2.8629     0.0071    -0.6342     0.0150     1.2654
    2.8709     0.0070    -0.6286     0.0159     1.2777
    2.8789     0.0068    -0.6231     0.0170     1.2909
    2.8869     0.0067    -0.6176     0.0182     1.3049
    2.8949     0.0066    -0.6123     0.0196     1.3199
    2.9029     0.0065    -0.6070     0.0213     1.3362
    2.9109     0.0064    -0.6018     0.0233     1.3539
    2.9189     0.0063    -0.5967     0.0257     1.3732
    2.9269     0.0063    -0.5916     0.0287     1.3947
    2.9349     0.0062    -0.5867     0.0326     1.4188
    2.9429     0.0061    -0.5818     0.0376     1.4462
    2.9510     0.0060    -0.5770     0.0445     1.4780
    2.9590     0.0059    -0.5722     0.0541     1.5157
    2.9670     0.0058    -0.5675     0.0683     1.5617
    2.9750     0.0057    -0.5629     0.0905     1.6198
    2.9830     0.0056    -0.5584     0.1283     1.6960
    2.9910     0.0056    -0.5539     0.1994     1.8000
    2.9990     0.0055    -0.5495     0.3530     1.9411
    3.0070     0.0054    -0.5451     0.7314     2.0664
    3.0150     0.0053    -0.5408     1.4108     1.6524
    3.0230     0.0053    -0.5365     1.1083     0.7223
    3.0310     0.0052    -0.5324     0.5180     0.6755
    3.0390     0.0051    -0.5282     0.2695     0.8288
    3.0470     0.0050    -0.5242     0.1639     0.9547
    3.0551     0.0050    -0.5202     0.1121     1.0473
    3.0631     0.0049    -0.5162     0.0835     1.1176
    3.0711     0.0048    -0.5123     0.0663     1.1734
    3.0791     0.0048    -0.5084     0.0553     1.2198
    3.0871     0.0047    -0.5046     0.0479     1.2597
    3.0951     0.0047    -0.5009     0.0428     1.2952
    3.1031     0.0046    -0.4972     0.0392     1.3274
    3.1111     0.0045    -0.4935     0.0366     1.3574
    3.1191     0.0045    -0.4899     0.0348     1.3857
    3.1271     0.0044    -0.4863     0.0335     1.4128
    3.1351     0.0044    -0.4828     0.0326     1.4391
    3.1431     0.0043    -0.4793     0.0320     1.4648
    3.1512     0.0043    -0.4759     0.0317     1.4902
    3.1592     0.0042    -0.4725     0.0316     1.5155
    3.1672     0.0041    -0.4692     0.0316     1.5407
    3.1752     0.0041    -0.4659     0.0319     1.5661
    3.1832     0.0040    -0.4626     0.0322     1.5917
    3.1912     0.0040    -0.4594     0.0327     1.6176
    3.1992     0.0039    -0.4562     0.0333     1.6440
    3.2072     0.0039    -0.4531     0.0340     1.6709
    3.2152     0.0039    -0.4500     0.0348     1.6983
    3.2232     0.0038    -0.4469     0.0357     1.7265
    3.2312     0.0038    -0.4439     0.0367     1.7555
    3.2392     0.0037    -0.4409     0.0379     1.7853
    3.2472     0.0037    -0.4379     0.0391     1.8161
    3.2553     0.0036    -0.4350     0.0405     1.8479
    3.2633     0.0036    -0.4321     0.0420     1.8808
    3.2713     0.0035    -0.4293     0.0436     1.9150
    3.2793     0.0035    -0.4265     0.0454     1.9506
    3.2873     0.0035    -0.4237     0.0474     1.9877
    3.2953     0.0034    -0.4209     0.0495     2.0263
    3.3033     0.0034    -0.4182     0.0518     2.0668
    3.3113     0.0033    -0.4155     0.0544     2.1092
  3.319     0.3302E-2  -.4128     0.5716E-1   2.154   
  3.327     0.3265E-2  -.4102     0.6023E-1   2.201   
  3.335     0.3227E-2  -.4076     0.6363E-1   2.250   
  3.343     0.3191E-2  -.4050     0.6738E-1   2.302   
  3.351     0.3155E-2  -.4025     0.7154E-1   2.358   
  3.359     0.3119E-2  -.4000     0.7618E-1   2.417   
  3.367     0.3084E-2  -.3975     0.8137E-1   2.479   
  3.375     0.3050E-2  -.3951     0.8721E-1   2.547   
  3.383     0.3016E-2  -.3926     0.9381E-1   2.619   
  3.391     0.2982E-2  -.3902     0.1013      2.696   
  3.399     0.2949E-2  -.3878     0.1099      2.780   
  3.407     0.2917E-2  -.3855     0.1198      2.872   
  3.415     0.2885E-2  -.3832     0.1313      2.971   
  3.423     0.2853E-2  -.3809     0.1448      3.081   
  3.431     0.2822E-2  -.3786     0.1609      3.202   
  3.439     0.2791E-2  -.3764     0.1801      3.337   
  3.447     0.2761E-2  -.3741     0.2034      3.488   
  3.455     0.2731E-2  -.3719     0.2322      3.659   
  3.463     0.2702E-2  -.3698     0.2683      3.855   
  3.471     0.2673E-2  -.3676     0.3146      4.083   
  3.479     0.2644E-2  -.3655     0.3755      4.351   
  3.487     0.2616E-2  -.3634     0.4580      4.671   
  3.495     0.2588E-2  -.3613     0.5737      5.064   
  3.504     0.2560E-2  -.3592     0.7438      5.556   
  3.512     0.2533E-2  -.3572      1.009      6.193   
  3.520     0.2506E-2  -.3552      1.454      7.048   
  3.528     0.2480E-2  -.3532      2.284      8.235   
  3.536     0.2454E-2  -.3512      4.053      9.874   
  3.544     0.2428E-2  -.3493      8.379      11.44   
  3.552     0.2402E-2  -.3473      16.60      7.174   
  3.560     0.2377E-2  -.3454      13.89     -4.321   
  3.568     0.2352E-2  -.3435      6.610     -5.236   
  3.576     0.2328E-2  -.3416      3.568     -3.295   
  3.584     0.2304E-2  -.3398      2.431     -1.570   
  3.592     0.2280E-2  -.3379      2.181     -.1502   
  3.600     0.2256E-2  -.3361      2.764     0.9589   
  3.608     0.2233E-2  -.3343      4.020     0.6603   
  3.616     0.2209E-2  -.3326      3.344     -.2431   
  3.624     0.2187E-2  -.3308      2.999     0.5502   
  3.632     0.2164E-2  -.3291      4.384     0.7610   
  3.640     0.2142E-2  -.3273      4.620     -1.721   
  3.648     0.2120E-2  -.3256      2.454     -2.263   
  3.656     0.2098E-2  -.3239      1.358     -1.542   
  3.664     0.2076E-2  -.3223     0.8950     -.8614   
  3.672     0.2055E-2  -.3206     0.6730     -.3144   
  3.680     0.2034E-2  -.3190     0.5559     0.1404   
  3.688     0.2013E-2  -.3174     0.4932     0.5397   
  3.696     0.1992E-2  -.3158     0.4643     0.9091   
  3.704     0.1972E-2  -.3142     0.4610      1.268   
  3.712     0.1951E-2  -.3126     0.4816      1.633   
  3.720     0.1931E-2  -.3110     0.5303      2.022   
  3.728     0.1911E-2  -.3095     0.6186      2.457   
  3.736     0.1892E-2  -.3080     0.7722      2.970   
  3.744     0.1872E-2  -.3065      1.050      3.607   
  3.752     0.1853E-2  -.3050      1.600      4.437   
  3.760     0.1834E-2  -.3035      2.848      5.483   
  3.768     0.1815E-2  -.3020      5.907      5.927   
  3.776     0.1796E-2  -.3006      9.093      1.527   
  3.784     0.1778E-2  -.2992      5.485     -2.097   
  3.792     0.1759E-2  -.2977      2.824     -1.330   
  3.800     0.1741E-2  -.2963      1.845     -.1167   
  3.808     0.1723E-2  -.2950      1.562     0.9825   
  3.816     0.1705E-2  -.2936      1.708      2.051   
  3.824     0.1687E-2  -.2922      2.434      3.159   
  3.832     0.1669E-2  -.2909      4.329      3.711   
  3.840     0.1652E-2  -.2896      5.623      1.730   
  3.848     0.1634E-2  -.2882      4.433      1.448   
  3.856     0.1617E-2  -.2869      5.427      2.749   
  3.864     0.1600E-2  -.2857      9.055      1.164   
  3.872     0.1582E-2  -.2844      7.475     -4.154   
  3.880     0.1566E-2  -.2831      3.721     -4.268   
  3.888     0.1549E-2  -.2819      2.139     -3.009   
  3.896     0.1532E-2  -.2806      1.541     -1.885   
  3.904     0.1515E-2  -.2794      1.403     -.9104   
  3.912     0.1499E-2  -.2782      1.680     0.1553E-1
  3.920     0.1482E-2  -.2770      2.738     0.7645   
  3.928     0.1466E-2  -.2758      4.675     -.2975   
  3.936     0.1449E-2  -.2747      3.548     -2.727   
  3.944     0.1433E-2  -.2735      1.792     -2.554   
  3.952     0.1417E-2  -.2724      1.052     -1.877   
  3.960     0.1401E-2  -.2712     0.7292     -1.303   
  3.968     0.1384E-2  -.2701     0.5685     -.8384   
  3.976     0.1368E-2  -.2690     0.4812     -.4444   
  3.984     0.1352E-2  -.2679     0.4328     -.9326E-1
  3.992     0.1336E-2  -.2669     0.4083     0.2338   
  4.000     0.1320E-2  -.2658     0.4010     0.5504   
# 
# 02/16/2017 at 18:55 YAMBO_PL @ aiken [start]
# 02/16/2017 at 18:55                  [end]
#  
# Timing   [Min/Max/Average]: 35s/35s/35s
#
# .-Input file : INPUTS/07_bse_pl_resonant_111
# | optics                       # [R OPT] Optics
# | bse                          # [R BSE] Bethe Salpeter Equation.
# | bsk                          # [R BSK] Bethe Salpeter Equation kernel
# | bss                          # [R BSS] Bethe Salpeter Equation solver
# | em1s                         # [R Xs] Static Inverse Dielectric Matrix
# | rim_cut                      # [R RIM CUT] Coulomb potential
# | photolum                     # [R] Photo-Luminescence
# | BoseTemp= 0.000000     eV    # Bosonic Temperature
# | DBsIOoff= "DIP"              # [IO] Space-separated list of DB with NO I/O. DB=(DIP,X,HF,COLLs,J,GF,CARRIERs,W,SC,BS,ALL)
# | FFTGvecs= 10           Ha    # [FFT] Plane-waves
# | RandQpts= 1000000            # [RIM] Number of random q-points in the BZ
# | RandGvec= 1            RL    # [RIM] Coulomb interaction RS components
# | CUTGeo= "box z"              # [CUT] Coulomb Cutoff geometry: box/cylinder/sphere X/Y/Z/XY..
# | % CUTBox
# |   0.00000 |  0.00000 | 38.00000 |        # [CUT] [au] Box sides
# | %
# | CUTRadius= 0.000000          # [CUT] [au] Sphere/Cylinder radius
# | CUTCylLen= 0.000000          # [CUT] [au] Cylinder length
# | Chimod= "hartree"            # [X] IP/Hartree/ALDA/LRC/BSfxc
# | BSEmod= "retarded"           # [BSE] resonant/retarded/coupling
# | BSKmod= "SEX"                # [BSE] IP/Hartree/HF/ALDA/SEX/BSfxc
# | BSSmod= "d"                  # [BSS] (h)aydock/(d)iagonalization/(i)nversion/(t)ddft`
# | BSENGexx= 10           Ha    # [BSK] Exchange components
# | BSENGBlk= 1010         mHa   # [BSK] Screened interaction block size
# | #WehCpl                      # [BSK] eh interaction included also in coupling
# | % PL_weights
# |  1.000000 | 1.000000 | 1.000000 |        # [PL] [cc] Weights of the carthesian components of the emitted radiation
# | %
# | % KfnQP_E
# |  1.038620 | 1.000000 | 1.000000 |        # [EXTQP BSK BSS] E parameters  (c/v) eV|adim|adim
# | %
# | KfnRTdb= "f @ 0 fs < ./03_ypp_carriers/ndb.RT_carriers" # [EXTRT BSK BSS] Database
# | RfnRTdb= "f @ 0 fs < ./03_ypp_carriers/ndb.RT_carriers" # [EXTRT R] Database
# | % BEnRange
# | -4.000000 | 4.000000 | eV    # [BSS] Energy range
# | %
# | % BDmRange
# |    0.0100 |   0.0100 | eV    # [BSS] Damping range
# | %
# | BEnSteps= 1000               # [BSS] Energy steps
# | % BLongDir
# | 0.1000E-4 | 0.000    | 0.000    |        # [BSS] [cc] Electric Field
# | %
# | % BSEBands
# |  25 | 28 |                   # [BSK] Bands range
# | %
# | % BndsRnXs
# |    1 |  60 |                 # [Xs] Polarization function bands
# | %
# | NGsBlkXs= 1010         mHa   # [Xs] Response block size
# | GrFnTpXs= "R"                # [Xs] Green`s function (T)ordered,(R)etarded,(r)senant,(a)ntiresonant [T, R, r, Ta, Ra]
# | % DmRngeXs
# |   0.10000 |  0.10000 | eV    # [Xs] Damping range
# | %
# | % LongDrXs
# | 0.1000E-4 | 0.000    | 0.000    |        # [Xs] [cc] Electric Field
# | %
