#  __      __   ______   __       __  _______    ______     
# |  \    /  \ /      \ |  \     /  \|       \  /      \    
#  \$$\  /  $$|  $$$$$$\| $$\   /  $$| $$$$$$$\|  $$$$$$\   
#   \$$\/  $$ | $$__| $$| $$$\ /  $$$| $$__/ $$| $$  | $$   
#    \$$  $$  | $$    $$| $$$$\  $$$$| $$    $$| $$  | $$   
#     \$$$$   | $$$$$$$$| $$\$$ $$ $$| $$$$$$$\| $$  | $$   
#     | $$    | $$  | $$| $$ \$$$| $$| $$__/ $$| $$__/ $$   
#     | $$    | $$  | $$| $$  \$ | $$| $$    $$ \$$    $$   
#      \$$     \$$   \$$ \$$      \$$ \$$$$$$$   \$$$$$$    
#                                                           
#       Version 4.4.0 Revision 16027 Hash 17c7d15ca         
#                  MPI+SLK+OpenMP Build                     
#                http://www.yambo-code.org                  
#
# Absorption @ Q(1) [q->0 direction] :0.1000E-4  0.000     0.000   
#
#
# - Energies      are  Analyt. E
# - Wavefunctions are Teter 93(XC)
#
# - The Green`s function is Resonant -
# - Using the Length Gauge -
# - [r,Vnl] *is* included -
#
#
#    E/ev[1]      EPS-Im[2]    EPS-Re[3]    EPSo-Im[4]   EPSo-Re[5]
#
     1.25000      0.09123      5.28036      0.02165      3.34601
     1.25501      0.09257      5.30334      0.02177      3.35145
     1.26003      0.09394      5.32666      0.02188      3.35692
     1.26504      0.09535      5.35034      0.02200      3.36242
     1.27005      0.09680      5.37436      0.02212      3.36794
     1.27506      0.09829      5.39876      0.02224      3.37350
     1.28008      0.09982      5.42353      0.02236      3.37909
     1.28509      0.10139      5.44868      0.02248      3.38470
     1.29010      0.10301      5.47424      0.02260      3.39035
     1.29511      0.10467      5.50020      0.02272      3.39603
     1.30013      0.10638      5.52658      0.02285      3.40174
     1.30514      0.10814      5.55339      0.02298      3.40748
     1.31015      0.10995      5.58065      0.02310      3.41325
     1.31516      0.11182      5.60836      0.02323      3.41906
     1.32018      0.11374      5.63654      0.02336      3.42489
     1.32519      0.11572      5.66522      0.02349      3.43076
     1.33020      0.11776      5.69439      0.02362      3.43666
     1.33521      0.11987      5.72408      0.02376      3.44260
     1.34023      0.12205      5.75430      0.02389      3.44857
     1.34524      0.12430      5.78508      0.02403      3.45457
     1.35025      0.12662      5.81642      0.02416      3.46061
     1.35526      0.12902      5.84834      0.02430      3.46668
     1.36028      0.13150      5.88088      0.02444      3.47279
     1.36529      0.13406      5.91404      0.02458      3.47893
     1.37030      0.13671      5.94785      0.02473      3.48511
     1.37531      0.13946      5.98232      0.02487      3.49132
     1.38033      0.14231      6.01750      0.02502      3.49757
     1.38534      0.14526      6.05339      0.02516      3.50386
     1.39035      0.14831      6.09003      0.02531      3.51018
     1.39536      0.15149      6.12743      0.02546      3.51654
     1.40038      0.15478      6.16565      0.02562      3.52294
     1.40539      0.15820      6.20469      0.02577      3.52938
     1.41040      0.16175      6.24460      0.02592      3.53586
     1.41541      0.16544      6.28541      0.02608      3.54237
     1.42043      0.16929      6.32714      0.02624      3.54892
     1.42544      0.17329      6.36985      0.02640      3.55552
     1.43045      0.17746      6.41357      0.02656      3.56215
     1.43546      0.18180      6.45834      0.02672      3.56883
     1.44048      0.18633      6.50421      0.02689      3.57554
     1.44549      0.19106      6.55123      0.02705      3.58230
     1.45050      0.19600      6.59944      0.02722      3.58910
     1.45551      0.20117      6.64889      0.02739      3.59594
     1.46053      0.20657      6.69966      0.02756      3.60282
     1.46554      0.21223      6.75179      0.02774      3.60975
     1.47055      0.21816      6.80534      0.02791      3.61672
     1.47556      0.22438      6.86039      0.02809      3.62374
     1.48058      0.23091      6.91701      0.02827      3.63080
     1.48559      0.23776      6.97527      0.02845      3.63790
     1.49060      0.24497      7.03527      0.02864      3.64505
     1.49561      0.25256      7.09708      0.02882      3.65225
     1.50063      0.26056      7.16081      0.02901      3.65949
     1.50564      0.26899      7.22655      0.02920      3.66679
     1.51065      0.27790      7.29442      0.02939      3.67413
     1.51566      0.28731      7.36453      0.02959      3.68151
     1.52068      0.29727      7.43701      0.02978      3.68895
     1.52569      0.30783      7.51199      0.02998      3.69644
     1.53070      0.31902      7.58964      0.03018      3.70397
     1.53571      0.33091      7.67009      0.03039      3.71156
     1.54073      0.34356      7.75354      0.03059      3.71920
     1.54574      0.35703      7.84016      0.03080      3.72689
     1.55075      0.37140      7.93016      0.03101      3.73464
     1.55576      0.38675      8.02377      0.03123      3.74243
     1.56078      0.40318      8.12122      0.03144      3.75028
     1.56579      0.42078      8.22279      0.03166      3.75819
     1.57080      0.43968      8.32875      0.03188      3.76614
     1.57581      0.46001      8.43944      0.03211      3.77416
     1.58083      0.48191      8.55520      0.03234      3.78223
     1.58584      0.50557      8.67643      0.03257      3.79036
     1.59085      0.53116      8.80353      0.03280      3.79855
     1.59586      0.55891      8.93700      0.03303      3.80679
     1.60088      0.58908      9.07736      0.03327      3.81510
     1.60589      0.62195      9.22517      0.03351      3.82346
     1.61090      0.65786      9.38111      0.03376      3.83189
     1.61591      0.69721      9.54588      0.03401      3.84038
     1.62093      0.74043      9.72033      0.03426      3.84893
     1.62594      0.78806      9.90536      0.03451      3.85754
     1.63095      0.84073     10.10200      0.03477      3.86622
     1.63596      0.89918     10.31145      0.03503      3.87496
     1.64098      0.96427     10.53503      0.03530      3.88377
     1.64599      1.03705     10.77426      0.03556      3.89264
     1.65100      1.11879     11.03089      0.03584      3.90159
     1.65602      1.21100     11.30692      0.03611      3.91060
     1.66103      1.31555     11.60466      0.03639      3.91968
     1.66604      1.43473     11.92679      0.03668      3.92883
     1.67105      1.57136     12.27636      0.03696      3.93805
     1.67607      1.72899     12.65701      0.03725      3.94735
     1.68108      1.91210     13.07294      0.03755      3.95672
     1.68609      2.12638     13.52904      0.03785      3.96616
     1.69110      2.37920     14.03104      0.03815      3.97568
     1.69612      2.68015     14.58559      0.03846      3.98527
     1.70113      3.04190     15.20041      0.03877      3.99494
     1.70614      3.48143     15.88429      0.03909      4.00469
     1.71115      4.02177     16.64685      0.03941      4.01452
     1.71617      4.69463     17.49814      0.03974      4.02444
     1.72118      5.54422     18.44716      0.04007      4.03443
     1.72619      6.63299     19.49862      0.04041      4.04451
     1.73120      8.04961     20.64600      0.04075      4.05467
     1.73622      9.91996     21.85695      0.04109      4.06492
     1.74123     12.41766     23.04285      0.04145      4.07526
     1.74624     15.76410     23.99952      0.04180      4.08568
     1.75125     20.18007     24.30462      0.04217      4.09620
     1.75627     25.69938     23.19526      0.04253      4.10680
     1.76128     31.73381     19.61783      0.04291      4.11750
     1.76629     36.61333     12.90677      0.04329      4.12829
     1.77130     38.15781      4.03011      0.04367      4.13918
     1.77632     35.59731     -4.43149      0.04407      4.15017
     1.78133     30.31749    -10.32393      0.04447      4.16126
     1.78634     24.38760    -13.24598      0.04487      4.17244
     1.79135     19.13937    -13.98960      0.04528      4.18373
     1.79637     14.98440    -13.51805      0.04570      4.19512
     1.80138     11.84281    -12.50045      0.04613      4.20662
     1.80639      9.49572    -11.30333      0.04656      4.21823
     1.81140      7.73406    -10.10231      0.04700      4.22994
     1.81642      6.39610     -8.97245      0.04745      4.24177
     1.82143      5.36502     -7.93990      0.04791      4.25371
     1.82644      4.55837     -7.00846      0.04837      4.26576
     1.83145      3.91807     -6.17232      0.04884      4.27793
     1.83647      3.40284     -5.42225      0.04932      4.29022
     1.84148      2.98303     -4.74826      0.04981      4.30263
     1.84649      2.63705     -4.14089      0.05031      4.31517
     1.85150      2.34894     -3.59163      0.05082      4.32783
     1.85652      2.10673     -3.09296      0.05133      4.34062
     1.86153      1.90135     -2.63845      0.05186      4.35353
     1.86654      1.72585     -2.22256      0.05239      4.36658
     1.87155      1.57479     -1.84055      0.05294      4.37977
     1.87657      1.44394     -1.48834      0.05349      4.39309
     1.88158      1.32990     -1.16246      0.05406      4.40656
     1.88659      1.22998     -0.85988      0.05464      4.42016
     1.89160      1.14198     -0.57804      0.05523      4.43391
     1.89662      1.06413     -0.31467      0.05583      4.44781
     1.90163      0.99496     -0.06786      0.05644      4.46187
     1.90664      0.93326      0.16412      0.05706      4.47607
     1.91165      0.87803      0.38274      0.05770      4.49044
     1.91667      0.82842      0.58931      0.05835      4.50496
     1.92168      0.78372      0.78498      0.05901      4.51965
     1.92669      0.74335      0.97075      0.05969      4.53451
     1.93170      0.70677      1.14754      0.06038      4.54954
     1.93672      0.67355      1.31615      0.06109      4.56474
     1.94173      0.64333      1.47730      0.06181      4.58012
     1.94674      0.61576      1.63162      0.06255      4.59568
     1.95175      0.59058      1.77970      0.06330      4.61143
     1.95677      0.56754      1.92204      0.06407      4.62737
     1.96178      0.54643      2.05913      0.06486      4.64350
     1.96679      0.52705      2.19139      0.06566      4.65983
     1.97180      0.50925      2.31920      0.06648      4.67637
     1.97682      0.49288      2.44291      0.06733      4.69311
     1.98183      0.47781      2.56285      0.06819      4.71006
     1.98684      0.46393      2.67931      0.06907      4.72723
     1.99185      0.45114      2.79256      0.06997      4.74463
     1.99687      0.43935      2.90284      0.07090      4.76225
     2.00188      0.42848      3.01038      0.07184      4.78011
     2.00689      0.41845      3.11540      0.07281      4.79820
     2.01190      0.40921      3.21809      0.07381      4.81655
     2.01692      0.40070      3.31863      0.07482      4.83514
     2.02193      0.39287      3.41719      0.07587      4.85399
     2.02694      0.38566      3.51392      0.07694      4.87310
     2.03195      0.37904      3.60898      0.07804      4.89248
     2.03697      0.37297      3.70249      0.07916      4.91214
     2.04198      0.36742      3.79459      0.08032      4.93208
     2.04699      0.36235      3.88540      0.08151      4.95232
     2.05201      0.35774      3.97504      0.08273      4.97286
     2.05702      0.35356      4.06360      0.08398      4.99370
     2.06203      0.34978      4.15120      0.08527      5.01486
     2.06704      0.34640      4.23792      0.08660      5.03635
     2.07206      0.34338      4.32387      0.08796      5.05817
     2.07707      0.34072      4.40913      0.08936      5.08034
     2.08208      0.33840      4.49378      0.09081      5.10286
     2.08709      0.33639      4.57792      0.09229      5.12575
     2.09211      0.33470      4.66160      0.09382      5.14901
     2.09712      0.33331      4.74491      0.09540      5.17266
     2.10213      0.33221      4.82792      0.09702      5.19670
     2.10714      0.33139      4.91070      0.09870      5.22116
    2.112155     0.330846     4.993325     0.100422     5.246037
    2.117168     0.330566     5.075850     0.102205     5.271351
    2.122180     0.330547     5.158348     0.104045     5.297117
    2.127193     0.330783     5.240879     0.105945     5.323351
    2.132205     0.331271     5.323507     0.107909     5.350060
    2.137218     0.332006     5.406292     0.109938     5.377269
    2.142231     0.332987     5.489294     0.112037     5.404989
    2.147243     0.334210     5.572577     0.114208     5.433241
    2.152256     0.335674     5.656194     0.116456     5.462038
    2.157268     0.337378     5.740211     0.118784     5.491408
    2.162281     0.339324     5.824685     0.121196     5.521361
    2.167293     0.341510     5.909675     0.123696     5.551928
    2.172306     0.343938     5.995238     0.126289     5.583124
    2.177318     0.346611     6.081439     0.128981     5.614977
    2.182331     0.349529     6.168339     0.131776     5.647509
    2.187343     0.352697     6.256001     0.134679     5.680747
    2.192356     0.356118     6.344481     0.137698     5.714719
    2.197368     0.359797     6.433841     0.140838     5.749454
    2.202381     0.363738     6.524151     0.144106     5.784983
    2.207393     0.367947     6.615473     0.147510     5.821337
    2.212406     0.372430     6.707880     0.151058     5.858552
    2.217419     0.377194     6.801428     0.154758     5.896663
    2.222431     0.382248     6.896201     0.158619     5.935708
    2.227443     0.387600     6.992260     0.162652     5.975726
    2.232456     0.393259     7.089691     0.166867     6.016765
    2.237469     0.399236     7.188563     0.171276     6.058864
    2.242481     0.405543     7.288960     0.175891     6.102081
    2.247494     0.412190     7.390957     0.180725     6.146460
    2.252506     0.419191     7.494652     0.185794     6.192063
    2.257519     0.426562     7.600126     0.191114     6.238943
    2.262531     0.434317     7.707474     0.196701     6.287166
    2.267544     0.442474     7.816793     0.202575     6.336796
    2.272556     0.451049     7.928182     0.208756     6.387910
    2.277569     0.460064     8.041746     0.215267     6.440579
    2.282582     0.469539     8.157601     0.222133     6.494892
    2.287594     0.479497     8.275858     0.229379     6.550934
    2.292607     0.489963     8.396637     0.237037     6.608800
    2.297619     0.500963     8.520070     0.245138     6.668598
    2.302632     0.512526     8.646285     0.253717     6.730430
    2.307644     0.524684     8.775436     0.262816     6.794425
    2.312657     0.537470     8.907660     0.272476     6.860704
    2.317669     0.550921     9.043121     0.282747     6.929414
    2.322682     0.565075     9.181980     0.293682     7.000701
    2.327694     0.579978     9.324429     0.305341     7.074736
    2.332707     0.595674     9.470638     0.317790     7.151696
    2.337719     0.612214     9.620824     0.331104     7.231775
    2.342732     0.629654     9.775180     0.345366     7.315187
    2.347744     0.648053     9.933949     0.360670     7.402172
     2.35276      0.66748     10.09736      0.37712      7.49298
     2.35777      0.68800     10.26569      0.39484      7.58789
     2.36278      0.70969     10.43918      0.41396      7.68722
     2.36779      0.73264     10.61814      0.43463      7.79132
     2.37281      0.75695     10.80291      0.45703      7.90055
     2.37782      0.78271     10.99378      0.48136      8.01533
     2.38283      0.81004     11.19116      0.50785      8.13615
     2.38784      0.83906     11.39542      0.53677      8.26352
     2.39286      0.86991     11.60698      0.56842      8.39801
     2.39787      0.90275     11.82629      0.60316      8.54028
     2.40288      0.93774     12.05388      0.64140      8.69107
     2.40789      0.97507     12.29025      0.68363      8.85121
     2.41291      1.01494     12.53600      0.73044      9.02162
     2.41792      1.05760     12.79175      0.78251      9.20337
     2.42293      1.10329     13.05819      0.84064      9.39767
     2.42794      1.15232     13.33608      0.90583      9.60590
     2.43296      1.20501     13.62624      0.97925      9.82965
     2.43797      1.26173     13.92956      1.06234     10.07073
     2.44298      1.32289     14.24705      1.15687     10.33126
     2.44800      1.38898     14.57978      1.26502     10.61368
     2.45301      1.46052     14.92895      1.38948     10.92080
     2.45802      1.53815     15.29592      1.53370     11.25597
     2.46303      1.62256     15.68214      1.70199     11.62304
     2.46805      1.71457     16.08926      1.89992     12.02652
     2.47306      1.81510     16.51910      2.13471     12.47164
     2.47807      1.92525     16.97372      2.41587     12.96457
     2.48308      2.04629     17.45539      2.75604     13.51227
     2.48810      2.17969     17.96671      3.17227     14.12261
     2.49311      2.32720     18.51059      3.68793     14.80401
     2.49812      2.49088     19.09030      4.33540     15.56465
     2.50313      2.67317     19.70960      5.16024     16.41057
     2.50815      2.87700     20.37274      6.22710     17.34145
     2.51316      3.10591     21.08460      7.62802     18.34166
     2.51817      3.36416     21.85078      9.49242     19.36150
     2.52318      3.65698     22.67770     11.99391     20.27923
     2.52820      3.99079     23.57280     15.33515     20.82984
     2.53321      4.37359     24.54478     19.65723     20.49523
     2.53822      4.81537     25.60364     24.76329     18.42897
     2.54323      5.32877     26.76104     29.62465     13.72976
     2.54825      5.93000     28.03074     32.25760      6.47622
     2.55326      6.63998     29.42857     31.13265     -1.35335
     2.55827      7.48611     30.97299     26.94400     -7.24474
     2.56328      8.50469     32.68523     21.75219    -10.33479
     2.56830      9.74456     34.58916     17.04125    -11.27862
     2.57331     11.27227     36.71061     13.29449    -11.01787
     2.57832     13.17982     39.07543     10.46482    -10.20915
     2.58333     15.59599     41.70421      8.35675     -9.20939
     2.58835     18.70308     44.60144      6.77998     -8.18960
     2.59336     22.75971     47.73133      5.58669     -7.22364
     2.59837     28.12883     50.96769      4.67035     -6.33845
     2.60338     35.29873     53.99373      3.95585     -5.53919
     2.60840     44.84615     56.11376      3.39047     -4.82183
     2.61341     57.21097     55.96619      2.93688     -4.17877
     2.61842     72.01967     51.30907      2.56831     -3.60156
     2.62343     86.84800     39.57959      2.26530     -3.08202
     2.62845     96.58904     20.29783      2.01354     -2.61278
     2.63346     96.35313     -2.09042      1.80234     -2.18736
     2.63847     86.59650    -20.39909      1.62360     -1.80014
     2.64348     72.64980    -30.84880      1.47112     -1.44632
     2.64850     59.46713    -34.44223      1.34009     -1.12176
     2.65351     49.24917    -33.91307      1.22673     -0.82293
     2.65852     42.30626    -31.58213      1.12808     -0.54681
     2.66353     38.21280    -29.03479      1.04172     -0.29078
     2.66855     36.22918    -27.41320      0.96575     -0.05261
     2.67356     35.20097    -27.48182      0.89860      0.16963
     2.67857     33.61135    -29.16173      0.83897      0.37765
     2.68358     30.47219    -31.23796      0.78582      0.57289
     2.68860     26.14799    -32.33266      0.73827      0.75665
     2.69361     21.69841    -32.03671      0.69557      0.93005
     2.69862     17.83916    -30.73397      0.65711      1.09407
     2.70363     14.75706    -28.93512      0.62236      1.24960
     2.70865     12.36956    -26.98495      0.59088      1.39740
     2.71366     10.52819    -25.06229      0.56230      1.53816
     2.71867      9.09823    -23.24445      0.53627      1.67250
     2.72368      7.97621    -21.55704      0.51253      1.80097
     2.72870      7.08715    -20.00180      0.49083      1.92406
     2.73371      6.37755    -18.57081      0.47095      2.04221
     2.73872      5.80860    -17.25330      0.45272      2.15582
     2.74373      5.35051    -16.03764      0.43597      2.26525
     2.74875      4.98011    -14.91009      0.42055      2.37084
     2.75376      4.68288    -13.85461      0.40636      2.47288
     2.75877      4.45431    -12.85841      0.39326      2.57164
     2.76378      4.29457    -11.91696      0.38117      2.66738
     2.76880      4.20167    -11.03351      0.37001      2.76030
     2.77381      4.16531    -10.21467      0.35968      2.85065
    2.778822     4.164058    -9.459262     0.350132     2.938581
    2.783834     4.178887    -8.743866     0.341294     3.024295
    2.788847     4.219757    -8.033748     0.333113     3.107946
    2.793860     4.323399    -7.316162     0.325539     3.189690
    2.798872     4.523873    -6.608480     0.318528     3.269663
    2.803885     4.840314    -5.940022     0.312039     3.347996
    2.808897     5.289502    -5.344545     0.306037     3.424811
    2.813910     5.890675    -4.884150     0.300488     3.500223
    2.818923     6.620777    -4.674202     0.295363     3.574331
    2.823935     7.335365    -4.838614     0.290634     3.647238
    2.828947     7.759259    -5.359766     0.286278     3.719043
    2.833960     7.681968    -5.959274     0.282272     3.789828
    2.838973     7.195162    -6.274909     0.278597     3.859679
    2.843985     6.600494    -6.156334     0.275232     3.928667
    2.848997     6.148681    -5.679582     0.272163     3.996871
    2.854010     5.955871    -4.986116     0.269374     4.064369
    2.859023     6.062840    -4.191511     0.266851     4.131208
    2.864035     6.497948    -3.384438     0.264581     4.197470
    2.869048     7.303969    -2.662076     0.262553     4.263202
    2.874060     8.529246    -2.178673     0.260757     4.328476
     2.87907     10.16514     -2.19546      0.25918      4.39334
     2.88409     11.99597     -3.06968      0.25782      4.45784
     2.88910     13.43280     -5.02451      0.25667      4.52203
     2.89411     13.70441     -7.69773      0.25571      4.58598
     2.89912     12.57930    -10.13645      0.25495      4.64971
     2.90414     10.64234    -11.61452      0.25437      4.71329
     2.90915      8.63293    -12.11079      0.25398      4.77675
     2.91416      6.93290    -11.96490      0.25376      4.84014
     2.91917      5.61380    -11.49500      0.25372      4.90349
     2.92419      4.62061    -10.89579      0.25384      4.96687
     2.92920      3.87537    -10.26653      0.25414      5.03030
    2.934211     3.311356    -9.652329     0.254594     5.093837
    2.939223     2.878792    -9.071098     0.255215     5.157498
    2.944236     2.542247    -8.527870     0.255997     5.221343
    2.949248     2.276807    -8.021946     0.256939     5.285401
    2.954261     2.064908    -7.550266     0.258040     5.349722
    2.959273     1.894068    -7.108982     0.259300     5.414340
    2.964286     1.755318    -6.694182     0.260719     5.479291
    2.969298     1.642143    -6.302197     0.262297     5.544618
    2.974311     1.549780    -5.929661     0.264034     5.610357
    2.979324     1.474729    -5.573536     0.265933     5.676548
    2.984336     1.414436    -5.231138     0.267994     5.743230
    2.989348     1.367050    -4.899905     0.270219     5.810452
    2.994361     1.331308    -4.577585     0.272611     5.878252
    2.999373     1.306418    -4.262028     0.275172     5.946666
    3.004386     1.292009    -3.951179     0.277906     6.015740
    3.009398     1.288123    -3.643016     0.280814     6.085511
    3.014411     1.295219    -3.335528     0.283903     6.156031
    3.019423     1.314234    -3.026639     0.287175     6.227346
    3.024436     1.346681    -2.714195     0.290635     6.299493
    3.029449     1.394800    -2.395922     0.294289     6.372526
    3.034461     1.461810    -2.069401     0.298143     6.446494
    3.039474     1.552263    -1.732113     0.302202     6.521442
    3.044486     1.672597    -1.381571     0.306473     6.597424
    3.049499     1.831951    -1.015630     0.310964     6.674494
    3.054511     2.043345    -0.633268     0.315682     6.752707
    3.059524     2.325466    -0.236044     0.320637     6.832117
    3.064536     2.704762     0.168302     0.325836     6.912789
    3.069549     3.217517     0.559083     0.331291     6.994786
    3.074561     3.908830     0.889195     0.337013     7.078159
    3.079574     4.819525     1.062590     0.343011     7.162992
    3.084586     5.940020     0.910342     0.349301     7.249352
    3.089599     7.109615     0.215219     0.355893     7.337301
    3.094612     7.932339    -1.110311     0.362804     7.426916
    3.099624     7.971056    -2.752295     0.370050     7.518291
    3.104637     7.206789    -4.112310     0.377645     7.611501
    3.109649     6.062738    -4.845294     0.385611     7.706635
    3.114662     4.949603    -5.018446     0.393965     7.803784
    3.119674     4.043859    -4.847772     0.402729     7.903049
    3.124687     3.362639    -4.507115     0.411927     8.004531
    3.129699     2.867695    -4.096450     0.421583     8.108330
    3.134712     2.514906    -3.664694     0.431725     8.214582
    3.139724     2.269207    -3.233047     0.442382     8.323394
    3.144737     2.106042    -2.808899     0.453586     8.434907
    3.149749     2.009737    -2.393174     0.465371     8.549257
    3.154762     1.971702    -1.984033     0.477776     8.666574
    3.159774     1.989276    -1.578897     0.490842     8.787029
    3.164787     2.065339    -1.175922     0.504613     8.910781
    3.169800     2.208597    -0.775914     0.519139     9.038010
    3.174812     2.434110    -0.385556     0.534475     9.168908
     3.17982      2.76279     -0.02356      0.55068      9.30367
    3.184837     3.215811     0.268970     0.567814     9.442505
    3.189850     3.794662     0.417176     0.585955     9.585681
    3.194862     4.436942     0.321310     0.605180     9.733403
     3.19987      4.97731     -0.06814      0.62558      9.88597
     3.20489      5.22616     -0.63072      0.64724     10.04366
     3.20990      5.17144     -1.11746      0.67028     10.20681
     3.21491      5.00679     -1.39218      0.69482     10.37575
     3.21992      4.91992     -1.53620      0.72099     10.55084
     3.22494      4.93361     -1.72952      0.74894     10.73250
     3.22995      4.90059     -2.07932      0.77884     10.92116
     3.23496      4.64240     -2.49802      0.81088     11.11730
     3.23997      4.14873     -2.77900      0.84528     11.32145
     3.24499      3.57151     -2.81274      0.88228     11.53419
     3.25000      3.05158     -2.63589      0.92216     11.75615
# 
# 10/20/2018 at 15:00 YAMBO @ narro [start]
# 10/20/2018 at 15:00               [end]
#  
# Timing   [Min/Max/Average]: 03s/03s/03s
#
# .-Input file : yambo.in
# | optics                         # [R OPT] Optics
# | bse                            # [R BSE] Bethe Salpeter Equation.
# | bsk                            # [R BSK] Bethe Salpeter Equation kernel
# | bss                            # [R BSS] Bethe Salpeter Equation solver
# | em1s                           # [R Xs] Static Inverse Dielectric Matrix
# | BoseTemp= 0.000000     eV      # Bosonic Temperature
# | FFTGvecs=  3281        RL      # [FFT] Plane-waves
# | X_Threads= 1                   # [OPENMP/X] Number of threads for response functions
# | DIP_Threads= 1                 # [OPENMP/X] Number of threads for dipoles
# | K_Threads= 1                   # [OPENMP/BSK] Number of threads for response functions
# | Chimod= "HARTREE"              # [X] IP/Hartree/ALDA/LRC/PF/BSfxc
# | BSEmod= "resonant"             # [BSE] resonant/retarded/coupling
# | BSKmod= "SEX"                  # [BSE] IP/Hartree/HF/ALDA/SEX/BSfxc
# | BSSmod= "d"                    # [BSS] (h)aydock/(d)iagonalization/(i)nversion/(t)ddft`
# | BSENGexx=  4           Ry      # [BSK] Exchange components
# | BSENGBlk= 1            Ry      # [BSK] Screened interaction block size
# | #WehCpl                        # [BSK] eh interaction included also in coupling
# | % KfnQP_E
# |  0.700000 | 1.000000 | 1.000000 |        # [EXTQP BSK BSS] E parameters  (c/v) eV|adim|adim
# | %
# | % BEnRange
# |  1.250000 | 3.250000 | eV      # [BSS] Energy range
# | %
# | % BDmRange
# |   0.02000 |  0.02000 | eV      # [BSS] Damping range
# | %
# | BEnSteps=  400                 # [BSS] Energy steps
# | % BLongDir
# | 0.1000E-4 | 0.000    | 0.000    |        # [BSS] [cc] Electric Field
# | %
# | % BSEBands
# |  11 | 15 |                     # [BSK] Bands range
# | %
# | % BndsRnXs
# |   6 | 15 |                     # [Xs] Polarization function bands
# | %
# | NGsBlkXs= 1            Ry      # [Xs] Response block size
# | % DmRngeXs
# | 0.1000E-2 |0.1000E-2 | eV      # [Xs] Damping range
# | %
# | % LongDrXs
# | 0.1000E-4 | 0.000    | 0.000    |        # [Xs] [cc] Electric Field
# | %
