#                                                           
#  ____  ____     _       ____    ____  ______      ___     
# |_  _||_  _|   / \     |_   \  /   _||_   _ \   ."   `.   
#   \ \  / /    / _ \      |   \/   |    | |_) | /  .-.  \  
#    \ \/ /    / ___ \     | |\  /| |    |  __". | |   | |  
#    _|  |_  _/ /   \ \_  _| |_\/_| |_  _| |__) |\  `-"  /  
#   |______||____| |____||_____||_____||_______/  `.___."   
#                                                           
#                                                           
#                                                           
#        Version 4.3.0 Revision 15338 Hash 3cdf17c          
#                      MPI+SLK Build                        
#                http://www.yambo-code.org                  
#
# EELS @ Q(1)  [q->0 direction]:0.1000E-4  0.000     0.000   
#
#
# - Energies      are Teter 93(XC)
# - Wavefunctions are Teter 93(XC)
#
# - The Green`s function is Resonant -
# - Using the Length Gauge -
# - [r,Vnl] *is* included -
#
#   BSK|Identifier              :3382
#      |Dimension               :96
#      |Bands                   :3 - 10
#      |Exchange           [res]: yes
#      |Correlation        [res]: no
#      |Kernel`s coupling       : no
#      |Exchange           [cpl]: no
#      |Correlation        [cpl]: no
#      |W interaction is bare   : no
#      |ALDA kernel in R-space  : no
#      |RL vectors    [exchange]:63
#      |E/h energy range    [ev]:-1.000000 - -1.000000
#      |Coupling range     [o/o]: 100.0000 -  100.0000
#
#    E/ev[1]      EEL-Im[2]    EEL-Re[3]    EELo-Im[4]   EELo-Re[5]
#
   -10.00       -.3232E-3    0.3848       -.3431E-3    0.4041   
    -9.99000     -0.01660      0.38216     -0.01762      0.40140
    -9.98000     -0.01749      0.38767     -0.01857      0.40719
    -9.97000     -0.01773      0.38864     -0.01883      0.40827
    -9.96000     -0.01788      0.38861     -0.01898      0.40821
    -9.95000     -0.01797      0.38811     -0.01908      0.40771
    -9.94000     -0.01805      0.38729     -0.01916      0.40684
    -9.93000     -0.01810      0.38633     -0.01922      0.40581
    -9.92000     -0.01814      0.38517     -0.01926      0.40462
    -9.91000     -0.01818      0.38400     -0.01930      0.40334
    -9.90000     -0.01821      0.38265     -0.01933      0.40196
    -9.89000     -0.01824      0.38134     -0.01935      0.40050
    -9.88000     -0.01826      0.37989     -0.01937      0.39901
    -9.87000     -0.01828      0.37849     -0.01939      0.39748
    -9.86000     -0.01829      0.37695     -0.01940      0.39589
    -9.85000     -0.01831      0.37546     -0.01941      0.39428
    -9.84000     -0.01832      0.37389     -0.01942      0.39264
    -9.83000     -0.01834      0.37233     -0.01944      0.39100
    -9.82000     -0.01835      0.37071     -0.01943      0.38921
    -9.81000     -0.01836      0.36916     -0.01945      0.38761
    -9.80000     -0.01837      0.36747     -0.01945      0.38579
    -9.79000     -0.01839      0.36589     -0.01947      0.38418
    -9.78000     -0.01840      0.36419     -0.01947      0.38231
    -9.77000     -0.01842      0.36258     -0.01949      0.38068
    -9.76000     -0.01843      0.36086     -0.01949      0.37877
    -9.75000     -0.01845      0.35923     -0.01952      0.37712
    -9.74000     -0.01847      0.35750     -0.01951      0.37519
    -9.73000     -0.01849      0.35584     -0.01954      0.37352
    -9.72000     -0.01850      0.35408     -0.01954      0.37158
    -9.71000     -0.01853      0.35242     -0.01957      0.36987
    -9.70000     -0.01855      0.35061     -0.01958      0.36796
    -9.69000     -0.01858      0.34896     -0.01960      0.36620
    -9.68000     -0.01860      0.34711     -0.01962      0.36430
    -9.67000     -0.01864      0.34546     -0.01964      0.36251
    -9.66000     -0.01866      0.34360     -0.01966      0.36060
    -9.65000     -0.01871      0.34192     -0.01970      0.35880
    -9.64000     -0.01874      0.34005     -0.01972      0.35687
    -9.63000     -0.01879      0.33837     -0.01975      0.35505
    -9.62000     -0.01882      0.33650     -0.01978      0.35312
    -9.61000     -0.01888      0.33477     -0.01982      0.35127
    -9.60000     -0.01892      0.33291     -0.01986      0.34933
    -9.59000     -0.01898      0.33116     -0.01990      0.34746
    -9.58000     -0.01904      0.32930     -0.01994      0.34553
    -9.57000     -0.01911      0.32752     -0.01999      0.34363
    -9.56000     -0.01917      0.32564     -0.02004      0.34168
    -9.55000     -0.01925      0.32383     -0.02010      0.33976
    -9.54000     -0.01932      0.32196     -0.02016      0.33780
    -9.53000     -0.01941      0.32011     -0.02022      0.33588
    -9.52000     -0.01949      0.31822     -0.02029      0.33390
    -9.51000     -0.01959      0.31636     -0.02036      0.33197
    -9.50000     -0.01969      0.31446     -0.02044      0.32996
    -9.49000     -0.01980      0.31255     -0.02052      0.32803
    -9.48000     -0.01991      0.31065     -0.02061      0.32600
    -9.47000     -0.02003      0.30872     -0.02071      0.32404
    -9.46000     -0.02017      0.30679     -0.02080      0.32202
    -9.45000     -0.02031      0.30487     -0.02092      0.32007
    -9.44000     -0.02046      0.30287     -0.02103      0.31798
    -9.43000     -0.02062      0.30093     -0.02115      0.31598
    -9.42000     -0.02079      0.29893     -0.02128      0.31390
    -9.41000     -0.02098      0.29695     -0.02141      0.31184
    -9.40000     -0.02117      0.29489     -0.02156      0.30975
    -9.39000     -0.02139      0.29288     -0.02171      0.30766
    -9.38000     -0.02161      0.29078     -0.02188      0.30556
    -9.37000     -0.02185      0.28873     -0.02205      0.30344
    -9.36000     -0.02210      0.28660     -0.02224      0.30130
    -9.35000     -0.02238      0.28449     -0.02244      0.29915
    -9.34000     -0.02267      0.28232     -0.02265      0.29697
    -9.33000     -0.02299      0.28016     -0.02287      0.29479
    -9.32000     -0.02333      0.27795     -0.02311      0.29256
    -9.31000     -0.02370      0.27572     -0.02337      0.29033
    -9.30000     -0.02409      0.27347     -0.02364      0.28805
    -9.29000     -0.02451      0.27117     -0.02393      0.28580
    -9.28000     -0.02497      0.26885     -0.02423      0.28345
    -9.27000     -0.02546      0.26648     -0.02457      0.28116
    -9.26000     -0.02599      0.26410     -0.02492      0.27875
    -9.25000     -0.02656      0.26166     -0.02530      0.27641
    -9.24000     -0.02718      0.25917     -0.02570      0.27394
    -9.23000     -0.02786      0.25665     -0.02613      0.27151
    -9.22000     -0.02859      0.25407     -0.02659      0.26898
    -9.21000     -0.02939      0.25146     -0.02709      0.26647
    -9.20000     -0.03025      0.24876     -0.02762      0.26387
    -9.19000     -0.03119      0.24605     -0.02819      0.26126
    -9.18000     -0.03222      0.24322     -0.02880      0.25858
    -9.17000     -0.03335      0.24039     -0.02947      0.25587
    -9.16000     -0.03458      0.23743     -0.03018      0.25310
    -9.15000     -0.03595      0.23446     -0.03095      0.25027
    -9.14000     -0.03744      0.23137     -0.03179      0.24741
    -9.13000     -0.03910      0.22825     -0.03269      0.24447
    -9.12000     -0.04091      0.22501     -0.03367      0.24147
    -9.11000     -0.04294      0.22174     -0.03473      0.23840
    -9.10000     -0.04519      0.21836     -0.03588      0.23524
    -9.09000     -0.04770      0.21495     -0.03715      0.23204
    -9.08000     -0.05049      0.21145     -0.03852      0.22872
    -9.07000     -0.05362      0.20791     -0.04003      0.22535
    -9.06000     -0.05712      0.20432     -0.04167      0.22186
    -9.05000     -0.06105      0.20073     -0.04349      0.21832
    -9.04000     -0.06548      0.19716     -0.04547      0.21464
    -9.03000     -0.07046      0.19366     -0.04768      0.21091
    -9.02000     -0.07607      0.19030     -0.05010      0.20703
    -9.01000     -0.08239      0.18717     -0.05281      0.20309
    -9.00000     -0.08948      0.18437     -0.05579      0.19902
    -8.99000     -0.09741      0.18208     -0.05912      0.19489
    -8.98000     -0.10622      0.18049     -0.06283      0.19066
    -8.97000     -0.11594      0.17987     -0.06699      0.18636
    -8.96000     -0.12649      0.18050     -0.07164      0.18202
    -8.95000     -0.13777      0.18278     -0.07687      0.17766
    -8.94000     -0.14947      0.18705     -0.08275      0.17332
    -8.93000     -0.16123      0.19368     -0.08936      0.16908
    -8.92000     -0.17239      0.20290     -0.09679      0.16502
   -8.910000    -0.182265     0.214763    -0.105159     0.161250
   -8.900000    -0.189942     0.229007    -0.114528     0.157934
   -8.889999    -0.194753     0.245066    -0.125014     0.155292
   -8.880000    -0.196059     0.262034    -0.136642     0.153589
   -8.870000    -0.193787     0.278875    -0.149479     0.153177
   -8.860000    -0.188124     0.294540    -0.163409     0.154465
   -8.849999    -0.179748     0.308242    -0.178333     0.157916
   -8.840000    -0.169375     0.319448    -0.193824     0.164025
   -8.830000    -0.157896     0.328031    -0.209399     0.173230
   -8.820000    -0.145985     0.334056    -0.224165     0.185858
   -8.809999    -0.134259     0.337854    -0.237217     0.201941
   -8.800000    -0.123046     0.339725    -0.247339     0.221168
   -8.790000    -0.112626     0.340099    -0.253630     0.242745
   -8.780000    -0.103068     0.339263    -0.255277     0.265504
    -8.77000     -0.09444      0.33757     -0.25223      0.28806
    -8.76000     -0.08668      0.33521     -0.24467      0.30904
    -8.75000     -0.07976      0.33241     -0.23360      0.32741
    -8.74000     -0.07359      0.32929     -0.21984      0.34245
    -8.73000     -0.06810      0.32598     -0.20475      0.35408
    -8.72000     -0.06322      0.32256     -0.18901      0.36228
    -8.71000     -0.05888      0.31909     -0.17361      0.36760
    -8.70000     -0.05500      0.31561     -0.15882      0.37033
    -8.69000     -0.05154      0.31216     -0.14515      0.37114
    -8.68000     -0.04844      0.30873     -0.13257      0.37031
    -8.67000     -0.04568      0.30542     -0.12128      0.36841
    -8.66000     -0.04317      0.30211     -0.11108      0.36556
    -8.65000     -0.04094      0.29896     -0.10204      0.36222
    -8.64000     -0.03890      0.29580     -0.09396      0.35839
    -8.63000     -0.03708      0.29283     -0.08682      0.35438
    -8.62000     -0.03540      0.28982     -0.08046      0.35016
    -8.61000     -0.03390      0.28700     -0.07483      0.34592
    -8.60000     -0.03252      0.28416     -0.06982      0.34164
    -8.59000     -0.03127      0.28149     -0.06538      0.33744
    -8.58000     -0.03012      0.27881     -0.06141      0.33326
    -8.57000     -0.02908      0.27626     -0.05789      0.32920
    -8.56000     -0.02812      0.27374     -0.05475      0.32523
    -8.55000     -0.02725      0.27132     -0.05195      0.32138
    -8.54000     -0.02644      0.26894     -0.04945      0.31764
    -8.53000     -0.02570      0.26663     -0.04723      0.31405
    -8.52000     -0.02502      0.26438     -0.04524      0.31058
    -8.51000     -0.02440      0.26220     -0.04345      0.30728
    -8.50000     -0.02382      0.26007     -0.04184      0.30409
    -8.49000     -0.02327      0.25801     -0.04038      0.30107
    -8.48000     -0.02276      0.25599     -0.03902      0.29817
    -8.47000     -0.02227      0.25403     -0.03776      0.29545
    -8.46000     -0.02179      0.25211     -0.03654      0.29279
    -8.45000     -0.02133      0.25024     -0.03537      0.29027
    -8.44000     -0.02088      0.24839     -0.03421      0.28780
    -8.43000     -0.02044      0.24659     -0.03307      0.28541
    -8.42000     -0.02001      0.24479     -0.03195      0.28302
    -8.41000     -0.01959      0.24301     -0.03087      0.28067
    -8.40000     -0.01919      0.24125     -0.02982      0.27833
    -8.39000     -0.01881      0.23952     -0.02882      0.27601
    -8.38000     -0.01845      0.23779     -0.02787      0.27370
    -8.37000     -0.01810      0.23609     -0.02698      0.27140
    -8.36000     -0.01777      0.23440     -0.02615      0.26913
    -8.35000     -0.01747      0.23274     -0.02537      0.26689
    -8.34000     -0.01717      0.23108     -0.02464      0.26468
    -8.33000     -0.01690      0.22946     -0.02397      0.26249
    -8.32000     -0.01663      0.22784     -0.02334      0.26034
    -8.31000     -0.01639      0.22626     -0.02275      0.25822
    -8.30000     -0.01615      0.22469     -0.02220      0.25614
    -8.29000     -0.01592      0.22314     -0.02168      0.25409
    -8.28000     -0.01571      0.22159     -0.02120      0.25207
    -8.27000     -0.01551      0.22008     -0.02075      0.25009
    -8.26000     -0.01531      0.21857     -0.02033      0.24815
    -8.25000     -0.01512      0.21708     -0.01992      0.24624
    -8.24000     -0.01495      0.21561     -0.01955      0.24435
    -8.23000     -0.01477      0.21415     -0.01919      0.24250
    -8.22000     -0.01461      0.21272     -0.01885      0.24067
    -8.21000     -0.01445      0.21129     -0.01853      0.23888
    -8.20000     -0.01430      0.20988     -0.01822      0.23710
    -8.19000     -0.01415      0.20848     -0.01793      0.23536
    -8.18000     -0.01401      0.20709     -0.01766      0.23363
    -8.17000     -0.01388      0.20572     -0.01739      0.23193
    -8.16000     -0.01375      0.20436     -0.01714      0.23024
    -8.15000     -0.01362      0.20302     -0.01690      0.22859
    -8.14000     -0.01350      0.20168     -0.01667      0.22695
    -8.13000     -0.01338      0.20036     -0.01645      0.22534
    -8.12000     -0.01326      0.19903     -0.01624      0.22373
    -8.11000     -0.01315      0.19774     -0.01604      0.22217
    -8.10000     -0.01304      0.19644     -0.01584      0.22060
    -8.09000     -0.01294      0.19516     -0.01565      0.21906
    -8.08000     -0.01284      0.19388     -0.01547      0.21753
    -8.07000     -0.01274      0.19262     -0.01530      0.21603
    -8.06000     -0.01264      0.19136     -0.01513      0.21452
    -8.05000     -0.01255      0.19012     -0.01497      0.21306
    -8.04000     -0.01246      0.18888     -0.01481      0.21158
    -8.03000     -0.01237      0.18765     -0.01466      0.21014
    -8.02000     -0.01228      0.18643     -0.01452      0.20869
    -8.01000     -0.01220      0.18522     -0.01438      0.20727
    -8.00000     -0.01212      0.18401     -0.01424      0.20585
    -7.99000     -0.01204      0.18282     -0.01411      0.20446
    -7.98000     -0.01196      0.18162     -0.01398      0.20307
    -7.97000     -0.01188      0.18045     -0.01385      0.20169
    -7.96000     -0.01181      0.17926     -0.01373      0.20033
    -7.95000     -0.01173      0.17810     -0.01361      0.19898
    -7.94000     -0.01166      0.17694     -0.01350      0.19763
    -7.93000     -0.01159      0.17579     -0.01339      0.19631
    -7.92000     -0.01152      0.17464     -0.01328      0.19498
    -7.91000     -0.01145      0.17350     -0.01318      0.19369
    -7.90000     -0.01139      0.17236     -0.01307      0.19238
    -7.89000     -0.01132      0.17124     -0.01297      0.19110
    -7.88000     -0.01126      0.17012     -0.01287      0.18980
    -7.87000     -0.01120      0.16900     -0.01278      0.18855
    -7.86000     -0.01114      0.16789     -0.01269      0.18727
    -7.85000     -0.01108      0.16679     -0.01260      0.18603
    -7.84000     -0.01102      0.16569     -0.01251      0.18477
    -7.83000     -0.01096      0.16460     -0.01242      0.18354
    -7.82000     -0.01090      0.16350     -0.01234      0.18231
    -7.81000     -0.01085      0.16243     -0.01226      0.18109
    -7.80000     -0.01079      0.16134     -0.01218      0.17988
    -7.79000     -0.01074      0.16028     -0.01210      0.17868
    -7.78000     -0.01068      0.15921     -0.01202      0.17748
    -7.77000     -0.01063      0.15815     -0.01194      0.17629
    -7.76000     -0.01058      0.15709     -0.01187      0.17511
    -7.75000     -0.01053      0.15604     -0.01180      0.17394
    -7.74000     -0.01048      0.15500     -0.01173      0.17277
    -7.73000     -0.01043      0.15396     -0.01166      0.17161
    -7.72000     -0.01038      0.15293     -0.01159      0.17046
    -7.71000     -0.01033      0.15189     -0.01152      0.16931
    -7.70000     -0.01028      0.15087     -0.01146      0.16817
    -7.69000     -0.01024      0.14985     -0.01139      0.16703
    -7.68000     -0.01019      0.14883     -0.01133      0.16590
    -7.67000     -0.01015      0.14782     -0.01127      0.16477
    -7.66000     -0.01010      0.14681     -0.01120      0.16365
    -7.65000     -0.01006      0.14581     -0.01114      0.16254
    -7.64000     -0.01001      0.14481     -0.01108      0.16143
     -7.6300      -0.0100       0.1438      -0.0110       0.1603
     -7.6200      -0.0099       0.1428      -0.0110       0.1592
     -7.6100      -0.0099       0.1418      -0.0109       0.1581
     -7.6000      -0.0098       0.1409      -0.0109       0.1571
     -7.5900      -0.0098       0.1399      -0.0108       0.1560
     -7.5800      -0.0098       0.1389      -0.0107       0.1549
     -7.5700      -0.0097       0.1379      -0.0107       0.1539
     -7.5600      -0.0097       0.1370      -0.0106       0.1528
     -7.5500      -0.0096       0.1360      -0.0106       0.1517
     -7.5400      -0.0096       0.1350      -0.0105       0.1507
     -7.5300      -0.0096       0.1341      -0.0105       0.1496
     -7.5200      -0.0095       0.1331      -0.0104       0.1486
     -7.5100      -0.0095       0.1322      -0.0104       0.1476
     -7.5000      -0.0095       0.1312      -0.0103       0.1465
     -7.4900      -0.0094       0.1303      -0.0103       0.1455
     -7.4800      -0.0094       0.1294      -0.0103       0.1445
     -7.4700      -0.0094       0.1284      -0.0102       0.1434
     -7.4600      -0.0093       0.1275      -0.0102       0.1424
     -7.4500      -0.0093       0.1266      -0.0101       0.1414
     -7.4400      -0.0092       0.1256      -0.0101       0.1404
     -7.4300      -0.0092       0.1247      -0.0100       0.1394
     -7.4200      -0.0092       0.1238      -0.0100       0.1384
     -7.4100      -0.0091       0.1229      -0.0099       0.1374
     -7.4000      -0.0091       0.1220      -0.0099       0.1364
     -7.3900      -0.0091       0.1211      -0.0099       0.1355
     -7.3800      -0.0090       0.1202      -0.0098       0.1345
     -7.3700      -0.0090       0.1193      -0.0098       0.1335
     -7.3600      -0.0090       0.1184      -0.0097       0.1325
     -7.3500      -0.0089       0.1175      -0.0097       0.1316
     -7.3400      -0.0089       0.1166      -0.0097       0.1306
     -7.3300      -0.0089       0.1157      -0.0096       0.1296
     -7.3200      -0.0089       0.1148      -0.0096       0.1287
     -7.3100      -0.0088       0.1139      -0.0095       0.1277
     -7.3000      -0.0088       0.1131      -0.0095       0.1268
     -7.2900      -0.0088       0.1122      -0.0095       0.1258
     -7.2800      -0.0087       0.1113      -0.0094       0.1249
     -7.2700      -0.0087       0.1104      -0.0094       0.1239
     -7.2600      -0.0087       0.1096      -0.0094       0.1230
     -7.2500      -0.0086       0.1087      -0.0093       0.1221
     -7.2400      -0.0086       0.1079      -0.0093       0.1212
     -7.2300      -0.0086       0.1070      -0.0093       0.1202
     -7.2200      -0.0086       0.1061      -0.0092       0.1193
     -7.2100      -0.0085       0.1053      -0.0092       0.1184
     -7.2000      -0.0085       0.1044      -0.0092       0.1175
     -7.1900      -0.0085       0.1036      -0.0091       0.1166
     -7.1800      -0.0085       0.1027      -0.0091       0.1157
     -7.1700      -0.0084       0.1019      -0.0091       0.1147
     -7.1600      -0.0084       0.1011      -0.0090       0.1138
     -7.1500      -0.0084       0.1002      -0.0090       0.1129
     -7.1400      -0.0083       0.0994      -0.0090       0.1120
     -7.1300      -0.0083       0.0986      -0.0089       0.1112
     -7.1200      -0.0083       0.0977      -0.0089       0.1103
     -7.1100      -0.0083       0.0969      -0.0089       0.1094
     -7.1000      -0.0082       0.0961      -0.0088       0.1085
     -7.0900      -0.0082       0.0953      -0.0088       0.1076
     -7.0800      -0.0082       0.0944      -0.0088       0.1067
     -7.0700      -0.0082       0.0936      -0.0088       0.1059
     -7.0600      -0.0081       0.0928      -0.0087       0.1050
     -7.0500      -0.0081       0.0920      -0.0087       0.1041
     -7.0400      -0.0081       0.0912      -0.0087       0.1033
     -7.0300      -0.0081       0.0904      -0.0086       0.1024
     -7.0200      -0.0080       0.0896      -0.0086       0.1015
     -7.0100      -0.0080       0.0888      -0.0086       0.1007
     -7.0000      -0.0080       0.0880      -0.0086       0.0998
     -6.9900      -0.0080       0.0872      -0.0085       0.0990
     -6.9800      -0.0080       0.0864      -0.0085       0.0981
     -6.9700      -0.0079       0.0856      -0.0085       0.0973
     -6.9600      -0.0079       0.0848      -0.0085       0.0964
     -6.9500      -0.0079       0.0840      -0.0084       0.0956
     -6.9400      -0.0079       0.0832      -0.0084       0.0947
     -6.9300      -0.0078       0.0825      -0.0084       0.0939
     -6.9200      -0.0078       0.0817      -0.0084       0.0931
     -6.9100      -0.0078       0.0809      -0.0083       0.0922
     -6.9000      -0.0078       0.0801      -0.0083       0.0914
     -6.8900      -0.0078       0.0793      -0.0083       0.0906
     -6.8800      -0.0077       0.0786      -0.0083       0.0897
     -6.8700      -0.0077       0.0778      -0.0082       0.0889
     -6.8600      -0.0077       0.0770      -0.0082       0.0881
     -6.8500      -0.0077       0.0763      -0.0082       0.0873
     -6.8400      -0.0077       0.0755      -0.0082       0.0865
     -6.8300      -0.0076       0.0747      -0.0082       0.0857
     -6.8200      -0.0076       0.0740      -0.0081       0.0848
     -6.8100      -0.0076       0.0732      -0.0081       0.0840
     -6.8000      -0.0076       0.0725      -0.0081       0.0832
     -6.7900      -0.0076       0.0717      -0.0081       0.0824
     -6.7800      -0.0075       0.0709      -0.0081       0.0816
     -6.7700      -0.0075       0.0702      -0.0080       0.0808
     -6.7600      -0.0075       0.0694      -0.0080       0.0800
     -6.7500      -0.0075       0.0687      -0.0080       0.0792
     -6.7400      -0.0075       0.0680      -0.0080       0.0784
     -6.7300      -0.0074       0.0672      -0.0080       0.0776
     -6.7200      -0.0074       0.0665      -0.0079       0.0768
     -6.7100      -0.0074       0.0657      -0.0079       0.0760
     -6.7000      -0.0074       0.0650      -0.0079       0.0752
     -6.6900      -0.0074       0.0643      -0.0079       0.0745
     -6.6800      -0.0074       0.0635      -0.0079       0.0737
     -6.6700      -0.0073       0.0628      -0.0079       0.0729
     -6.6600      -0.0073       0.0621      -0.0079       0.0721
     -6.6500      -0.0073       0.0613      -0.0078       0.0713
     -6.6400      -0.0073       0.0606      -0.0078       0.0705
     -6.6300      -0.0073       0.0599      -0.0078       0.0698
     -6.6200      -0.0073       0.0591      -0.0078       0.0690
     -6.6100      -0.0073       0.0584      -0.0078       0.0682
     -6.6000      -0.0072       0.0577      -0.0078       0.0674
     -6.5900      -0.0072       0.0570      -0.0078       0.0667
     -6.5800      -0.0072       0.0562      -0.0078       0.0659
     -6.5700      -0.0072       0.0555      -0.0078       0.0651
     -6.5600      -0.0072       0.0548      -0.0077       0.0643
     -6.5500      -0.0072       0.0541      -0.0077       0.0636
     -6.5400      -0.0072       0.0534      -0.0077       0.0628
     -6.5300      -0.0072       0.0527      -0.0077       0.0620
     -6.5200      -0.0072       0.0519      -0.0077       0.0613
     -6.5100      -0.0071       0.0512      -0.0077       0.0605
     -6.5000      -0.0071       0.0505      -0.0077       0.0597
     -6.4900      -0.0071       0.0498      -0.0077       0.0590
     -6.4800      -0.0071       0.0491      -0.0077       0.0582
     -6.4700      -0.0071       0.0484      -0.0077       0.0574
     -6.4600      -0.0071       0.0477      -0.0077       0.0567
     -6.4500      -0.0071       0.0470      -0.0078       0.0559
     -6.4400      -0.0071       0.0463      -0.0078       0.0551
     -6.4300      -0.0071       0.0456      -0.0078       0.0544
     -6.4200      -0.0071       0.0449      -0.0078       0.0536
     -6.4100      -0.0071       0.0442      -0.0078       0.0528
     -6.4000      -0.0071       0.0435      -0.0078       0.0521
     -6.3900      -0.0071       0.0428      -0.0079       0.0513
     -6.3800      -0.0071       0.0420      -0.0079       0.0505
     -6.3700      -0.0071       0.0413      -0.0079       0.0498
     -6.3600      -0.0071       0.0406      -0.0080       0.0490
     -6.3500      -0.0071       0.0399      -0.0080       0.0482
     -6.3400      -0.0071       0.0392      -0.0081       0.0475
     -6.3300      -0.0071       0.0385      -0.0081       0.0467
     -6.3200      -0.0071       0.0378      -0.0082       0.0459
     -6.3100      -0.0071       0.0371      -0.0083       0.0451
     -6.3000      -0.0071       0.0364      -0.0084       0.0444
     -6.2900      -0.0071       0.0357      -0.0085       0.0436
     -6.2800      -0.0071       0.0350      -0.0086       0.0428
     -6.2700      -0.0072       0.0343      -0.0087       0.0421
     -6.2600      -0.0072       0.0336      -0.0089       0.0413
     -6.2500      -0.0072       0.0329      -0.0091       0.0406
     -6.2400      -0.0072       0.0322      -0.0092       0.0399
     -6.2300      -0.0072       0.0315      -0.0095       0.0392
     -6.2200      -0.0073       0.0308      -0.0097       0.0385
     -6.2100      -0.0073       0.0301      -0.0099       0.0379
     -6.2000      -0.0073       0.0294      -0.0101       0.0373
     -6.1900      -0.0073       0.0287      -0.0104       0.0367
     -6.1800      -0.0074       0.0280      -0.0106       0.0362
     -6.1700      -0.0074       0.0273      -0.0108       0.0357
     -6.1600      -0.0074       0.0265      -0.0109       0.0353
     -6.1500      -0.0075       0.0258      -0.0109       0.0349
     -6.1400      -0.0075       0.0251      -0.0110       0.0345
     -6.1300      -0.0076       0.0244      -0.0109       0.0340
     -6.1200      -0.0076       0.0236      -0.0108       0.0335
     -6.1100      -0.0077       0.0229      -0.0107       0.0330
     -6.1000      -0.0077       0.0221      -0.0105       0.0324
     -6.0900      -0.0078       0.0214      -0.0104       0.0318
     -6.0800      -0.0079       0.0206      -0.0102       0.0311
     -6.0700      -0.0080       0.0199      -0.0101       0.0304
     -6.0600      -0.0081       0.0191      -0.0100       0.0296
     -6.0500      -0.0082       0.0184      -0.0099       0.0289
     -6.0400      -0.0083       0.0176      -0.0099       0.0281
     -6.0300      -0.0084       0.0168      -0.0099       0.0273
     -6.0200      -0.0086       0.0160      -0.0099       0.0264
     -6.0100      -0.0088       0.0152      -0.0099       0.0256
     -6.0000      -0.0089       0.0144      -0.0100       0.0247
     -5.9900      -0.0092       0.0136      -0.0101       0.0239
     -5.9800      -0.0094       0.0128      -0.0102       0.0230
     -5.9700      -0.0096       0.0119      -0.0104       0.0221
     -5.9600      -0.0099       0.0111      -0.0105       0.0212
    -5.95000     -0.01023      0.01022     -0.01077      0.02032
     -5.9400      -0.0106       0.0094      -0.0110       0.0194
     -5.9300      -0.0110       0.0085      -0.0113       0.0185
     -5.9200      -0.0114       0.0076      -0.0117       0.0176
     -5.9100      -0.0119       0.0068      -0.0121       0.0167
     -5.9000      -0.0125       0.0059      -0.0126       0.0158
   -5.890       -.1311E-1    0.5062E-2    -.1313E-1    0.1488E-1
   -5.880       -.1382E-1    0.4235E-2    -.1375E-1    0.1400E-1
   -5.870       -.1462E-1    0.3440E-2    -.1444E-1    0.1314E-1
   -5.860       -.1553E-1    0.2691E-2    -.1523E-1    0.1233E-1
   -5.850       -.1655E-1    0.2008E-2    -.1612E-1    0.1157E-1
   -5.840       -.1768E-1    0.1417E-2    -.1712E-1    0.1089E-1
   -5.830       -.1893E-1    0.9523E-3    -.1823E-1    0.1033E-1
   -5.820       -.2029E-1    0.6541E-3    -.1945E-1    0.9904E-2
   -5.810       -.2175E-1    0.5674E-3    -.2076E-1    0.9666E-2
   -5.800       -.2325E-1    0.7418E-3    -.2215E-1    0.9657E-2
   -5.790       -.2476E-1    0.1221E-2    -.2356E-1    0.9920E-2
   -5.780       -.2619E-1    0.2035E-2    -.2493E-1    0.1049E-1
   -5.770       -.2743E-1    0.3187E-2    -.2617E-1    0.1138E-1
   -5.760       -.2839E-1    0.4643E-2    -.2718E-1    0.1257E-1
     -5.7500      -0.0290       0.0063      -0.0279       0.0140
     -5.7400      -0.0291       0.0081      -0.0281       0.0156
     -5.7300      -0.0288       0.0099      -0.0280       0.0172
    -5.72000     -0.02800      0.01148     -0.02741      0.01872
    -5.71000     -0.02689      0.01282     -0.02648      0.02002
    -5.70000     -0.02555      0.01384     -0.02528      0.02104
    -5.69000     -0.02406      0.01452     -0.02391      0.02174
    -5.68000     -0.02253      0.01488     -0.02247      0.02212
    -5.67000     -0.02103      0.01496     -0.02103      0.02223
    -5.66000     -0.01961      0.01479     -0.01965      0.02209
    -5.65000     -0.01828      0.01443     -0.01835      0.02175
    -5.64000     -0.01707      0.01393     -0.01716      0.02126
    -5.63000     -0.01598      0.01331     -0.01609      0.02065
    -5.62000     -0.01501      0.01261     -0.01512      0.01996
    -5.61000     -0.01414      0.01186     -0.01426      0.01921
    -5.60000     -0.01337      0.01107     -0.01349      0.01841
    -5.59000     -0.01270      0.01025     -0.01282      0.01759
     -5.5800      -0.0121       0.0094      -0.0122       0.0168
     -5.5700      -0.0116       0.0086      -0.0117       0.0159
     -5.5600      -0.0111       0.0078      -0.0112       0.0151
     -5.5500      -0.0107       0.0069      -0.0108       0.0142
     -5.5400      -0.0104       0.0061      -0.0105       0.0134
   -5.530       -.1005E-1    0.5281E-2    -.1016E-1    0.1255E-1
   -5.520       -.9789E-2    0.4476E-2    -.9894E-2    0.1173E-1
   -5.510       -.9565E-2    0.3684E-2    -.9666E-2    0.1092E-1
   -5.500       -.9376E-2    0.2906E-2    -.9473E-2    0.1013E-1
   -5.490       -.9222E-2    0.2144E-2    -.9314E-2    0.9348E-2
   -5.480       -.9100E-2    0.1400E-2    -.9187E-2    0.8584E-2
   -5.470       -.9011E-2    0.6764E-3    -.9089E-2    0.7838E-2
   -5.460       -.8952E-2    -.2486E-4    -.9019E-2    0.7112E-2
   -5.450       -.8922E-2    -.7012E-3    -.8976E-2    0.6411E-2
   -5.440       -.8918E-2    -.1349E-2    -.8956E-2    0.5737E-2
   -5.430       -.8936E-2    -.1963E-2    -.8956E-2    0.5095E-2
   -5.420       -.8969E-2    -.2540E-2    -.8971E-2    0.4490E-2
   -5.410       -.9010E-2    -.3073E-2    -.8995E-2    0.3926E-2
   -5.400       -.9047E-2    -.3561E-2    -.9018E-2    0.3404E-2
   -5.390       -.9070E-2    -.4004E-2    -.9029E-2    0.2924E-2
   -5.380       -.9065E-2    -.4407E-2    -.9018E-2    0.2480E-2
   -5.370       -.9022E-2    -.4778E-2    -.8974E-2    0.2064E-2
   -5.360       -.8936E-2    -.5133E-2    -.8889E-2    0.1663E-2
   -5.350       -.8803E-2    -.5487E-2    -.8764E-2    0.1263E-2
   -5.340       -.8631E-2    -.5854E-2    -.8601E-2    0.8524E-3
   -5.330       -.8428E-2    -.6246E-2    -.8409E-2    0.4205E-3
   -5.320       -.8204E-2    -.6668E-2    -.8199E-2    -.3734E-4
   -5.310       -.7971E-2    -.7122E-2    -.7979E-2    -.5224E-3
   -5.300       -.7738E-2    -.7606E-2    -.7761E-2    -.1033E-2
   -5.290       -.7512E-2    -.8116E-2    -.7549E-2    -.1565E-2
   -5.280       -.7296E-2    -.8647E-2    -.7349E-2    -.2116E-2
   -5.270       -.7095E-2    -.9192E-2    -.7163E-2    -.2680E-2
   -5.260       -.6908E-2    -.9749E-2    -.6991E-2    -.3255E-2
   -5.250       -.6737E-2    -.1031E-1    -.6833E-2    -.3837E-2
   -5.240       -.6580E-2    -.1088E-1    -.6687E-2    -.4423E-2
   -5.230       -.6437E-2    -.1145E-1    -.6553E-2    -.5010E-2
     -5.2200      -0.0063      -0.0120      -0.0064      -0.0056
     -5.2100      -0.0062      -0.0126      -0.0063      -0.0062
     -5.2000      -0.0061      -0.0131      -0.0062      -0.0068
     -5.1900      -0.0060      -0.0137      -0.0061      -0.0073
     -5.1800      -0.0059      -0.0143      -0.0060      -0.0079
     -5.1700      -0.0058      -0.0148      -0.0059      -0.0085
     -5.1600      -0.0057      -0.0154      -0.0059      -0.0091
     -5.1500      -0.0056      -0.0159      -0.0058      -0.0096
     -5.1400      -0.0056      -0.0165      -0.0057      -0.0102
     -5.1300      -0.0055      -0.0170      -0.0057      -0.0107
     -5.1200      -0.0055      -0.0175      -0.0056      -0.0113
     -5.1100      -0.0054      -0.0181      -0.0056      -0.0118
     -5.1000      -0.0053      -0.0186      -0.0055      -0.0124
     -5.0900      -0.0053      -0.0191      -0.0055      -0.0129
     -5.0800      -0.0052      -0.0196      -0.0054      -0.0134
     -5.0700      -0.0052      -0.0201      -0.0054      -0.0140
     -5.0600      -0.0052      -0.0206      -0.0053      -0.0145
     -5.0500      -0.0051      -0.0211      -0.0053      -0.0150
     -5.0400      -0.0051      -0.0217      -0.0052      -0.0155
     -5.0300      -0.0050      -0.0222      -0.0052      -0.0160
   -5.020       -.5002E-2    -.2265E-1    -.5167E-2    -.1656E-1
   -5.010       -.4967E-2    -.2314E-1    -.5132E-2    -.1707E-1
   -5.000       -.4933E-2    -.2363E-1    -.5098E-2    -.1758E-1
   -4.990       -.4900E-2    -.2412E-1    -.5065E-2    -.1808E-1
   -4.980       -.4869E-2    -.2460E-1    -.5034E-2    -.1858E-1
   -4.970       -.4838E-2    -.2508E-1    -.5003E-2    -.1908E-1
   -4.960       -.4809E-2    -.2556E-1    -.4974E-2    -.1958E-1
   -4.950       -.4780E-2    -.2604E-1    -.4945E-2    -.2007E-1
   -4.940       -.4752E-2    -.2651E-1    -.4917E-2    -.2056E-1
   -4.930       -.4725E-2    -.2698E-1    -.4890E-2    -.2105E-1
   -4.920       -.4698E-2    -.2745E-1    -.4863E-2    -.2153E-1
   -4.910       -.4672E-2    -.2792E-1    -.4837E-2    -.2201E-1
   -4.900       -.4647E-2    -.2838E-1    -.4811E-2    -.2249E-1
   -4.890       -.4623E-2    -.2884E-1    -.4786E-2    -.2297E-1
   -4.880       -.4599E-2    -.2930E-1    -.4762E-2    -.2345E-1
   -4.870       -.4575E-2    -.2976E-1    -.4738E-2    -.2392E-1
   -4.860       -.4552E-2    -.3021E-1    -.4715E-2    -.2439E-1
   -4.850       -.4530E-2    -.3066E-1    -.4692E-2    -.2486E-1
   -4.840       -.4507E-2    -.3111E-1    -.4669E-2    -.2533E-1
   -4.830       -.4486E-2    -.3156E-1    -.4647E-2    -.2579E-1
   -4.820       -.4464E-2    -.3201E-1    -.4626E-2    -.2625E-1
   -4.810       -.4444E-2    -.3245E-1    -.4604E-2    -.2671E-1
   -4.800       -.4423E-2    -.3289E-1    -.4583E-2    -.2717E-1
   -4.790       -.4403E-2    -.3333E-1    -.4563E-2    -.2762E-1
   -4.780       -.4383E-2    -.3377E-1    -.4542E-2    -.2808E-1
   -4.770       -.4363E-2    -.3421E-1    -.4522E-2    -.2853E-1
   -4.760       -.4344E-2    -.3464E-1    -.4503E-2    -.2898E-1
   -4.750       -.4325E-2    -.3507E-1    -.4483E-2    -.2943E-1
   -4.740       -.4306E-2    -.3550E-1    -.4464E-2    -.2987E-1
   -4.730       -.4288E-2    -.3593E-1    -.4445E-2    -.3032E-1
   -4.720       -.4270E-2    -.3636E-1    -.4426E-2    -.3076E-1
   -4.710       -.4252E-2    -.3678E-1    -.4408E-2    -.3120E-1
   -4.700       -.4234E-2    -.3721E-1    -.4390E-2    -.3164E-1
   -4.690       -.4216E-2    -.3763E-1    -.4372E-2    -.3208E-1
   -4.680       -.4199E-2    -.3805E-1    -.4354E-2    -.3251E-1
   -4.670       -.4182E-2    -.3846E-1    -.4336E-2    -.3295E-1
   -4.660       -.4165E-2    -.3888E-1    -.4318E-2    -.3338E-1
   -4.650       -.4148E-2    -.3930E-1    -.4301E-2    -.3381E-1
   -4.640       -.4132E-2    -.3971E-1    -.4284E-2    -.3424E-1
   -4.630       -.4115E-2    -.4012E-1    -.4267E-2    -.3466E-1
   -4.620       -.4099E-2    -.4053E-1    -.4250E-2    -.3509E-1
   -4.610       -.4083E-2    -.4094E-1    -.4234E-2    -.3551E-1
   -4.600       -.4067E-2    -.4134E-1    -.4217E-2    -.3593E-1
   -4.590       -.4051E-2    -.4175E-1    -.4201E-2    -.3635E-1
   -4.580       -.4036E-2    -.4215E-1    -.4185E-2    -.3677E-1
   -4.570       -.4020E-2    -.4256E-1    -.4169E-2    -.3719E-1
   -4.560       -.4005E-2    -.4295E-1    -.4153E-2    -.3760E-1
   -4.550       -.3990E-2    -.4335E-1    -.4137E-2    -.3802E-1
   -4.540       -.3975E-2    -.4375E-1    -.4122E-2    -.3843E-1
   -4.530       -.3960E-2    -.4415E-1    -.4106E-2    -.3884E-1
   -4.520       -.3945E-2    -.4454E-1    -.4091E-2    -.3925E-1
   -4.510       -.3930E-2    -.4493E-1    -.4076E-2    -.3966E-1
   -4.500       -.3916E-2    -.4533E-1    -.4060E-2    -.4006E-1
   -4.490       -.3901E-2    -.4572E-1    -.4045E-2    -.4047E-1
   -4.480       -.3887E-2    -.4611E-1    -.4030E-2    -.4087E-1
   -4.470       -.3872E-2    -.4649E-1    -.4016E-2    -.4127E-1
   -4.460       -.3858E-2    -.4688E-1    -.4001E-2    -.4167E-1
   -4.450       -.3844E-2    -.4726E-1    -.3986E-2    -.4207E-1
   -4.440       -.3830E-2    -.4765E-1    -.3972E-2    -.4247E-1
   -4.430       -.3816E-2    -.4803E-1    -.3957E-2    -.4286E-1
   -4.420       -.3803E-2    -.4841E-1    -.3943E-2    -.4326E-1
   -4.410       -.3789E-2    -.4879E-1    -.3929E-2    -.4365E-1
   -4.400       -.3775E-2    -.4916E-1    -.3915E-2    -.4404E-1
   -4.390       -.3762E-2    -.4954E-1    -.3900E-2    -.4443E-1
   -4.380       -.3748E-2    -.4991E-1    -.3886E-2    -.4482E-1
   -4.370       -.3735E-2    -.5029E-1    -.3873E-2    -.4521E-1
   -4.360       -.3721E-2    -.5066E-1    -.3859E-2    -.4559E-1
   -4.350       -.3708E-2    -.5103E-1    -.3845E-2    -.4598E-1
   -4.340       -.3695E-2    -.5140E-1    -.3831E-2    -.4636E-1
   -4.330       -.3682E-2    -.5177E-1    -.3818E-2    -.4674E-1
   -4.320       -.3669E-2    -.5214E-1    -.3804E-2    -.4712E-1
   -4.310       -.3656E-2    -.5250E-1    -.3791E-2    -.4750E-1
   -4.300       -.3643E-2    -.5287E-1    -.3777E-2    -.4788E-1
   -4.290       -.3630E-2    -.5323E-1    -.3764E-2    -.4826E-1
   -4.280       -.3618E-2    -.5359E-1    -.3751E-2    -.4863E-1
   -4.270       -.3605E-2    -.5395E-1    -.3738E-2    -.4901E-1
   -4.260       -.3592E-2    -.5431E-1    -.3724E-2    -.4938E-1
   -4.250       -.3580E-2    -.5467E-1    -.3711E-2    -.4975E-1
   -4.240       -.3567E-2    -.5502E-1    -.3698E-2    -.5012E-1
   -4.230       -.3555E-2    -.5538E-1    -.3685E-2    -.5049E-1
   -4.220       -.3542E-2    -.5573E-1    -.3672E-2    -.5086E-1
   -4.210       -.3530E-2    -.5609E-1    -.3660E-2    -.5122E-1
   -4.200       -.3518E-2    -.5644E-1    -.3647E-2    -.5159E-1
   -4.190       -.3506E-2    -.5679E-1    -.3634E-2    -.5195E-1
   -4.180       -.3494E-2    -.5714E-1    -.3621E-2    -.5231E-1
   -4.170       -.3481E-2    -.5749E-1    -.3609E-2    -.5267E-1
   -4.160       -.3469E-2    -.5784E-1    -.3596E-2    -.5303E-1
   -4.150       -.3457E-2    -.5818E-1    -.3584E-2    -.5339E-1
   -4.140       -.3446E-2    -.5853E-1    -.3571E-2    -.5375E-1
   -4.130       -.3434E-2    -.5887E-1    -.3559E-2    -.5410E-1
   -4.120       -.3422E-2    -.5921E-1    -.3546E-2    -.5446E-1
   -4.110       -.3410E-2    -.5955E-1    -.3534E-2    -.5481E-1
   -4.100       -.3398E-2    -.5989E-1    -.3522E-2    -.5516E-1
   -4.090       -.3386E-2    -.6023E-1    -.3509E-2    -.5551E-1
   -4.080       -.3375E-2    -.6057E-1    -.3497E-2    -.5586E-1
   -4.070       -.3363E-2    -.6091E-1    -.3485E-2    -.5621E-1
   -4.060       -.3352E-2    -.6124E-1    -.3473E-2    -.5656E-1
   -4.050       -.3340E-2    -.6157E-1    -.3461E-2    -.5691E-1
   -4.040       -.3328E-2    -.6191E-1    -.3449E-2    -.5725E-1
   -4.030       -.3317E-2    -.6224E-1    -.3437E-2    -.5759E-1
   -4.020       -.3306E-2    -.6257E-1    -.3425E-2    -.5794E-1
   -4.010       -.3294E-2    -.6290E-1    -.3413E-2    -.5828E-1
   -4.000       -.3283E-2    -.6323E-1    -.3401E-2    -.5862E-1
   -3.990       -.3272E-2    -.6355E-1    -.3390E-2    -.5896E-1
   -3.980       -.3260E-2    -.6388E-1    -.3378E-2    -.5929E-1
   -3.970       -.3249E-2    -.6421E-1    -.3366E-2    -.5963E-1
   -3.960       -.3238E-2    -.6453E-1    -.3354E-2    -.5997E-1
   -3.950       -.3227E-2    -.6485E-1    -.3343E-2    -.6030E-1
   -3.940       -.3216E-2    -.6517E-1    -.3331E-2    -.6063E-1
   -3.930       -.3204E-2    -.6549E-1    -.3320E-2    -.6097E-1
   -3.920       -.3193E-2    -.6581E-1    -.3308E-2    -.6130E-1
   -3.910       -.3182E-2    -.6613E-1    -.3297E-2    -.6163E-1
   -3.900       -.3171E-2    -.6645E-1    -.3285E-2    -.6196E-1
   -3.890       -.3160E-2    -.6676E-1    -.3274E-2    -.6228E-1
   -3.880       -.3149E-2    -.6708E-1    -.3263E-2    -.6261E-1
   -3.870       -.3139E-2    -.6739E-1    -.3251E-2    -.6294E-1
   -3.860       -.3128E-2    -.6770E-1    -.3240E-2    -.6326E-1
   -3.850       -.3117E-2    -.6802E-1    -.3229E-2    -.6358E-1
   -3.840       -.3106E-2    -.6833E-1    -.3217E-2    -.6391E-1
   -3.830       -.3095E-2    -.6864E-1    -.3206E-2    -.6423E-1
   -3.820       -.3085E-2    -.6895E-1    -.3195E-2    -.6455E-1
   -3.810       -.3074E-2    -.6925E-1    -.3184E-2    -.6486E-1
   -3.800       -.3063E-2    -.6956E-1    -.3173E-2    -.6518E-1
   -3.790       -.3053E-2    -.6986E-1    -.3162E-2    -.6550E-1
   -3.780       -.3042E-2    -.7017E-1    -.3151E-2    -.6581E-1
   -3.770       -.3032E-2    -.7047E-1    -.3140E-2    -.6613E-1
   -3.760       -.3021E-2    -.7078E-1    -.3129E-2    -.6644E-1
   -3.750       -.3011E-2    -.7108E-1    -.3118E-2    -.6675E-1
   -3.740       -.3000E-2    -.7138E-1    -.3107E-2    -.6706E-1
   -3.730       -.2990E-2    -.7168E-1    -.3096E-2    -.6737E-1
   -3.720       -.2979E-2    -.7197E-1    -.3085E-2    -.6768E-1
   -3.710       -.2969E-2    -.7227E-1    -.3074E-2    -.6799E-1
   -3.700       -.2959E-2    -.7257E-1    -.3064E-2    -.6830E-1
   -3.690       -.2948E-2    -.7286E-1    -.3053E-2    -.6860E-1
   -3.680       -.2938E-2    -.7316E-1    -.3042E-2    -.6890E-1
   -3.670       -.2928E-2    -.7345E-1    -.3031E-2    -.6921E-1
   -3.660       -.2918E-2    -.7374E-1    -.3021E-2    -.6951E-1
   -3.650       -.2907E-2    -.7403E-1    -.3010E-2    -.6981E-1
   -3.640       -.2897E-2    -.7432E-1    -.2999E-2    -.7011E-1
   -3.630       -.2887E-2    -.7461E-1    -.2989E-2    -.7041E-1
   -3.620       -.2877E-2    -.7490E-1    -.2978E-2    -.7071E-1
   -3.610       -.2867E-2    -.7519E-1    -.2968E-2    -.7101E-1
   -3.600       -.2857E-2    -.7547E-1    -.2957E-2    -.7130E-1
   -3.590       -.2846E-2    -.7576E-1    -.2947E-2    -.7160E-1
   -3.580       -.2836E-2    -.7604E-1    -.2936E-2    -.7189E-1
   -3.570       -.2826E-2    -.7632E-1    -.2926E-2    -.7218E-1
   -3.560       -.2816E-2    -.7660E-1    -.2915E-2    -.7247E-1
   -3.550       -.2806E-2    -.7689E-1    -.2905E-2    -.7276E-1
   -3.540       -.2796E-2    -.7716E-1    -.2894E-2    -.7305E-1
   -3.530       -.2787E-2    -.7744E-1    -.2884E-2    -.7334E-1
   -3.520       -.2777E-2    -.7772E-1    -.2874E-2    -.7363E-1
   -3.510       -.2767E-2    -.7800E-1    -.2863E-2    -.7392E-1
   -3.500       -.2757E-2    -.7827E-1    -.2853E-2    -.7420E-1
   -3.490       -.2747E-2    -.7855E-1    -.2843E-2    -.7449E-1
   -3.480       -.2737E-2    -.7882E-1    -.2833E-2    -.7477E-1
   -3.470       -.2727E-2    -.7909E-1    -.2823E-2    -.7505E-1
   -3.460       -.2717E-2    -.7936E-1    -.2812E-2    -.7533E-1
   -3.450       -.2708E-2    -.7964E-1    -.2802E-2    -.7561E-1
   -3.440       -.2698E-2    -.7991E-1    -.2792E-2    -.7589E-1
   -3.430       -.2688E-2    -.8017E-1    -.2782E-2    -.7617E-1
   -3.420       -.2679E-2    -.8044E-1    -.2772E-2    -.7645E-1
   -3.410       -.2669E-2    -.8071E-1    -.2762E-2    -.7673E-1
   -3.400       -.2659E-2    -.8098E-1    -.2752E-2    -.7700E-1
   -3.390       -.2650E-2    -.8124E-1    -.2742E-2    -.7727E-1
   -3.380       -.2640E-2    -.8151E-1    -.2732E-2    -.7755E-1
   -3.370       -.2630E-2    -.8177E-1    -.2722E-2    -.7782E-1
   -3.360       -.2621E-2    -.8203E-1    -.2712E-2    -.7809E-1
   -3.350       -.2611E-2    -.8229E-1    -.2702E-2    -.7836E-1
   -3.340       -.2602E-2    -.8255E-1    -.2692E-2    -.7863E-1
   -3.330       -.2592E-2    -.8281E-1    -.2682E-2    -.7890E-1
   -3.320       -.2583E-2    -.8307E-1    -.2672E-2    -.7917E-1
   -3.310       -.2573E-2    -.8333E-1    -.2662E-2    -.7943E-1
   -3.300       -.2564E-2    -.8358E-1    -.2653E-2    -.7970E-1
   -3.290       -.2554E-2    -.8384E-1    -.2643E-2    -.7996E-1
   -3.280       -.2545E-2    -.8410E-1    -.2633E-2    -.8023E-1
   -3.270       -.2536E-2    -.8435E-1    -.2623E-2    -.8049E-1
   -3.260       -.2526E-2    -.8460E-1    -.2613E-2    -.8075E-1
   -3.250       -.2517E-2    -.8485E-1    -.2604E-2    -.8101E-1
   -3.240       -.2508E-2    -.8510E-1    -.2594E-2    -.8127E-1
   -3.230       -.2498E-2    -.8536E-1    -.2584E-2    -.8153E-1
   -3.220       -.2489E-2    -.8560E-1    -.2574E-2    -.8179E-1
   -3.210       -.2480E-2    -.8585E-1    -.2565E-2    -.8204E-1
   -3.200       -.2470E-2    -.8610E-1    -.2555E-2    -.8230E-1
   -3.190       -.2461E-2    -.8635E-1    -.2546E-2    -.8255E-1
   -3.180       -.2452E-2    -.8659E-1    -.2536E-2    -.8281E-1
   -3.170       -.2443E-2    -.8683E-1    -.2526E-2    -.8306E-1
   -3.160       -.2433E-2    -.8708E-1    -.2517E-2    -.8331E-1
   -3.150       -.2424E-2    -.8732E-1    -.2507E-2    -.8356E-1
   -3.140       -.2415E-2    -.8756E-1    -.2498E-2    -.8381E-1
   -3.130       -.2406E-2    -.8780E-1    -.2488E-2    -.8406E-1
   -3.120       -.2397E-2    -.8804E-1    -.2479E-2    -.8431E-1
   -3.110       -.2388E-2    -.8828E-1    -.2469E-2    -.8456E-1
   -3.100       -.2379E-2    -.8852E-1    -.2460E-2    -.8480E-1
   -3.090       -.2370E-2    -.8876E-1    -.2450E-2    -.8505E-1
   -3.080       -.2360E-2    -.8899E-1    -.2441E-2    -.8529E-1
   -3.070       -.2351E-2    -.8923E-1    -.2432E-2    -.8554E-1
   -3.060       -.2342E-2    -.8946E-1    -.2422E-2    -.8578E-1
   -3.050       -.2333E-2    -.8970E-1    -.2413E-2    -.8602E-1
   -3.040       -.2324E-2    -.8993E-1    -.2403E-2    -.8626E-1
   -3.030       -.2315E-2    -.9016E-1    -.2394E-2    -.8650E-1
   -3.020       -.2306E-2    -.9039E-1    -.2385E-2    -.8674E-1
   -3.010       -.2297E-2    -.9062E-1    -.2375E-2    -.8698E-1
   -3.000       -.2288E-2    -.9085E-1    -.2366E-2    -.8721E-1
   -2.990       -.2280E-2    -.9108E-1    -.2357E-2    -.8745E-1
   -2.980       -.2271E-2    -.9130E-1    -.2347E-2    -.8768E-1
   -2.970       -.2262E-2    -.9153E-1    -.2338E-2    -.8792E-1
   -2.960       -.2253E-2    -.9175E-1    -.2329E-2    -.8815E-1
   -2.950       -.2244E-2    -.9198E-1    -.2320E-2    -.8838E-1
   -2.940       -.2235E-2    -.9220E-1    -.2311E-2    -.8861E-1
   -2.930       -.2226E-2    -.9243E-1    -.2302E-2    -.8884E-1
   -2.920       -.2217E-2    -.9265E-1    -.2292E-2    -.8907E-1
   -2.910       -.2209E-2    -.9287E-1    -.2283E-2    -.8930E-1
   -2.900       -.2200E-2    -.9309E-1    -.2274E-2    -.8953E-1
   -2.890       -.2191E-2    -.9331E-1    -.2265E-2    -.8976E-1
   -2.880       -.2182E-2    -.9353E-1    -.2256E-2    -.8998E-1
   -2.870       -.2174E-2    -.9375E-1    -.2247E-2    -.9021E-1
   -2.860       -.2165E-2    -.9396E-1    -.2238E-2    -.9043E-1
   -2.850       -.2156E-2    -.9418E-1    -.2229E-2    -.9065E-1
   -2.840       -.2147E-2    -.9439E-1    -.2220E-2    -.9087E-1
   -2.830       -.2139E-2    -.9461E-1    -.2211E-2    -.9110E-1
   -2.820       -.2130E-2    -.9482E-1    -.2202E-2    -.9132E-1
   -2.810       -.2121E-2    -.9503E-1    -.2193E-2    -.9153E-1
   -2.800       -.2113E-2    -.9524E-1    -.2184E-2    -.9176E-1
   -2.790       -.2104E-2    -.9545E-1    -.2175E-2    -.9197E-1
   -2.780       -.2096E-2    -.9566E-1    -.2166E-2    -.9219E-1
   -2.770       -.2087E-2    -.9587E-1    -.2157E-2    -.9240E-1
   -2.760       -.2078E-2    -.9608E-1    -.2148E-2    -.9262E-1
   -2.750       -.2070E-2    -.9629E-1    -.2139E-2    -.9283E-1
   -2.740       -.2061E-2    -.9649E-1    -.2130E-2    -.9305E-1
   -2.730       -.2053E-2    -.9670E-1    -.2121E-2    -.9326E-1
   -2.720       -.2044E-2    -.9690E-1    -.2112E-2    -.9347E-1
   -2.710       -.2035E-2    -.9711E-1    -.2103E-2    -.9368E-1
   -2.700       -.2027E-2    -.9731E-1    -.2095E-2    -.9389E-1
   -2.690       -.2018E-2    -.9751E-1    -.2086E-2    -.9410E-1
   -2.680       -.2010E-2    -.9771E-1    -.2077E-2    -.9431E-1
   -2.670       -.2001E-2    -.9791E-1    -.2068E-2    -.9452E-1
   -2.660       -.1993E-2    -.9811E-1    -.2059E-2    -.9472E-1
   -2.650       -.1984E-2    -.9831E-1    -.2051E-2    -.9493E-1
   -2.640       -.1976E-2    -.9851E-1    -.2042E-2    -.9513E-1
   -2.630       -.1968E-2    -.9871E-1    -.2033E-2    -.9533E-1
   -2.620       -.1959E-2    -.9890E-1    -.2024E-2    -.9553E-1
   -2.610       -.1951E-2    -.9910E-1    -.2016E-2    -.9574E-1
   -2.600       -.1942E-2    -.9929E-1    -.2007E-2    -.9594E-1
   -2.590       -.1934E-2    -.9949E-1    -.1998E-2    -.9614E-1
   -2.580       -.1926E-2    -.9967E-1    -.1989E-2    -.9633E-1
   -2.570       -.1917E-2    -.9987E-1    -.1981E-2    -.9653E-1
   -2.560       -.1909E-2    -.1001       -.1972E-2    -.9673E-1
   -2.550       -.1901E-2    -.1003       -.1963E-2    -.9693E-1
   -2.540       -.1892E-2    -.1004       -.1955E-2    -.9712E-1
   -2.530       -.1884E-2    -.1006       -.1946E-2    -.9732E-1
   -2.520       -.1876E-2    -.1008       -.1938E-2    -.9751E-1
   -2.510       -.1867E-2    -.1010       -.1929E-2    -.9770E-1
   -2.500       -.1859E-2    -.1012       -.1920E-2    -.9790E-1
   -2.490       -.1851E-2    -.1014       -.1912E-2    -.9809E-1
   -2.480       -.1843E-2    -.1016       -.1903E-2    -.9828E-1
   -2.470       -.1834E-2    -.1017       -.1895E-2    -.9847E-1
   -2.460       -.1826E-2    -.1019       -.1886E-2    -.9866E-1
   -2.450       -.1818E-2    -.1021       -.1878E-2    -.9885E-1
   -2.440       -.1810E-2    -.1023       -.1869E-2    -.9903E-1
   -2.430       -.1801E-2    -.1025       -.1861E-2    -.9922E-1
   -2.420       -.1793E-2    -.1026       -.1852E-2    -.9940E-1
   -2.410       -.1785E-2    -.1028       -.1844E-2    -.9959E-1
   -2.400       -.1777E-2    -.1030       -.1835E-2    -.9977E-1
   -2.390       -.1769E-2    -.1032       -.1827E-2    -.9995E-1
   -2.380       -.1760E-2    -.1034       -.1818E-2    -.1001   
   -2.370       -.1752E-2    -.1035       -.1810E-2    -.1003   
   -2.360       -.1744E-2    -.1037       -.1801E-2    -.1005   
   -2.350       -.1736E-2    -.1039       -.1793E-2    -.1007   
   -2.340       -.1728E-2    -.1041       -.1785E-2    -.1009   
   -2.330       -.1720E-2    -.1042       -.1776E-2    -.1010   
   -2.320       -.1712E-2    -.1044       -.1768E-2    -.1012   
   -2.310       -.1704E-2    -.1046       -.1759E-2    -.1014   
   -2.300       -.1696E-2    -.1047       -.1751E-2    -.1016   
   -2.290       -.1687E-2    -.1049       -.1743E-2    -.1017   
   -2.280       -.1679E-2    -.1051       -.1734E-2    -.1019   
   -2.270       -.1671E-2    -.1052       -.1726E-2    -.1021   
   -2.260       -.1663E-2    -.1054       -.1718E-2    -.1023   
   -2.250       -.1655E-2    -.1056       -.1709E-2    -.1024   
   -2.240       -.1647E-2    -.1057       -.1701E-2    -.1026   
   -2.230       -.1639E-2    -.1059       -.1693E-2    -.1028   
   -2.220       -.1631E-2    -.1061       -.1684E-2    -.1029   
   -2.210       -.1623E-2    -.1062       -.1676E-2    -.1031   
   -2.200       -.1615E-2    -.1064       -.1668E-2    -.1033   
   -2.190       -.1607E-2    -.1065       -.1660E-2    -.1034   
   -2.180       -.1599E-2    -.1067       -.1651E-2    -.1036   
   -2.170       -.1591E-2    -.1069       -.1643E-2    -.1038   
   -2.160       -.1583E-2    -.1070       -.1635E-2    -.1039   
   -2.150       -.1575E-2    -.1072       -.1627E-2    -.1041   
   -2.140       -.1568E-2    -.1073       -.1618E-2    -.1043   
   -2.130       -.1560E-2    -.1075       -.1610E-2    -.1044   
   -2.120       -.1552E-2    -.1077       -.1602E-2    -.1046   
   -2.110       -.1544E-2    -.1078       -.1594E-2    -.1047   
   -2.100       -.1536E-2    -.1080       -.1586E-2    -.1049   
   -2.090       -.1528E-2    -.1081       -.1578E-2    -.1050   
   -2.080       -.1520E-2    -.1083       -.1569E-2    -.1052   
   -2.070       -.1512E-2    -.1084       -.1561E-2    -.1054   
   -2.060       -.1504E-2    -.1086       -.1553E-2    -.1055   
   -2.050       -.1497E-2    -.1087       -.1545E-2    -.1057   
   -2.040       -.1489E-2    -.1089       -.1537E-2    -.1058   
   -2.030       -.1481E-2    -.1090       -.1529E-2    -.1060   
   -2.020       -.1473E-2    -.1092       -.1521E-2    -.1061   
   -2.010       -.1465E-2    -.1093       -.1513E-2    -.1063   
   -2.000       -.1457E-2    -.1095       -.1505E-2    -.1064   
   -1.990       -.1450E-2    -.1096       -.1497E-2    -.1066   
   -1.980       -.1442E-2    -.1097       -.1488E-2    -.1067   
   -1.970       -.1434E-2    -.1099       -.1480E-2    -.1069   
   -1.960       -.1426E-2    -.1100       -.1472E-2    -.1070   
   -1.950       -.1419E-2    -.1102       -.1464E-2    -.1072   
   -1.940       -.1411E-2    -.1103       -.1456E-2    -.1073   
   -1.930       -.1403E-2    -.1105       -.1448E-2    -.1075   
   -1.920       -.1395E-2    -.1106       -.1440E-2    -.1076   
   -1.910       -.1388E-2    -.1107       -.1432E-2    -.1078   
   -1.900       -.1380E-2    -.1109       -.1424E-2    -.1079   
   -1.890       -.1372E-2    -.1110       -.1416E-2    -.1080   
   -1.880       -.1364E-2    -.1111       -.1408E-2    -.1082   
   -1.870       -.1357E-2    -.1113       -.1400E-2    -.1083   
   -1.860       -.1349E-2    -.1114       -.1392E-2    -.1085   
   -1.850       -.1341E-2    -.1116       -.1385E-2    -.1086   
   -1.840       -.1334E-2    -.1117       -.1376E-2    -.1087   
   -1.830       -.1326E-2    -.1118       -.1369E-2    -.1089   
   -1.820       -.1318E-2    -.1120       -.1361E-2    -.1090   
   -1.810       -.1311E-2    -.1121       -.1353E-2    -.1091   
   -1.800       -.1303E-2    -.1122       -.1345E-2    -.1093   
   -1.790       -.1295E-2    -.1123       -.1337E-2    -.1094   
   -1.780       -.1288E-2    -.1125       -.1329E-2    -.1095   
   -1.770       -.1280E-2    -.1126       -.1321E-2    -.1097   
   -1.760       -.1272E-2    -.1127       -.1313E-2    -.1098   
   -1.750       -.1265E-2    -.1129       -.1305E-2    -.1099   
   -1.740       -.1257E-2    -.1130       -.1298E-2    -.1101   
   -1.730       -.1250E-2    -.1131       -.1290E-2    -.1102   
   -1.720       -.1242E-2    -.1132       -.1282E-2    -.1103   
   -1.710       -.1235E-2    -.1134       -.1274E-2    -.1105   
   -1.700       -.1227E-2    -.1135       -.1266E-2    -.1106   
   -1.690       -.1219E-2    -.1136       -.1258E-2    -.1107   
   -1.680       -.1212E-2    -.1137       -.1250E-2    -.1108   
   -1.670       -.1204E-2    -.1138       -.1243E-2    -.1110   
   -1.660       -.1197E-2    -.1140       -.1235E-2    -.1111   
   -1.650       -.1189E-2    -.1141       -.1227E-2    -.1112   
   -1.640       -.1182E-2    -.1142       -.1219E-2    -.1113   
   -1.630       -.1174E-2    -.1143       -.1211E-2    -.1115   
   -1.620       -.1166E-2    -.1144       -.1204E-2    -.1116   
   -1.610       -.1159E-2    -.1145       -.1196E-2    -.1117   
   -1.600       -.1151E-2    -.1147       -.1188E-2    -.1118   
   -1.590       -.1144E-2    -.1148       -.1180E-2    -.1119   
   -1.580       -.1136E-2    -.1149       -.1173E-2    -.1120   
   -1.570       -.1129E-2    -.1150       -.1165E-2    -.1122   
   -1.560       -.1121E-2    -.1151       -.1157E-2    -.1123   
   -1.550       -.1114E-2    -.1152       -.1149E-2    -.1124   
   -1.540       -.1106E-2    -.1153       -.1142E-2    -.1125   
   -1.530       -.1099E-2    -.1154       -.1134E-2    -.1126   
   -1.520       -.1091E-2    -.1156       -.1126E-2    -.1127   
   -1.510       -.1084E-2    -.1157       -.1118E-2    -.1128   
   -1.500       -.1077E-2    -.1158       -.1111E-2    -.1130   
   -1.490       -.1069E-2    -.1159       -.1103E-2    -.1131   
   -1.480       -.1062E-2    -.1160       -.1095E-2    -.1132   
   -1.470       -.1054E-2    -.1161       -.1088E-2    -.1133   
   -1.460       -.1047E-2    -.1162       -.1080E-2    -.1134   
   -1.450       -.1039E-2    -.1163       -.1072E-2    -.1135   
   -1.440       -.1032E-2    -.1164       -.1065E-2    -.1136   
   -1.430       -.1025E-2    -.1165       -.1057E-2    -.1137   
   -1.420       -.1017E-2    -.1166       -.1049E-2    -.1138   
   -1.410       -.1010E-2    -.1167       -.1042E-2    -.1139   
   -1.400       -.1002E-2    -.1168       -.1034E-2    -.1140   
   -1.390       -.9949E-3    -.1169       -.1026E-2    -.1141   
   -1.380       -.9874E-3    -.1170       -.1019E-2    -.1142   
   -1.370       -.9801E-3    -.1171       -.1011E-2    -.1143   
   -1.360       -.9726E-3    -.1172       -.1003E-2    -.1144   
   -1.350       -.9653E-3    -.1173       -.9959E-3    -.1145   
   -1.340       -.9579E-3    -.1174       -.9881E-3    -.1146   
   -1.330       -.9506E-3    -.1175       -.9807E-3    -.1147   
   -1.320       -.9432E-3    -.1176       -.9730E-3    -.1148   
   -1.310       -.9359E-3    -.1177       -.9654E-3    -.1149   
   -1.300       -.9285E-3    -.1178       -.9578E-3    -.1150   
   -1.290       -.9212E-3    -.1179       -.9502E-3    -.1151   
   -1.280       -.9138E-3    -.1180       -.9427E-3    -.1152   
   -1.270       -.9065E-3    -.1180       -.9351E-3    -.1153   
   -1.260       -.8991E-3    -.1181       -.9275E-3    -.1154   
   -1.250       -.8918E-3    -.1182       -.9199E-3    -.1155   
   -1.240       -.8845E-3    -.1183       -.9124E-3    -.1156   
   -1.230       -.8772E-3    -.1184       -.9048E-3    -.1157   
   -1.220       -.8699E-3    -.1185       -.8973E-3    -.1158   
   -1.210       -.8626E-3    -.1186       -.8897E-3    -.1158   
   -1.200       -.8553E-3    -.1187       -.8822E-3    -.1159   
   -1.190       -.8480E-3    -.1188       -.8746E-3    -.1160   
   -1.180       -.8407E-3    -.1188       -.8671E-3    -.1161   
   -1.170       -.8334E-3    -.1189       -.8596E-3    -.1162   
   -1.160       -.8261E-3    -.1190       -.8521E-3    -.1163   
   -1.150       -.8188E-3    -.1191       -.8446E-3    -.1164   
   -1.140       -.8115E-3    -.1192       -.8370E-3    -.1165   
   -1.130       -.8043E-3    -.1193       -.8296E-3    -.1165   
   -1.120       -.7970E-3    -.1193       -.8220E-3    -.1166   
   -1.110       -.7898E-3    -.1194       -.8146E-3    -.1167   
   -1.100       -.7825E-3    -.1195       -.8070E-3    -.1168   
   -1.090       -.7753E-3    -.1196       -.7996E-3    -.1169   
   -1.080       -.7680E-3    -.1196       -.7921E-3    -.1169   
   -1.070       -.7608E-3    -.1197       -.7846E-3    -.1170   
   -1.060       -.7535E-3    -.1198       -.7771E-3    -.1171   
   -1.050       -.7463E-3    -.1199       -.7697E-3    -.1172   
   -1.040       -.7390E-3    -.1199       -.7622E-3    -.1173   
   -1.030       -.7318E-3    -.1200       -.7548E-3    -.1173   
   -1.020       -.7245E-3    -.1201       -.7472E-3    -.1174   
   -1.010       -.7173E-3    -.1202       -.7398E-3    -.1175   
   -1.000       -.7100E-3    -.1202       -.7323E-3    -.1176   
   -.9900       -.7028E-3    -.1203       -.7249E-3    -.1176   
   -.9800       -.6956E-3    -.1204       -.7174E-3    -.1177   
   -.9700       -.6884E-3    -.1204       -.7100E-3    -.1178   
   -.9600       -.6811E-3    -.1205       -.7025E-3    -.1178   
   -.9500       -.6740E-3    -.1206       -.6951E-3    -.1179   
   -.9400       -.6667E-3    -.1206       -.6877E-3    -.1180   
   -.9300       -.6596E-3    -.1207       -.6803E-3    -.1180   
   -.9200       -.6523E-3    -.1208       -.6729E-3    -.1181   
   -.9100       -.6452E-3    -.1208       -.6654E-3    -.1182   
   -.9000       -.6379E-3    -.1209       -.6580E-3    -.1182   
   -.8900       -.6308E-3    -.1210       -.6506E-3    -.1183   
   -.8800       -.6236E-3    -.1210       -.6432E-3    -.1184   
   -.8700       -.6164E-3    -.1211       -.6358E-3    -.1184   
   -.8600       -.6092E-3    -.1211       -.6283E-3    -.1185   
   -.8500       -.6021E-3    -.1212       -.6210E-3    -.1186   
   -.8400       -.5949E-3    -.1213       -.6135E-3    -.1186   
   -.8300       -.5877E-3    -.1213       -.6062E-3    -.1187   
   -.8200       -.5806E-3    -.1214       -.5987E-3    -.1187   
   -.8100       -.5734E-3    -.1214       -.5914E-3    -.1188   
   -.8000       -.5662E-3    -.1215       -.5839E-3    -.1189   
   -.7900       -.5591E-3    -.1216       -.5766E-3    -.1189   
   -.7800       -.5519E-3    -.1216       -.5692E-3    -.1190   
   -.7700       -.5448E-3    -.1217       -.5619E-3    -.1190   
   -.7600       -.5376E-3    -.1217       -.5544E-3    -.1191   
   -.7500       -.5305E-3    -.1218       -.5471E-3    -.1191   
   -.7400       -.5234E-3    -.1218       -.5397E-3    -.1192   
   -.7300       -.5163E-3    -.1219       -.5324E-3    -.1193   
   -.7200       -.5091E-3    -.1219       -.5250E-3    -.1193   
   -.7100       -.5020E-3    -.1220       -.5177E-3    -.1194   
   -.7000       -.4949E-3    -.1220       -.5103E-3    -.1194   
   -.6900       -.4878E-3    -.1221       -.5030E-3    -.1195   
   -.6800       -.4806E-3    -.1221       -.4956E-3    -.1195   
   -.6700       -.4735E-3    -.1222       -.4883E-3    -.1196   
   -.6600       -.4664E-3    -.1222       -.4809E-3    -.1196   
   -.6500       -.4593E-3    -.1223       -.4736E-3    -.1197   
   -.6400       -.4522E-3    -.1223       -.4662E-3    -.1197   
   -.6300       -.4451E-3    -.1224       -.4589E-3    -.1198   
   -.6200       -.4380E-3    -.1224       -.4516E-3    -.1198   
   -.6100       -.4308E-3    -.1225       -.4443E-3    -.1198   
   -.6000       -.4237E-3    -.1225       -.4369E-3    -.1199   
   -.5900       -.4166E-3    -.1225       -.4296E-3    -.1199   
   -.5800       -.4095E-3    -.1226       -.4223E-3    -.1200   
   -.5700       -.4024E-3    -.1226       -.4150E-3    -.1200   
   -.5600       -.3953E-3    -.1227       -.4076E-3    -.1201   
   -.5500       -.3882E-3    -.1227       -.4003E-3    -.1201   
   -.5400       -.3811E-3    -.1227       -.3930E-3    -.1201   
   -.5300       -.3740E-3    -.1228       -.3857E-3    -.1202   
   -.5200       -.3669E-3    -.1228       -.3784E-3    -.1202   
   -.5100       -.3598E-3    -.1228       -.3711E-3    -.1202   
   -.5000       -.3527E-3    -.1229       -.3638E-3    -.1203   
   -.4900       -.3457E-3    -.1229       -.3565E-3    -.1203   
   -.4800       -.3386E-3    -.1229       -.3492E-3    -.1204   
   -.4700       -.3315E-3    -.1230       -.3418E-3    -.1204   
   -.4600       -.3244E-3    -.1230       -.3346E-3    -.1204   
   -.4500       -.3173E-3    -.1230       -.3272E-3    -.1205   
   -.4400       -.3103E-3    -.1231       -.3199E-3    -.1205   
   -.4300       -.3032E-3    -.1231       -.3127E-3    -.1205   
   -.4200       -.2961E-3    -.1231       -.3053E-3    -.1205   
   -.4100       -.2890E-3    -.1232       -.2981E-3    -.1206   
   -.4000       -.2820E-3    -.1232       -.2907E-3    -.1206   
   -.3900       -.2749E-3    -.1232       -.2835E-3    -.1206   
   -.3800       -.2678E-3    -.1232       -.2762E-3    -.1207   
   -.3700       -.2608E-3    -.1233       -.2689E-3    -.1207   
   -.3600       -.2537E-3    -.1233       -.2616E-3    -.1207   
   -.3500       -.2466E-3    -.1233       -.2543E-3    -.1207   
   -.3400       -.2396E-3    -.1233       -.2470E-3    -.1208   
   -.3300       -.2325E-3    -.1234       -.2398E-3    -.1208   
   -.3200       -.2255E-3    -.1234       -.2325E-3    -.1208   
   -.3100       -.2184E-3    -.1234       -.2252E-3    -.1208   
   -.3000       -.2114E-3    -.1234       -.2179E-3    -.1209   
   -.2900       -.2043E-3    -.1235       -.2106E-3    -.1209   
   -.2800       -.1973E-3    -.1235       -.2034E-3    -.1209   
   -.2700       -.1902E-3    -.1235       -.1961E-3    -.1209   
   -.2600       -.1832E-3    -.1235       -.1889E-3    -.1209   
   -.2500       -.1761E-3    -.1235       -.1816E-3    -.1210   
   -.2400       -.1691E-3    -.1236       -.1743E-3    -.1210   
   -.2300       -.1620E-3    -.1236       -.1670E-3    -.1210   
   -.2200       -.1550E-3    -.1236       -.1598E-3    -.1210   
   -.2100       -.1479E-3    -.1236       -.1525E-3    -.1210   
   -.2000       -.1409E-3    -.1236       -.1452E-3    -.1210   
   -.1900       -.1338E-3    -.1236       -.1380E-3    -.1211   
   -.1800       -.1268E-3    -.1236       -.1307E-3    -.1211   
   -.1700       -.1197E-3    -.1237       -.1234E-3    -.1211   
   -.1600       -.1127E-3    -.1237       -.1162E-3    -.1211   
   -.1500       -.1056E-3    -.1237       -.1089E-3    -.1211   
   -.1400       -.9858E-4    -.1237       -.1017E-3    -.1211   
   -.1300       -.9154E-4    -.1237       -.9438E-4    -.1211   
   -.1200       -.8449E-4    -.1237       -.8713E-4    -.1211   
   -.1100       -.7745E-4    -.1237       -.7986E-4    -.1211   
   -.1000       -.7041E-4    -.1237       -.7260E-4    -.1212   
   -.9000E-1    -.6337E-4    -.1237       -.6534E-4    -.1212   
   -.8000E-1    -.5632E-4    -.1237       -.5808E-4    -.1212   
   -.7000E-1    -.4928E-4    -.1237       -.5082E-4    -.1212   
   -.6000E-1    -.4224E-4    -.1237       -.4356E-4    -.1212   
   -.5000E-1    -.3521E-4    -.1238       -.3629E-4    -.1212   
   -.4000E-1    -.2817E-4    -.1238       -.2904E-4    -.1212   
   -.3000E-1    -.2112E-4    -.1238       -.2178E-4    -.1212   
   -.2000E-1    -.1408E-4    -.1238       -.1452E-4    -.1212   
   -.1000E-1    -.7040E-5    -.1238       -.7260E-5    -.1212   
    0.00        0.787E-10    -.124        0.180E-11    -.121    
   0.1000E-1    0.7040E-5    -.1238       0.7260E-5    -.1212   
   0.2000E-1    0.1408E-4    -.1238       0.1452E-4    -.1212   
   0.3000E-1    0.2112E-4    -.1238       0.2178E-4    -.1212   
   0.4000E-1    0.2816E-4    -.1238       0.2903E-4    -.1212   
   0.5000E-1    0.3520E-4    -.1237       0.3629E-4    -.1212   
   0.6000E-1    0.4225E-4    -.1237       0.4356E-4    -.1212   
   0.7000E-1    0.4929E-4    -.1237       0.5082E-4    -.1212   
   0.8000E-1    0.5633E-4    -.1237       0.5808E-4    -.1212   
   0.9000E-1    0.6337E-4    -.1237       0.6534E-4    -.1212   
   0.1000       0.7041E-4    -.1237       0.7260E-4    -.1212   
   0.1100       0.7746E-4    -.1237       0.7986E-4    -.1211   
   0.1200       0.8450E-4    -.1237       0.8713E-4    -.1211   
   0.1300       0.9154E-4    -.1237       0.9438E-4    -.1211   
   0.1400       0.9858E-4    -.1237       0.1017E-3    -.1211   
   0.1500       0.1056E-3    -.1237       0.1089E-3    -.1211   
   0.1600       0.1127E-3    -.1237       0.1162E-3    -.1211   
   0.1700       0.1197E-3    -.1237       0.1234E-3    -.1211   
   0.1800       0.1268E-3    -.1236       0.1307E-3    -.1211   
   0.1900       0.1338E-3    -.1236       0.1380E-3    -.1211   
   0.2000       0.1409E-3    -.1236       0.1452E-3    -.1210   
   0.2100       0.1479E-3    -.1236       0.1525E-3    -.1210   
   0.2200       0.1550E-3    -.1236       0.1598E-3    -.1210   
   0.2300       0.1620E-3    -.1236       0.1670E-3    -.1210   
   0.2400       0.1691E-3    -.1236       0.1743E-3    -.1210   
   0.2500       0.1761E-3    -.1235       0.1816E-3    -.1210   
   0.2600       0.1832E-3    -.1235       0.1889E-3    -.1209   
   0.2700       0.1902E-3    -.1235       0.1961E-3    -.1209   
   0.2800       0.1973E-3    -.1235       0.2034E-3    -.1209   
   0.2900       0.2043E-3    -.1235       0.2107E-3    -.1209   
   0.3000       0.2114E-3    -.1234       0.2180E-3    -.1209   
   0.3100       0.2184E-3    -.1234       0.2252E-3    -.1208   
   0.3200       0.2255E-3    -.1234       0.2325E-3    -.1208   
   0.3300       0.2326E-3    -.1234       0.2398E-3    -.1208   
   0.3400       0.2396E-3    -.1234       0.2471E-3    -.1208   
   0.3500       0.2467E-3    -.1233       0.2544E-3    -.1208   
   0.3600       0.2538E-3    -.1233       0.2616E-3    -.1207   
   0.3700       0.2608E-3    -.1233       0.2689E-3    -.1207   
   0.3800       0.2679E-3    -.1233       0.2762E-3    -.1207   
   0.3900       0.2749E-3    -.1232       0.2835E-3    -.1206   
   0.4000       0.2820E-3    -.1232       0.2908E-3    -.1206   
   0.4100       0.2891E-3    -.1232       0.2981E-3    -.1206   
   0.4200       0.2961E-3    -.1231       0.3054E-3    -.1206   
   0.4300       0.3032E-3    -.1231       0.3127E-3    -.1205   
   0.4400       0.3103E-3    -.1231       0.3200E-3    -.1205   
   0.4500       0.3174E-3    -.1230       0.3273E-3    -.1205   
   0.4600       0.3244E-3    -.1230       0.3346E-3    -.1204   
   0.4700       0.3315E-3    -.1230       0.3418E-3    -.1204   
   0.4800       0.3386E-3    -.1229       0.3492E-3    -.1204   
   0.4900       0.3457E-3    -.1229       0.3564E-3    -.1203   
   0.5000       0.3527E-3    -.1229       0.3638E-3    -.1203   
   0.5100       0.3598E-3    -.1228       0.3711E-3    -.1202   
   0.5200       0.3669E-3    -.1228       0.3784E-3    -.1202   
   0.5300       0.3740E-3    -.1228       0.3857E-3    -.1202   
   0.5400       0.3811E-3    -.1227       0.3930E-3    -.1201   
   0.5500       0.3882E-3    -.1227       0.4003E-3    -.1201   
   0.5600       0.3953E-3    -.1227       0.4076E-3    -.1200   
   0.5700       0.4024E-3    -.1226       0.4150E-3    -.1200   
   0.5800       0.4095E-3    -.1226       0.4222E-3    -.1200   
   0.5900       0.4166E-3    -.1225       0.4296E-3    -.1199   
   0.6000       0.4237E-3    -.1225       0.4369E-3    -.1199   
   0.6100       0.4308E-3    -.1224       0.4443E-3    -.1198   
   0.6200       0.4379E-3    -.1224       0.4516E-3    -.1198   
   0.6300       0.4450E-3    -.1224       0.4589E-3    -.1197   
   0.6400       0.4521E-3    -.1223       0.4663E-3    -.1197   
   0.6500       0.4592E-3    -.1223       0.4736E-3    -.1197   
   0.6600       0.4664E-3    -.1222       0.4809E-3    -.1196   
   0.6700       0.4735E-3    -.1222       0.4882E-3    -.1196   
   0.6800       0.4806E-3    -.1221       0.4956E-3    -.1195   
   0.6900       0.4878E-3    -.1221       0.5029E-3    -.1195   
   0.7000       0.4949E-3    -.1220       0.5103E-3    -.1194   
   0.7100       0.5020E-3    -.1220       0.5176E-3    -.1194   
   0.7200       0.5091E-3    -.1219       0.5250E-3    -.1193   
   0.7300       0.5163E-3    -.1219       0.5324E-3    -.1193   
   0.7400       0.5234E-3    -.1218       0.5398E-3    -.1192   
   0.7500       0.5306E-3    -.1218       0.5471E-3    -.1191   
   0.7600       0.5377E-3    -.1217       0.5545E-3    -.1191   
   0.7700       0.5449E-3    -.1217       0.5619E-3    -.1190   
   0.7800       0.5520E-3    -.1216       0.5692E-3    -.1190   
   0.7900       0.5592E-3    -.1216       0.5766E-3    -.1189   
   0.8000       0.5663E-3    -.1215       0.5840E-3    -.1189   
   0.8100       0.5735E-3    -.1214       0.5914E-3    -.1188   
   0.8200       0.5806E-3    -.1214       0.5988E-3    -.1187   
   0.8300       0.5878E-3    -.1213       0.6062E-3    -.1187   
   0.8400       0.5950E-3    -.1213       0.6136E-3    -.1186   
   0.8500       0.6021E-3    -.1212       0.6210E-3    -.1186   
   0.8600       0.6093E-3    -.1212       0.6284E-3    -.1185   
   0.8700       0.6165E-3    -.1211       0.6357E-3    -.1184   
   0.8800       0.6237E-3    -.1210       0.6432E-3    -.1184   
   0.8900       0.6308E-3    -.1210       0.6506E-3    -.1183   
   0.9000       0.6380E-3    -.1209       0.6580E-3    -.1182   
   0.9100       0.6452E-3    -.1208       0.6654E-3    -.1182   
   0.9200       0.6524E-3    -.1208       0.6728E-3    -.1181   
   0.9300       0.6596E-3    -.1207       0.6803E-3    -.1180   
   0.9400       0.6668E-3    -.1206       0.6877E-3    -.1180   
   0.9500       0.6740E-3    -.1206       0.6951E-3    -.1179   
   0.9600       0.6812E-3    -.1205       0.7026E-3    -.1178   
   0.9700       0.6884E-3    -.1204       0.7100E-3    -.1178   
   0.9800       0.6955E-3    -.1204       0.7174E-3    -.1177   
   0.9900       0.7028E-3    -.1203       0.7249E-3    -.1176   
    1.000       0.7099E-3    -.1202       0.7323E-3    -.1176   
    1.010       0.7172E-3    -.1202       0.7398E-3    -.1175   
    1.020       0.7244E-3    -.1201       0.7472E-3    -.1174   
    1.030       0.7317E-3    -.1200       0.7547E-3    -.1173   
    1.040       0.7388E-3    -.1199       0.7621E-3    -.1173   
    1.050       0.7461E-3    -.1199       0.7696E-3    -.1172   
    1.060       0.7533E-3    -.1198       0.7770E-3    -.1171   
    1.070       0.7606E-3    -.1197       0.7846E-3    -.1170   
    1.080       0.7678E-3    -.1196       0.7920E-3    -.1169   
    1.090       0.7751E-3    -.1196       0.7995E-3    -.1169   
    1.100       0.7824E-3    -.1195       0.8069E-3    -.1168   
    1.110       0.7896E-3    -.1194       0.8145E-3    -.1167   
    1.120       0.7969E-3    -.1193       0.8219E-3    -.1166   
    1.130       0.8042E-3    -.1192       0.8295E-3    -.1165   
    1.140       0.8115E-3    -.1192       0.8369E-3    -.1164   
    1.150       0.8188E-3    -.1191       0.8446E-3    -.1164   
    1.160       0.8261E-3    -.1190       0.8520E-3    -.1163   
    1.170       0.8334E-3    -.1189       0.8596E-3    -.1162   
    1.180       0.8407E-3    -.1188       0.8671E-3    -.1161   
    1.190       0.8480E-3    -.1188       0.8747E-3    -.1160   
    1.200       0.8552E-3    -.1187       0.8822E-3    -.1159   
    1.210       0.8626E-3    -.1186       0.8897E-3    -.1158   
    1.220       0.8698E-3    -.1185       0.8973E-3    -.1158   
    1.230       0.8772E-3    -.1184       0.9048E-3    -.1157   
    1.240       0.8844E-3    -.1183       0.9124E-3    -.1156   
    1.250       0.8918E-3    -.1182       0.9199E-3    -.1155   
    1.260       0.8991E-3    -.1181       0.9275E-3    -.1154   
    1.270       0.9065E-3    -.1181       0.9351E-3    -.1153   
    1.280       0.9138E-3    -.1180       0.9427E-3    -.1152   
    1.290       0.9212E-3    -.1179       0.9503E-3    -.1151   
    1.300       0.9285E-3    -.1178       0.9578E-3    -.1150   
    1.310       0.9359E-3    -.1177       0.9655E-3    -.1149   
    1.320       0.9432E-3    -.1176       0.9730E-3    -.1148   
    1.330       0.9506E-3    -.1175       0.9807E-3    -.1147   
    1.340       0.9580E-3    -.1174       0.9882E-3    -.1146   
    1.350       0.9653E-3    -.1173       0.9959E-3    -.1145   
    1.360       0.9727E-3    -.1172       0.1003E-2    -.1144   
    1.370       0.9801E-3    -.1171       0.1011E-2    -.1143   
    1.380       0.9875E-3    -.1170       0.1019E-2    -.1142   
    1.390       0.9949E-3    -.1169       0.1026E-2    -.1141   
    1.400       0.1002E-2    -.1168       0.1034E-2    -.1140   
    1.410       0.1010E-2    -.1167       0.1042E-2    -.1139   
    1.420       0.1017E-2    -.1166       0.1049E-2    -.1138   
    1.430       0.1024E-2    -.1165       0.1057E-2    -.1137   
    1.440       0.1032E-2    -.1164       0.1065E-2    -.1136   
    1.450       0.1039E-2    -.1163       0.1072E-2    -.1135   
    1.460       0.1047E-2    -.1162       0.1080E-2    -.1134   
    1.470       0.1054E-2    -.1161       0.1088E-2    -.1133   
    1.480       0.1062E-2    -.1160       0.1095E-2    -.1132   
    1.490       0.1069E-2    -.1159       0.1103E-2    -.1131   
    1.500       0.1076E-2    -.1158       0.1111E-2    -.1130   
    1.510       0.1084E-2    -.1157       0.1118E-2    -.1128   
    1.520       0.1091E-2    -.1155       0.1126E-2    -.1127   
    1.530       0.1099E-2    -.1154       0.1134E-2    -.1126   
    1.540       0.1106E-2    -.1153       0.1142E-2    -.1125   
    1.550       0.1114E-2    -.1152       0.1149E-2    -.1124   
    1.560       0.1121E-2    -.1151       0.1157E-2    -.1123   
    1.570       0.1129E-2    -.1150       0.1165E-2    -.1122   
    1.580       0.1136E-2    -.1149       0.1172E-2    -.1120   
    1.590       0.1144E-2    -.1148       0.1180E-2    -.1119   
    1.600       0.1151E-2    -.1147       0.1188E-2    -.1118   
    1.610       0.1159E-2    -.1145       0.1196E-2    -.1117   
    1.620       0.1167E-2    -.1144       0.1204E-2    -.1116   
    1.630       0.1174E-2    -.1143       0.1211E-2    -.1114   
    1.640       0.1182E-2    -.1142       0.1219E-2    -.1113   
    1.650       0.1189E-2    -.1141       0.1227E-2    -.1112   
    1.660       0.1197E-2    -.1140       0.1235E-2    -.1111   
    1.670       0.1204E-2    -.1138       0.1243E-2    -.1110   
    1.680       0.1212E-2    -.1137       0.1250E-2    -.1108   
    1.690       0.1219E-2    -.1136       0.1258E-2    -.1107   
    1.700       0.1227E-2    -.1135       0.1266E-2    -.1106   
    1.710       0.1234E-2    -.1133       0.1274E-2    -.1104   
    1.720       0.1242E-2    -.1132       0.1282E-2    -.1103   
    1.730       0.1250E-2    -.1131       0.1290E-2    -.1102   
    1.740       0.1257E-2    -.1130       0.1298E-2    -.1101   
    1.750       0.1265E-2    -.1129       0.1305E-2    -.1099   
    1.760       0.1273E-2    -.1127       0.1313E-2    -.1098   
    1.770       0.1280E-2    -.1126       0.1321E-2    -.1097   
    1.780       0.1288E-2    -.1125       0.1329E-2    -.1096   
    1.790       0.1295E-2    -.1123       0.1337E-2    -.1094   
    1.800       0.1303E-2    -.1122       0.1345E-2    -.1093   
    1.810       0.1311E-2    -.1121       0.1353E-2    -.1091   
    1.820       0.1318E-2    -.1120       0.1361E-2    -.1090   
    1.830       0.1326E-2    -.1118       0.1369E-2    -.1089   
    1.840       0.1334E-2    -.1117       0.1377E-2    -.1087   
    1.850       0.1341E-2    -.1116       0.1385E-2    -.1086   
    1.860       0.1349E-2    -.1114       0.1393E-2    -.1085   
    1.870       0.1357E-2    -.1113       0.1401E-2    -.1083   
    1.880       0.1364E-2    -.1111       0.1408E-2    -.1082   
    1.890       0.1372E-2    -.1110       0.1416E-2    -.1080   
    1.900       0.1380E-2    -.1109       0.1424E-2    -.1079   
    1.910       0.1388E-2    -.1107       0.1432E-2    -.1078   
    1.920       0.1395E-2    -.1106       0.1440E-2    -.1076   
    1.930       0.1403E-2    -.1105       0.1448E-2    -.1075   
    1.940       0.1411E-2    -.1103       0.1456E-2    -.1073   
    1.950       0.1419E-2    -.1102       0.1464E-2    -.1072   
    1.960       0.1426E-2    -.1100       0.1472E-2    -.1070   
    1.970       0.1434E-2    -.1099       0.1480E-2    -.1069   
    1.980       0.1442E-2    -.1097       0.1489E-2    -.1067   
    1.990       0.1450E-2    -.1096       0.1497E-2    -.1066   
    2.000       0.1458E-2    -.1095       0.1505E-2    -.1064   
    2.010       0.1465E-2    -.1093       0.1513E-2    -.1063   
    2.020       0.1473E-2    -.1092       0.1521E-2    -.1061   
    2.030       0.1481E-2    -.1090       0.1529E-2    -.1060   
    2.040       0.1489E-2    -.1089       0.1537E-2    -.1058   
    2.050       0.1497E-2    -.1087       0.1545E-2    -.1057   
    2.060       0.1505E-2    -.1086       0.1553E-2    -.1055   
    2.070       0.1512E-2    -.1084       0.1561E-2    -.1054   
    2.080       0.1520E-2    -.1083       0.1570E-2    -.1052   
    2.090       0.1528E-2    -.1081       0.1578E-2    -.1050   
    2.100       0.1536E-2    -.1080       0.1586E-2    -.1049   
    2.110       0.1544E-2    -.1078       0.1594E-2    -.1047   
    2.120       0.1552E-2    -.1077       0.1602E-2    -.1046   
    2.130       0.1560E-2    -.1075       0.1610E-2    -.1044   
    2.140       0.1568E-2    -.1073       0.1619E-2    -.1043   
    2.150       0.1576E-2    -.1072       0.1627E-2    -.1041   
    2.160       0.1583E-2    -.1070       0.1635E-2    -.1039   
    2.170       0.1592E-2    -.1069       0.1643E-2    -.1038   
    2.180       0.1599E-2    -.1067       0.1651E-2    -.1036   
    2.190       0.1607E-2    -.1066       0.1660E-2    -.1034   
    2.200       0.1615E-2    -.1064       0.1668E-2    -.1033   
    2.210       0.1623E-2    -.1062       0.1676E-2    -.1031   
    2.220       0.1631E-2    -.1061       0.1684E-2    -.1029   
    2.230       0.1639E-2    -.1059       0.1693E-2    -.1028   
    2.240       0.1647E-2    -.1057       0.1701E-2    -.1026   
    2.250       0.1655E-2    -.1056       0.1709E-2    -.1024   
    2.260       0.1663E-2    -.1054       0.1718E-2    -.1023   
    2.270       0.1671E-2    -.1052       0.1726E-2    -.1021   
    2.280       0.1680E-2    -.1051       0.1734E-2    -.1019   
    2.290       0.1687E-2    -.1049       0.1743E-2    -.1017   
    2.300       0.1696E-2    -.1047       0.1751E-2    -.1016   
    2.310       0.1703E-2    -.1046       0.1759E-2    -.1014   
    2.320       0.1712E-2    -.1044       0.1768E-2    -.1012   
    2.330       0.1720E-2    -.1042       0.1776E-2    -.1010   
    2.340       0.1728E-2    -.1041       0.1785E-2    -.1009   
    2.350       0.1736E-2    -.1039       0.1793E-2    -.1007   
    2.360       0.1744E-2    -.1037       0.1802E-2    -.1005   
    2.370       0.1752E-2    -.1035       0.1810E-2    -.1003   
    2.380       0.1760E-2    -.1034       0.1818E-2    -.1001   
    2.390       0.1769E-2    -.1032       0.1827E-2    -.9995E-1
    2.400       0.1777E-2    -.1030       0.1835E-2    -.9977E-1
    2.410       0.1785E-2    -.1028       0.1844E-2    -.9959E-1
    2.420       0.1793E-2    -.1026       0.1852E-2    -.9940E-1
    2.430       0.1801E-2    -.1025       0.1861E-2    -.9922E-1
    2.440       0.1809E-2    -.1023       0.1869E-2    -.9903E-1
    2.450       0.1818E-2    -.1021       0.1878E-2    -.9885E-1
    2.460       0.1826E-2    -.1019       0.1886E-2    -.9866E-1
    2.470       0.1834E-2    -.1017       0.1895E-2    -.9847E-1
    2.480       0.1842E-2    -.1016       0.1903E-2    -.9828E-1
    2.490       0.1851E-2    -.1014       0.1912E-2    -.9809E-1
    2.500       0.1859E-2    -.1012       0.1920E-2    -.9790E-1
    2.510       0.1867E-2    -.1010       0.1929E-2    -.9770E-1
    2.520       0.1875E-2    -.1008       0.1938E-2    -.9751E-1
    2.530       0.1884E-2    -.1006       0.1946E-2    -.9732E-1
    2.540       0.1892E-2    -.1004       0.1955E-2    -.9712E-1
    2.550       0.1901E-2    -.1002       0.1963E-2    -.9693E-1
    2.560       0.1909E-2    -.1001       0.1972E-2    -.9673E-1
    2.570       0.1917E-2    -.9987E-1    0.1981E-2    -.9653E-1
    2.580       0.1926E-2    -.9968E-1    0.1989E-2    -.9633E-1
    2.590       0.1934E-2    -.9948E-1    0.1998E-2    -.9614E-1
    2.600       0.1942E-2    -.9929E-1    0.2007E-2    -.9593E-1
    2.610       0.1951E-2    -.9909E-1    0.2016E-2    -.9574E-1
    2.620       0.1959E-2    -.9890E-1    0.2024E-2    -.9553E-1
    2.630       0.1968E-2    -.9870E-1    0.2033E-2    -.9533E-1
    2.640       0.1976E-2    -.9851E-1    0.2042E-2    -.9513E-1
    2.650       0.1985E-2    -.9831E-1    0.2051E-2    -.9492E-1
    2.660       0.1993E-2    -.9811E-1    0.2059E-2    -.9472E-1
    2.670       0.2002E-2    -.9791E-1    0.2068E-2    -.9451E-1
    2.680       0.2010E-2    -.9771E-1    0.2077E-2    -.9431E-1
    2.690       0.2019E-2    -.9751E-1    0.2086E-2    -.9410E-1
    2.700       0.2027E-2    -.9731E-1    0.2095E-2    -.9389E-1
    2.710       0.2036E-2    -.9711E-1    0.2103E-2    -.9368E-1
    2.720       0.2044E-2    -.9690E-1    0.2112E-2    -.9347E-1
    2.730       0.2053E-2    -.9670E-1    0.2121E-2    -.9326E-1
    2.740       0.2061E-2    -.9649E-1    0.2130E-2    -.9304E-1
    2.750       0.2070E-2    -.9629E-1    0.2139E-2    -.9283E-1
    2.760       0.2078E-2    -.9608E-1    0.2148E-2    -.9262E-1
    2.770       0.2087E-2    -.9587E-1    0.2157E-2    -.9240E-1
    2.780       0.2095E-2    -.9566E-1    0.2166E-2    -.9219E-1
    2.790       0.2104E-2    -.9545E-1    0.2175E-2    -.9197E-1
    2.800       0.2113E-2    -.9524E-1    0.2183E-2    -.9175E-1
    2.810       0.2121E-2    -.9503E-1    0.2193E-2    -.9154E-1
    2.820       0.2130E-2    -.9482E-1    0.2201E-2    -.9131E-1
    2.830       0.2139E-2    -.9461E-1    0.2211E-2    -.9110E-1
    2.840       0.2147E-2    -.9439E-1    0.2220E-2    -.9087E-1
    2.850       0.2156E-2    -.9418E-1    0.2229E-2    -.9065E-1
    2.860       0.2165E-2    -.9396E-1    0.2238E-2    -.9043E-1
    2.870       0.2174E-2    -.9375E-1    0.2247E-2    -.9021E-1
    2.880       0.2182E-2    -.9352E-1    0.2256E-2    -.8998E-1
    2.890       0.2191E-2    -.9331E-1    0.2265E-2    -.8976E-1
    2.900       0.2200E-2    -.9309E-1    0.2274E-2    -.8952E-1
    2.910       0.2209E-2    -.9287E-1    0.2283E-2    -.8930E-1
    2.920       0.2217E-2    -.9264E-1    0.2292E-2    -.8907E-1
    2.930       0.2227E-2    -.9243E-1    0.2302E-2    -.8885E-1
    2.940       0.2235E-2    -.9220E-1    0.2310E-2    -.8861E-1
    2.950       0.2244E-2    -.9198E-1    0.2320E-2    -.8838E-1
    2.960       0.2253E-2    -.9175E-1    0.2329E-2    -.8814E-1
    2.970       0.2262E-2    -.9153E-1    0.2339E-2    -.8792E-1
    2.980       0.2270E-2    -.9130E-1    0.2347E-2    -.8768E-1
    2.990       0.2280E-2    -.9108E-1    0.2357E-2    -.8745E-1
    3.000       0.2288E-2    -.9084E-1    0.2366E-2    -.8721E-1
    3.010       0.2298E-2    -.9062E-1    0.2376E-2    -.8698E-1
    3.020       0.2306E-2    -.9039E-1    0.2384E-2    -.8673E-1
    3.030       0.2316E-2    -.9016E-1    0.2394E-2    -.8650E-1
    3.040       0.2324E-2    -.8992E-1    0.2403E-2    -.8626E-1
    3.050       0.2333E-2    -.8970E-1    0.2413E-2    -.8602E-1
    3.060       0.2342E-2    -.8946E-1    0.2422E-2    -.8577E-1
    3.070       0.2351E-2    -.8923E-1    0.2432E-2    -.8554E-1
    3.080       0.2360E-2    -.8899E-1    0.2441E-2    -.8529E-1
    3.090       0.2370E-2    -.8876E-1    0.2451E-2    -.8505E-1
    3.100       0.2379E-2    -.8852E-1    0.2460E-2    -.8480E-1
    3.110       0.2388E-2    -.8828E-1    0.2469E-2    -.8456E-1
    3.120       0.2397E-2    -.8804E-1    0.2478E-2    -.8430E-1
    3.130       0.2406E-2    -.8780E-1    0.2488E-2    -.8406E-1
    3.140       0.2415E-2    -.8756E-1    0.2498E-2    -.8381E-1
    3.150       0.2424E-2    -.8732E-1    0.2507E-2    -.8356E-1
    3.160       0.2434E-2    -.8708E-1    0.2517E-2    -.8331E-1
    3.170       0.2443E-2    -.8684E-1    0.2526E-2    -.8306E-1
    3.180       0.2452E-2    -.8659E-1    0.2536E-2    -.8280E-1
    3.190       0.2461E-2    -.8635E-1    0.2546E-2    -.8255E-1
    3.200       0.2470E-2    -.8610E-1    0.2555E-2    -.8230E-1
    3.210       0.2480E-2    -.8585E-1    0.2565E-2    -.8204E-1
    3.220       0.2489E-2    -.8560E-1    0.2574E-2    -.8179E-1
    3.230       0.2498E-2    -.8536E-1    0.2584E-2    -.8153E-1
    3.240       0.2507E-2    -.8510E-1    0.2594E-2    -.8127E-1
    3.250       0.2517E-2    -.8486E-1    0.2604E-2    -.8101E-1
    3.260       0.2526E-2    -.8460E-1    0.2613E-2    -.8075E-1
    3.270       0.2536E-2    -.8435E-1    0.2623E-2    -.8049E-1
    3.280       0.2545E-2    -.8409E-1    0.2633E-2    -.8022E-1
    3.290       0.2555E-2    -.8384E-1    0.2643E-2    -.7997E-1
    3.300       0.2564E-2    -.8359E-1    0.2652E-2    -.7970E-1
    3.310       0.2573E-2    -.8333E-1    0.2663E-2    -.7944E-1
    3.320       0.2583E-2    -.8307E-1    0.2672E-2    -.7916E-1
    3.330       0.2592E-2    -.8281E-1    0.2682E-2    -.7890E-1
    3.340       0.2602E-2    -.8256E-1    0.2692E-2    -.7863E-1
    3.350       0.2611E-2    -.8229E-1    0.2702E-2    -.7836E-1
    3.360       0.2621E-2    -.8204E-1    0.2712E-2    -.7809E-1
    3.370       0.2630E-2    -.8177E-1    0.2722E-2    -.7782E-1
    3.380       0.2640E-2    -.8151E-1    0.2732E-2    -.7755E-1
    3.390       0.2650E-2    -.8124E-1    0.2742E-2    -.7728E-1
    3.400       0.2660E-2    -.8098E-1    0.2752E-2    -.7700E-1
    3.410       0.2669E-2    -.8071E-1    0.2762E-2    -.7673E-1
    3.420       0.2679E-2    -.8045E-1    0.2772E-2    -.7645E-1
    3.430       0.2688E-2    -.8018E-1    0.2782E-2    -.7617E-1
    3.440       0.2698E-2    -.7991E-1    0.2792E-2    -.7590E-1
    3.450       0.2708E-2    -.7964E-1    0.2802E-2    -.7561E-1
    3.460       0.2718E-2    -.7937E-1    0.2813E-2    -.7534E-1
    3.470       0.2727E-2    -.7909E-1    0.2822E-2    -.7505E-1
    3.480       0.2737E-2    -.7882E-1    0.2833E-2    -.7477E-1
    3.490       0.2747E-2    -.7855E-1    0.2843E-2    -.7449E-1
    3.500       0.2757E-2    -.7827E-1    0.2853E-2    -.7420E-1
    3.510       0.2767E-2    -.7800E-1    0.2863E-2    -.7392E-1
    3.520       0.2776E-2    -.7772E-1    0.2874E-2    -.7363E-1
    3.530       0.2787E-2    -.7744E-1    0.2884E-2    -.7334E-1
    3.540       0.2796E-2    -.7716E-1    0.2895E-2    -.7305E-1
    3.550       0.2806E-2    -.7689E-1    0.2905E-2    -.7276E-1
    3.560       0.2816E-2    -.7660E-1    0.2915E-2    -.7247E-1
    3.570       0.2826E-2    -.7632E-1    0.2926E-2    -.7218E-1
    3.580       0.2836E-2    -.7604E-1    0.2936E-2    -.7189E-1
    3.590       0.2846E-2    -.7575E-1    0.2947E-2    -.7160E-1
    3.600       0.2856E-2    -.7547E-1    0.2957E-2    -.7130E-1
    3.610       0.2867E-2    -.7518E-1    0.2968E-2    -.7101E-1
    3.620       0.2877E-2    -.7490E-1    0.2978E-2    -.7071E-1
    3.630       0.2887E-2    -.7461E-1    0.2989E-2    -.7041E-1
    3.640       0.2897E-2    -.7432E-1    0.2999E-2    -.7011E-1
    3.650       0.2907E-2    -.7403E-1    0.3010E-2    -.6981E-1
    3.660       0.2917E-2    -.7374E-1    0.3021E-2    -.6951E-1
    3.670       0.2928E-2    -.7345E-1    0.3031E-2    -.6921E-1
    3.680       0.2938E-2    -.7316E-1    0.3042E-2    -.6890E-1
    3.690       0.2948E-2    -.7286E-1    0.3053E-2    -.6860E-1
    3.700       0.2959E-2    -.7257E-1    0.3064E-2    -.6829E-1
    3.710       0.2969E-2    -.7227E-1    0.3074E-2    -.6799E-1
    3.720       0.2979E-2    -.7197E-1    0.3085E-2    -.6768E-1
    3.730       0.2990E-2    -.7168E-1    0.3096E-2    -.6737E-1
    3.740       0.3000E-2    -.7138E-1    0.3107E-2    -.6706E-1
    3.750       0.3011E-2    -.7108E-1    0.3118E-2    -.6675E-1
    3.760       0.3021E-2    -.7078E-1    0.3129E-2    -.6644E-1
    3.770       0.3032E-2    -.7048E-1    0.3140E-2    -.6613E-1
    3.780       0.3042E-2    -.7017E-1    0.3151E-2    -.6581E-1
    3.790       0.3053E-2    -.6987E-1    0.3162E-2    -.6550E-1
    3.800       0.3064E-2    -.6956E-1    0.3173E-2    -.6518E-1
    3.810       0.3074E-2    -.6926E-1    0.3184E-2    -.6486E-1
    3.820       0.3085E-2    -.6895E-1    0.3195E-2    -.6454E-1
    3.830       0.3096E-2    -.6864E-1    0.3206E-2    -.6423E-1
    3.840       0.3106E-2    -.6833E-1    0.3217E-2    -.6390E-1
    3.850       0.3117E-2    -.6802E-1    0.3229E-2    -.6358E-1
    3.860       0.3128E-2    -.6771E-1    0.3240E-2    -.6326E-1
    3.870       0.3139E-2    -.6740E-1    0.3251E-2    -.6294E-1
    3.880       0.3150E-2    -.6708E-1    0.3263E-2    -.6261E-1
    3.890       0.3161E-2    -.6677E-1    0.3274E-2    -.6229E-1
    3.900       0.3171E-2    -.6645E-1    0.3285E-2    -.6196E-1
    3.910       0.3183E-2    -.6613E-1    0.3297E-2    -.6163E-1
    3.920       0.3193E-2    -.6581E-1    0.3308E-2    -.6130E-1
    3.930       0.3205E-2    -.6549E-1    0.3320E-2    -.6097E-1
    3.940       0.3216E-2    -.6517E-1    0.3331E-2    -.6064E-1
    3.950       0.3227E-2    -.6485E-1    0.3343E-2    -.6031E-1
    3.960       0.3238E-2    -.6453E-1    0.3355E-2    -.5997E-1
    3.970       0.3249E-2    -.6420E-1    0.3367E-2    -.5963E-1
    3.980       0.3260E-2    -.6388E-1    0.3378E-2    -.5930E-1
    3.990       0.3271E-2    -.6355E-1    0.3390E-2    -.5896E-1
    4.000       0.3283E-2    -.6323E-1    0.3401E-2    -.5862E-1
    4.010       0.3294E-2    -.6290E-1    0.3413E-2    -.5828E-1
    4.020       0.3305E-2    -.6257E-1    0.3425E-2    -.5794E-1
    4.030       0.3317E-2    -.6224E-1    0.3437E-2    -.5760E-1
    4.040       0.3328E-2    -.6190E-1    0.3449E-2    -.5725E-1
    4.050       0.3340E-2    -.6157E-1    0.3461E-2    -.5691E-1
    4.060       0.3351E-2    -.6124E-1    0.3473E-2    -.5656E-1
    4.070       0.3363E-2    -.6090E-1    0.3485E-2    -.5621E-1
    4.080       0.3374E-2    -.6057E-1    0.3497E-2    -.5586E-1
    4.090       0.3386E-2    -.6023E-1    0.3509E-2    -.5551E-1
    4.100       0.3398E-2    -.5989E-1    0.3522E-2    -.5516E-1
    4.110       0.3410E-2    -.5955E-1    0.3534E-2    -.5481E-1
    4.120       0.3421E-2    -.5921E-1    0.3546E-2    -.5446E-1
    4.130       0.3433E-2    -.5887E-1    0.3559E-2    -.5410E-1
    4.140       0.3445E-2    -.5852E-1    0.3571E-2    -.5375E-1
    4.150       0.3457E-2    -.5818E-1    0.3584E-2    -.5339E-1
    4.160       0.3469E-2    -.5783E-1    0.3596E-2    -.5303E-1
    4.170       0.3481E-2    -.5749E-1    0.3609E-2    -.5267E-1
    4.180       0.3493E-2    -.5714E-1    0.3621E-2    -.5231E-1
    4.190       0.3506E-2    -.5679E-1    0.3634E-2    -.5195E-1
    4.200       0.3518E-2    -.5644E-1    0.3646E-2    -.5158E-1
    4.210       0.3530E-2    -.5609E-1    0.3659E-2    -.5122E-1
    4.220       0.3543E-2    -.5574E-1    0.3672E-2    -.5085E-1
    4.230       0.3555E-2    -.5538E-1    0.3685E-2    -.5049E-1
    4.240       0.3567E-2    -.5503E-1    0.3698E-2    -.5012E-1
    4.250       0.3580E-2    -.5467E-1    0.3711E-2    -.4975E-1
    4.260       0.3592E-2    -.5431E-1    0.3724E-2    -.4938E-1
    4.270       0.3605E-2    -.5395E-1    0.3737E-2    -.4900E-1
    4.280       0.3618E-2    -.5359E-1    0.3750E-2    -.4863E-1
    4.290       0.3630E-2    -.5323E-1    0.3764E-2    -.4826E-1
    4.300       0.3643E-2    -.5287E-1    0.3777E-2    -.4788E-1
    4.310       0.3656E-2    -.5250E-1    0.3790E-2    -.4750E-1
    4.320       0.3669E-2    -.5214E-1    0.3804E-2    -.4712E-1
    4.330       0.3682E-2    -.5177E-1    0.3818E-2    -.4674E-1
    4.340       0.3695E-2    -.5140E-1    0.3831E-2    -.4636E-1
    4.350       0.3708E-2    -.5103E-1    0.3845E-2    -.4598E-1
    4.360       0.3722E-2    -.5066E-1    0.3859E-2    -.4559E-1
    4.370       0.3735E-2    -.5029E-1    0.3873E-2    -.4521E-1
    4.380       0.3748E-2    -.4992E-1    0.3887E-2    -.4482E-1
    4.390       0.3762E-2    -.4954E-1    0.3900E-2    -.4443E-1
    4.400       0.3775E-2    -.4916E-1    0.3915E-2    -.4404E-1
    4.410       0.3789E-2    -.4879E-1    0.3929E-2    -.4365E-1
    4.420       0.3803E-2    -.4841E-1    0.3943E-2    -.4326E-1
    4.430       0.3816E-2    -.4803E-1    0.3957E-2    -.4286E-1
    4.440       0.3830E-2    -.4765E-1    0.3972E-2    -.4247E-1
    4.450       0.3844E-2    -.4726E-1    0.3986E-2    -.4207E-1
    4.460       0.3858E-2    -.4688E-1    0.4001E-2    -.4167E-1
    4.470       0.3872E-2    -.4649E-1    0.4016E-2    -.4127E-1
    4.480       0.3887E-2    -.4611E-1    0.4031E-2    -.4087E-1
    4.490       0.3901E-2    -.4572E-1    0.4045E-2    -.4047E-1
    4.500       0.3916E-2    -.4533E-1    0.4061E-2    -.4006E-1
    4.510       0.3930E-2    -.4493E-1    0.4076E-2    -.3966E-1
    4.520       0.3945E-2    -.4454E-1    0.4091E-2    -.3925E-1
    4.530       0.3960E-2    -.4415E-1    0.4106E-2    -.3884E-1
    4.540       0.3975E-2    -.4375E-1    0.4122E-2    -.3843E-1
    4.550       0.3990E-2    -.4335E-1    0.4137E-2    -.3802E-1
    4.560       0.4005E-2    -.4296E-1    0.4153E-2    -.3760E-1
    4.570       0.4020E-2    -.4255E-1    0.4169E-2    -.3719E-1
    4.580       0.4036E-2    -.4215E-1    0.4185E-2    -.3677E-1
    4.590       0.4051E-2    -.4175E-1    0.4201E-2    -.3635E-1
    4.600       0.4067E-2    -.4134E-1    0.4218E-2    -.3593E-1
    4.610       0.4083E-2    -.4094E-1    0.4234E-2    -.3551E-1
    4.620       0.4099E-2    -.4053E-1    0.4251E-2    -.3509E-1
    4.630       0.4115E-2    -.4012E-1    0.4267E-2    -.3466E-1
    4.640       0.4132E-2    -.3971E-1    0.4284E-2    -.3424E-1
    4.650       0.4148E-2    -.3929E-1    0.4301E-2    -.3381E-1
    4.660       0.4165E-2    -.3888E-1    0.4319E-2    -.3338E-1
    4.670       0.4182E-2    -.3846E-1    0.4336E-2    -.3295E-1
    4.680       0.4199E-2    -.3805E-1    0.4354E-2    -.3251E-1
    4.690       0.4216E-2    -.3763E-1    0.4371E-2    -.3208E-1
    4.700       0.4234E-2    -.3721E-1    0.4390E-2    -.3164E-1
    4.710       0.4252E-2    -.3678E-1    0.4408E-2    -.3120E-1
    4.720       0.4270E-2    -.3636E-1    0.4426E-2    -.3076E-1
    4.730       0.4288E-2    -.3593E-1    0.4445E-2    -.3032E-1
    4.740       0.4306E-2    -.3550E-1    0.4464E-2    -.2987E-1
    4.750       0.4325E-2    -.3507E-1    0.4483E-2    -.2943E-1
    4.760       0.4344E-2    -.3464E-1    0.4503E-2    -.2898E-1
    4.770       0.4363E-2    -.3421E-1    0.4522E-2    -.2853E-1
    4.780       0.4383E-2    -.3377E-1    0.4543E-2    -.2808E-1
    4.790       0.4403E-2    -.3333E-1    0.4563E-2    -.2762E-1
    4.800       0.4423E-2    -.3289E-1    0.4584E-2    -.2717E-1
    4.810       0.4444E-2    -.3245E-1    0.4605E-2    -.2671E-1
    4.820       0.4464E-2    -.3201E-1    0.4626E-2    -.2625E-1
    4.830       0.4486E-2    -.3156E-1    0.4648E-2    -.2579E-1
    4.840       0.4507E-2    -.3111E-1    0.4669E-2    -.2533E-1
    4.850       0.4530E-2    -.3066E-1    0.4692E-2    -.2486E-1
    4.860       0.4552E-2    -.3021E-1    0.4715E-2    -.2439E-1
    4.870       0.4575E-2    -.2976E-1    0.4738E-2    -.2392E-1
    4.880       0.4599E-2    -.2930E-1    0.4762E-2    -.2345E-1
    4.890       0.4623E-2    -.2884E-1    0.4787E-2    -.2297E-1
    4.900       0.4647E-2    -.2838E-1    0.4811E-2    -.2249E-1
    4.910       0.4673E-2    -.2792E-1    0.4837E-2    -.2201E-1
    4.920       0.4698E-2    -.2745E-1    0.4863E-2    -.2153E-1
    4.930       0.4725E-2    -.2698E-1    0.4890E-2    -.2105E-1
    4.940       0.4752E-2    -.2651E-1    0.4917E-2    -.2056E-1
    4.950       0.4780E-2    -.2604E-1    0.4945E-2    -.2007E-1
    4.960       0.4809E-2    -.2556E-1    0.4974E-2    -.1958E-1
    4.970       0.4838E-2    -.2509E-1    0.5003E-2    -.1908E-1
    4.980       0.4869E-2    -.2460E-1    0.5034E-2    -.1858E-1
    4.990       0.4901E-2    -.2412E-1    0.5066E-2    -.1808E-1
    5.000       0.4933E-2    -.2363E-1    0.5098E-2    -.1758E-1
    5.010       0.4967E-2    -.2314E-1    0.5132E-2    -.1707E-1
    5.020       0.5002E-2    -.2265E-1    0.5166E-2    -.1656E-1
      5.0300       0.0050      -0.0222       0.0052      -0.0160
      5.0400       0.0051      -0.0217       0.0052      -0.0155
      5.0500       0.0051      -0.0211       0.0053      -0.0150
      5.0600       0.0052      -0.0206       0.0053      -0.0145
      5.0700       0.0052      -0.0201       0.0054      -0.0140
      5.0800       0.0052      -0.0196       0.0054      -0.0134
      5.0900       0.0053      -0.0191       0.0055      -0.0129
      5.1000       0.0053      -0.0186       0.0055      -0.0124
      5.1100       0.0054      -0.0181       0.0056      -0.0118
      5.1200       0.0055      -0.0175       0.0056      -0.0113
      5.1300       0.0055      -0.0170       0.0057      -0.0107
      5.1400       0.0056      -0.0165       0.0057      -0.0102
      5.1500       0.0056      -0.0159       0.0058      -0.0096
      5.1600       0.0057      -0.0154       0.0059      -0.0091
      5.1700       0.0058      -0.0148       0.0059      -0.0085
      5.1800       0.0059      -0.0143       0.0060      -0.0079
      5.1900       0.0060      -0.0137       0.0061      -0.0073
      5.2000       0.0061      -0.0131       0.0062      -0.0068
      5.2100       0.0062      -0.0126       0.0063      -0.0062
      5.2200       0.0063      -0.0120       0.0064      -0.0056
    5.230       0.6437E-2    -.1145E-1    0.6553E-2    -.5010E-2
    5.240       0.6580E-2    -.1088E-1    0.6687E-2    -.4423E-2
    5.250       0.6737E-2    -.1031E-1    0.6833E-2    -.3837E-2
    5.260       0.6908E-2    -.9749E-2    0.6991E-2    -.3255E-2
    5.270       0.7095E-2    -.9192E-2    0.7163E-2    -.2680E-2
    5.280       0.7296E-2    -.8647E-2    0.7349E-2    -.2116E-2
    5.290       0.7512E-2    -.8116E-2    0.7549E-2    -.1565E-2
    5.300       0.7738E-2    -.7606E-2    0.7761E-2    -.1033E-2
    5.310       0.7971E-2    -.7122E-2    0.7979E-2    -.5224E-3
    5.320       0.8204E-2    -.6668E-2    0.8199E-2    -.3729E-4
    5.330       0.8428E-2    -.6246E-2    0.8409E-2    0.4205E-3
    5.340       0.8631E-2    -.5854E-2    0.8601E-2    0.8524E-3
    5.350       0.8804E-2    -.5487E-2    0.8764E-2    0.1263E-2
    5.360       0.8936E-2    -.5133E-2    0.8889E-2    0.1663E-2
    5.370       0.9022E-2    -.4778E-2    0.8974E-2    0.2064E-2
    5.380       0.9065E-2    -.4406E-2    0.9018E-2    0.2480E-2
    5.390       0.9070E-2    -.4004E-2    0.9029E-2    0.2924E-2
    5.400       0.9047E-2    -.3561E-2    0.9018E-2    0.3404E-2
    5.410       0.9010E-2    -.3073E-2    0.8995E-2    0.3926E-2
    5.420       0.8969E-2    -.2540E-2    0.8971E-2    0.4490E-2
    5.430       0.8936E-2    -.1963E-2    0.8956E-2    0.5095E-2
    5.440       0.8918E-2    -.1349E-2    0.8956E-2    0.5737E-2
    5.450       0.8922E-2    -.7011E-3    0.8976E-2    0.6411E-2
    5.460       0.8952E-2    -.2482E-4    0.9019E-2    0.7112E-2
    5.470       0.9011E-2    0.6765E-3    0.9089E-2    0.7838E-2
    5.480       0.9100E-2    0.1400E-2    0.9187E-2    0.8584E-2
    5.490       0.9222E-2    0.2144E-2    0.9314E-2    0.9348E-2
    5.500       0.9376E-2    0.2906E-2    0.9473E-2    0.1013E-1
    5.510       0.9565E-2    0.3684E-2    0.9666E-2    0.1092E-1
    5.520       0.9789E-2    0.4476E-2    0.9894E-2    0.1173E-1
    5.530       0.1005E-1    0.5281E-2    0.1016E-1    0.1255E-1
      5.5400       0.0104       0.0061       0.0105       0.0134
      5.5500       0.0107       0.0069       0.0108       0.0142
      5.5600       0.0111       0.0078       0.0112       0.0151
      5.5700       0.0116       0.0086       0.0117       0.0159
      5.5800       0.0121       0.0094       0.0122       0.0168
     5.59000      0.01270      0.01025      0.01282      0.01759
     5.60000      0.01337      0.01107      0.01349      0.01841
     5.61000      0.01414      0.01186      0.01426      0.01921
     5.62000      0.01501      0.01261      0.01512      0.01996
     5.63000      0.01598      0.01331      0.01609      0.02065
     5.64000      0.01707      0.01393      0.01716      0.02126
     5.65000      0.01828      0.01443      0.01835      0.02175
     5.66000      0.01961      0.01479      0.01965      0.02209
     5.67000      0.02103      0.01496      0.02103      0.02223
     5.68000      0.02253      0.01488      0.02247      0.02212
     5.69000      0.02406      0.01452      0.02391      0.02174
     5.70000      0.02555      0.01384      0.02528      0.02104
     5.71000      0.02690      0.01282      0.02648      0.02002
     5.72000      0.02800      0.01148      0.02741      0.01872
      5.7300       0.0288       0.0099       0.0280       0.0172
      5.7400       0.0291       0.0081       0.0281       0.0156
      5.7500       0.0290       0.0063       0.0279       0.0140
    5.760       0.2839E-1    0.4642E-2    0.2718E-1    0.1257E-1
    5.770       0.2743E-1    0.3187E-2    0.2617E-1    0.1138E-1
    5.780       0.2619E-1    0.2034E-2    0.2493E-1    0.1049E-1
    5.790       0.2476E-1    0.1221E-2    0.2356E-1    0.9920E-2
    5.800       0.2325E-1    0.7417E-3    0.2215E-1    0.9657E-2
    5.810       0.2175E-1    0.5674E-3    0.2076E-1    0.9666E-2
    5.820       0.2029E-1    0.6540E-3    0.1945E-1    0.9904E-2
    5.830       0.1893E-1    0.9524E-3    0.1823E-1    0.1033E-1
    5.840       0.1768E-1    0.1417E-2    0.1712E-1    0.1089E-1
    5.850       0.1655E-1    0.2008E-2    0.1612E-1    0.1157E-1
    5.860       0.1553E-1    0.2691E-2    0.1523E-1    0.1233E-1
    5.870       0.1462E-1    0.3440E-2    0.1444E-1    0.1314E-1
    5.880       0.1382E-1    0.4235E-2    0.1375E-1    0.1400E-1
    5.890       0.1311E-1    0.5062E-2    0.1313E-1    0.1488E-1
      5.9000       0.0125       0.0059       0.0126       0.0158
      5.9100       0.0119       0.0068       0.0121       0.0167
      5.9200       0.0114       0.0076       0.0117       0.0176
      5.9300       0.0110       0.0085       0.0113       0.0185
      5.9400       0.0106       0.0094       0.0110       0.0194
     5.95000      0.01023      0.01022      0.01077      0.02032
      5.9600       0.0099       0.0111       0.0105       0.0212
      5.9700       0.0096       0.0119       0.0104       0.0221
      5.9800       0.0094       0.0128       0.0102       0.0230
      5.9900       0.0092       0.0136       0.0101       0.0239
      6.0000       0.0089       0.0144       0.0100       0.0247
      6.0100       0.0088       0.0152       0.0099       0.0256
      6.0200       0.0086       0.0160       0.0099       0.0264
      6.0300       0.0084       0.0168       0.0099       0.0273
      6.0400       0.0083       0.0176       0.0099       0.0281
      6.0500       0.0082       0.0183       0.0099       0.0289
      6.0600       0.0081       0.0191       0.0100       0.0296
      6.0700       0.0080       0.0199       0.0101       0.0304
      6.0800       0.0079       0.0206       0.0102       0.0311
      6.0900       0.0078       0.0214       0.0104       0.0318
      6.1000       0.0077       0.0221       0.0105       0.0324
      6.1100       0.0077       0.0229       0.0107       0.0330
      6.1200       0.0076       0.0236       0.0108       0.0335
      6.1300       0.0076       0.0244       0.0109       0.0340
      6.1400       0.0075       0.0251       0.0110       0.0345
      6.1500       0.0075       0.0258       0.0109       0.0349
      6.1600       0.0074       0.0265       0.0109       0.0353
      6.1700       0.0074       0.0273       0.0108       0.0357
      6.1800       0.0074       0.0280       0.0106       0.0362
      6.1900       0.0073       0.0287       0.0104       0.0367
      6.2000       0.0073       0.0294       0.0101       0.0373
      6.2100       0.0073       0.0301       0.0099       0.0379
      6.2200       0.0073       0.0308       0.0097       0.0385
      6.2300       0.0072       0.0315       0.0095       0.0392
      6.2400       0.0072       0.0322       0.0092       0.0399
      6.2500       0.0072       0.0329       0.0091       0.0406
      6.2600       0.0072       0.0336       0.0089       0.0413
      6.2700       0.0072       0.0343       0.0087       0.0421
      6.2800       0.0071       0.0350       0.0086       0.0428
      6.2900       0.0071       0.0357       0.0085       0.0436
      6.3000       0.0071       0.0364       0.0084       0.0444
      6.3100       0.0071       0.0371       0.0083       0.0451
      6.3200       0.0071       0.0378       0.0082       0.0459
      6.3300       0.0071       0.0385       0.0081       0.0467
      6.3400       0.0071       0.0392       0.0081       0.0475
      6.3500       0.0071       0.0399       0.0080       0.0482
      6.3600       0.0071       0.0406       0.0080       0.0490
      6.3700       0.0071       0.0413       0.0079       0.0498
      6.3800       0.0071       0.0420       0.0079       0.0505
      6.3900       0.0071       0.0428       0.0079       0.0513
      6.4000       0.0071       0.0435       0.0078       0.0521
      6.4100       0.0071       0.0442       0.0078       0.0528
      6.4200       0.0071       0.0449       0.0078       0.0536
      6.4300       0.0071       0.0456       0.0078       0.0544
      6.4400       0.0071       0.0463       0.0078       0.0551
      6.4500       0.0071       0.0470       0.0078       0.0559
      6.4600       0.0071       0.0477       0.0077       0.0567
      6.4700       0.0071       0.0484       0.0077       0.0574
      6.4800       0.0071       0.0491       0.0077       0.0582
      6.4900       0.0071       0.0498       0.0077       0.0590
      6.5000       0.0071       0.0505       0.0077       0.0597
      6.5100       0.0071       0.0512       0.0077       0.0605
      6.5200       0.0072       0.0519       0.0077       0.0613
      6.5300       0.0072       0.0527       0.0077       0.0620
      6.5400       0.0072       0.0534       0.0077       0.0628
      6.5500       0.0072       0.0541       0.0077       0.0636
      6.5600       0.0072       0.0548       0.0077       0.0643
      6.5700       0.0072       0.0555       0.0078       0.0651
      6.5800       0.0072       0.0562       0.0078       0.0659
      6.5900       0.0072       0.0570       0.0078       0.0667
      6.6000       0.0072       0.0577       0.0078       0.0674
      6.6100       0.0073       0.0584       0.0078       0.0682
      6.6200       0.0073       0.0591       0.0078       0.0690
      6.6300       0.0073       0.0599       0.0078       0.0698
      6.6400       0.0073       0.0606       0.0078       0.0705
      6.6500       0.0073       0.0613       0.0078       0.0713
      6.6600       0.0073       0.0620       0.0078       0.0721
      6.6700       0.0074       0.0628       0.0079       0.0729
      6.6800       0.0074       0.0635       0.0079       0.0737
      6.6900       0.0074       0.0643       0.0079       0.0745
      6.7000       0.0074       0.0650       0.0079       0.0752
      6.7100       0.0074       0.0657       0.0079       0.0760
      6.7200       0.0074       0.0665       0.0079       0.0768
      6.7300       0.0074       0.0672       0.0080       0.0776
      6.7400       0.0075       0.0680       0.0080       0.0784
      6.7500       0.0075       0.0687       0.0080       0.0792
      6.7600       0.0075       0.0694       0.0080       0.0800
      6.7700       0.0075       0.0702       0.0080       0.0808
      6.7800       0.0075       0.0709       0.0081       0.0816
      6.7900       0.0076       0.0717       0.0081       0.0824
      6.8000       0.0076       0.0725       0.0081       0.0832
      6.8100       0.0076       0.0732       0.0081       0.0840
      6.8200       0.0076       0.0740       0.0081       0.0848
      6.8300       0.0076       0.0747       0.0082       0.0857
      6.8400       0.0077       0.0755       0.0082       0.0865
      6.8500       0.0077       0.0763       0.0082       0.0873
      6.8600       0.0077       0.0770       0.0082       0.0881
      6.8700       0.0077       0.0778       0.0082       0.0889
      6.8800       0.0077       0.0786       0.0083       0.0897
      6.8900       0.0078       0.0793       0.0083       0.0906
      6.9000       0.0078       0.0801       0.0083       0.0914
      6.9100       0.0078       0.0809       0.0083       0.0922
      6.9200       0.0078       0.0817       0.0084       0.0931
      6.9300       0.0078       0.0825       0.0084       0.0939
      6.9400       0.0079       0.0832       0.0084       0.0947
      6.9500       0.0079       0.0840       0.0084       0.0956
      6.9600       0.0079       0.0848       0.0085       0.0964
      6.9700       0.0079       0.0856       0.0085       0.0973
      6.9800       0.0080       0.0864       0.0085       0.0981
      6.9900       0.0080       0.0872       0.0085       0.0990
      7.0000       0.0080       0.0880       0.0086       0.0998
      7.0100       0.0080       0.0888       0.0086       0.1007
      7.0200       0.0080       0.0896       0.0086       0.1015
      7.0300       0.0081       0.0904       0.0086       0.1024
      7.0400       0.0081       0.0912       0.0087       0.1032
      7.0500       0.0081       0.0920       0.0087       0.1041
      7.0600       0.0081       0.0928       0.0087       0.1050
      7.0700       0.0082       0.0936       0.0088       0.1059
      7.0800       0.0082       0.0944       0.0088       0.1067
      7.0900       0.0082       0.0953       0.0088       0.1076
      7.1000       0.0082       0.0961       0.0088       0.1085
      7.1100       0.0083       0.0969       0.0089       0.1094
      7.1200       0.0083       0.0977       0.0089       0.1103
      7.1300       0.0083       0.0986       0.0089       0.1112
      7.1400       0.0083       0.0994       0.0090       0.1121
      7.1500       0.0084       0.1002       0.0090       0.1129
      7.1600       0.0084       0.1011       0.0090       0.1139
      7.1700       0.0084       0.1019       0.0091       0.1147
      7.1800       0.0085       0.1027       0.0091       0.1157
      7.1900       0.0085       0.1036       0.0091       0.1166
      7.2000       0.0085       0.1044       0.0092       0.1175
      7.2100       0.0085       0.1053       0.0092       0.1184
      7.2200       0.0086       0.1061       0.0092       0.1193
      7.2300       0.0086       0.1070       0.0093       0.1202
      7.2400       0.0086       0.1078       0.0093       0.1212
      7.2500       0.0086       0.1087       0.0093       0.1221
      7.2600       0.0087       0.1096       0.0094       0.1230
      7.2700       0.0087       0.1104       0.0094       0.1240
      7.2800       0.0087       0.1113       0.0094       0.1249
      7.2900       0.0088       0.1122       0.0095       0.1258
      7.3000       0.0088       0.1131       0.0095       0.1268
      7.3100       0.0088       0.1139       0.0095       0.1277
      7.3200       0.0089       0.1148       0.0096       0.1287
      7.3300       0.0089       0.1157       0.0096       0.1296
      7.3400       0.0089       0.1166       0.0097       0.1306
      7.3500       0.0089       0.1175       0.0097       0.1316
      7.3600       0.0090       0.1184       0.0097       0.1325
      7.3700       0.0090       0.1193       0.0098       0.1335
      7.3800       0.0090       0.1202       0.0098       0.1345
      7.3900       0.0091       0.1211       0.0099       0.1354
      7.4000       0.0091       0.1220       0.0099       0.1364
      7.4100       0.0091       0.1229       0.0099       0.1374
      7.4200       0.0092       0.1238       0.0100       0.1384
      7.4300       0.0092       0.1247       0.0100       0.1394
      7.4400       0.0092       0.1256       0.0101       0.1404
      7.4500       0.0093       0.1266       0.0101       0.1414
      7.4600       0.0093       0.1275       0.0102       0.1424
      7.4700       0.0093       0.1284       0.0102       0.1434
      7.4800       0.0094       0.1293       0.0103       0.1445
      7.4900       0.0094       0.1303       0.0103       0.1455
      7.5000       0.0095       0.1312       0.0103       0.1465
      7.5100       0.0095       0.1322       0.0104       0.1475
      7.5200       0.0095       0.1331       0.0104       0.1486
      7.5300       0.0096       0.1341       0.0105       0.1496
      7.5400       0.0096       0.1350       0.0105       0.1507
      7.5500       0.0096       0.1360       0.0106       0.1517
      7.5600       0.0097       0.1370       0.0106       0.1528
      7.5700       0.0097       0.1379       0.0107       0.1538
      7.5800       0.0098       0.1389       0.0107       0.1549
      7.5900       0.0098       0.1399       0.0108       0.1560
      7.6000       0.0098       0.1409       0.0109       0.1571
      7.6100       0.0099       0.1418       0.0109       0.1581
      7.6200       0.0099       0.1428       0.0110       0.1592
      7.6300       0.0100       0.1438       0.0110       0.1603
     7.64000      0.01002      0.14482      0.01109      0.16144
     7.65000      0.01006      0.14582      0.01114      0.16254
     7.66000      0.01011      0.14683      0.01121      0.16367
     7.67000      0.01015      0.14783      0.01127      0.16477
     7.68000      0.01020      0.14885      0.01133      0.16591
     7.69000      0.01024      0.14987      0.01139      0.16703
     7.70000      0.01029      0.15089      0.01146      0.16818
     7.71000      0.01033      0.15192      0.01152      0.16932
     7.72000      0.01038      0.15294      0.01159      0.17048
     7.73000      0.01043      0.15398      0.01166      0.17163
     7.74000      0.01048      0.15501      0.01173      0.17281
     7.75000      0.01053      0.15606      0.01180      0.17397
     7.76000      0.01058      0.15710      0.01188      0.17515
     7.77000      0.01063      0.15817      0.01195      0.17633
     7.78000      0.01068      0.15922      0.01202      0.17752
     7.79000      0.01074      0.16029      0.01210      0.17872
     7.80000      0.01079      0.16135      0.01218      0.17990
     7.81000      0.01085      0.16243      0.01226      0.18113
     7.82000      0.01090      0.16351      0.01234      0.18233
     7.83000      0.01096      0.16460      0.01243      0.18357
     7.84000      0.01102      0.16569      0.01251      0.18479
     7.85000      0.01107      0.16678      0.01260      0.18605
     7.86000      0.01114      0.16789      0.01269      0.18729
     7.87000      0.01120      0.16899      0.01278      0.18855
     7.88000      0.01126      0.17011      0.01288      0.18982
     7.89000      0.01132      0.17123      0.01297      0.19110
     7.90000      0.01139      0.17236      0.01307      0.19240
     7.91000      0.01145      0.17349      0.01317      0.19368
     7.92000      0.01152      0.17463      0.01328      0.19501
     7.93000      0.01159      0.17577      0.01339      0.19630
     7.94000      0.01166      0.17693      0.01350      0.19765
     7.95000      0.01173      0.17809      0.01361      0.19896
     7.96000      0.01180      0.17926      0.01373      0.20034
     7.97000      0.01188      0.18043      0.01385      0.20168
     7.98000      0.01196      0.18162      0.01398      0.20307
     7.99000      0.01203      0.18280      0.01410      0.20444
     8.00000      0.01212      0.18401      0.01424      0.20585
     8.01000      0.01220      0.18521      0.01437      0.20726
     8.02000      0.01228      0.18643      0.01452      0.20869
     8.03000      0.01237      0.18765      0.01466      0.21013
     8.04000      0.01246      0.18889      0.01481      0.21157
     8.05000      0.01255      0.19013      0.01497      0.21304
     8.06000      0.01265      0.19138      0.01513      0.21452
     8.07000      0.01274      0.19264      0.01530      0.21602
     8.08000      0.01284      0.19391      0.01547      0.21753
     8.09000      0.01294      0.19518      0.01565      0.21905
     8.10000      0.01305      0.19646      0.01584      0.22060
     8.11000      0.01316      0.19776      0.01604      0.22216
     8.12000      0.01327      0.19906      0.01624      0.22374
     8.13000      0.01338      0.20037      0.01645      0.22534
     8.14000      0.01350      0.20169      0.01667      0.22696
     8.15000      0.01362      0.20303      0.01690      0.22859
     8.16000      0.01375      0.20437      0.01714      0.23024
     8.17000      0.01388      0.20574      0.01739      0.23193
     8.18000      0.01401      0.20710      0.01766      0.23363
     8.19000      0.01416      0.20849      0.01793      0.23536
     8.20000      0.01430      0.20988      0.01822      0.23711
     8.21000      0.01445      0.21130      0.01853      0.23888
     8.22000      0.01461      0.21272      0.01885      0.24069
     8.23000      0.01478      0.21417      0.01919      0.24252
     8.24000      0.01495      0.21562      0.01955      0.24438
     8.25000      0.01512      0.21709      0.01993      0.24627
     8.26000      0.01531      0.21857      0.02033      0.24819
     8.27000      0.01551      0.22007      0.02076      0.25014
     8.28000      0.01571      0.22158      0.02121      0.25213
     8.29000      0.01592      0.22312      0.02169      0.25413
     8.30000      0.01615      0.22467      0.02221      0.25618
     8.31000      0.01638      0.22624      0.02275      0.25825
     8.32000      0.01663      0.22784      0.02334      0.26037
     8.33000      0.01689      0.22944      0.02397      0.26250
     8.34000      0.01717      0.23108      0.02465      0.26469
     8.35000      0.01746      0.23272      0.02537      0.26689
     8.36000      0.01777      0.23440      0.02615      0.26915
     8.37000      0.01810      0.23607      0.02698      0.27140
     8.38000      0.01845      0.23779      0.02788      0.27372
     8.39000      0.01881      0.23949      0.02882      0.27600
     8.40000      0.01919      0.24125      0.02982      0.27836
     8.41000      0.01959      0.24299      0.03086      0.28065
     8.42000      0.02001      0.24478      0.03196      0.28304
     8.43000      0.02044      0.24657      0.03306      0.28536
     8.44000      0.02088      0.24840      0.03421      0.28780
     8.45000      0.02133      0.25025      0.03535      0.29020
     8.46000      0.02180      0.25213      0.03654      0.29276
     8.47000      0.02227      0.25406      0.03774      0.29536
     8.48000      0.02277      0.25603      0.03901      0.29813
     8.49000      0.02328      0.25805      0.04036      0.30100
     8.50000      0.02383      0.26013      0.04183      0.30406
     8.51000      0.02441      0.26225      0.04344      0.30723
     8.52000      0.02504      0.26444      0.04523      0.31057
     8.53000      0.02571      0.26667      0.04723      0.31404
     8.54000      0.02645      0.26898      0.04946      0.31766
     8.55000      0.02725      0.27134      0.05195      0.32138
     8.56000      0.02813      0.27377      0.05476      0.32525
     8.57000      0.02908      0.27627      0.05789      0.32919
     8.58000      0.03013      0.27883      0.06142      0.33328
     8.59000      0.03127      0.28146      0.06537      0.33742
     8.60000      0.03252      0.28416      0.06982      0.34165
     8.61000      0.03389      0.28695      0.07482      0.34590
     8.62000      0.03540      0.28980      0.08046      0.35017
     8.63000      0.03706      0.29274      0.08680      0.35433
     8.64000      0.03889      0.29577      0.09397      0.35840
     8.65000      0.04091      0.29885      0.10201      0.36216
     8.66000      0.04317      0.30209      0.11112      0.36563
     8.67000      0.04564      0.30530      0.12122      0.36833
     8.68000      0.04843      0.30869      0.13260      0.37034
     8.69000      0.05151      0.31205      0.14506      0.37104
     8.70000      0.05498      0.31556      0.15882      0.37032
     8.71000      0.05884      0.31899      0.17348      0.36749
     8.72000      0.06321      0.32254      0.18899      0.36226
     8.73000      0.06807      0.32590      0.20461      0.35399
     8.74000      0.07359      0.32929      0.21982      0.34244
     8.75000      0.07973      0.33235      0.23347      0.32736
     8.76000      0.08669      0.33523      0.24464      0.30903
     8.77000      0.09441      0.33752      0.25213      0.28805
    8.780001     0.103091     0.339294     0.255259     0.265501
    8.790000     0.112599     0.340062     0.253552     0.242746
    8.800001     0.123072     0.339755     0.247322     0.221166
    8.809999     0.134237     0.337830     0.237163     0.201949
    8.820001     0.146017     0.334084     0.224167     0.185855
    8.830000     0.157886     0.328021     0.209359     0.173236
    8.840000     0.169409     0.319468     0.193831     0.164022
    8.849999     0.179752     0.308244     0.178307     0.157918
    8.860001     0.188176     0.294561     0.163423     0.154463
    8.870000     0.193826     0.278888     0.149462     0.153176
    8.880000     0.196131     0.262053     0.136653     0.153590
    8.889999     0.194807     0.245078     0.125017     0.155291
    8.900001     0.190033     0.229022     0.114540     0.157937
    8.910000     0.182338     0.214774     0.105170     0.161253
     8.92000      0.17248      0.20291      0.09681      0.16502
     8.93000      0.16130      0.19369      0.08938      0.16909
     8.94000      0.14954      0.18707      0.08276      0.17334
     8.95000      0.13782      0.18279      0.07689      0.17767
     8.96000      0.12654      0.18052      0.07166      0.18204
     8.97000      0.11597      0.17988      0.06701      0.18639
     8.98000      0.10625      0.18051      0.06286      0.19069
     8.99000      0.09742      0.18209      0.05914      0.19492
     9.00000      0.08949      0.18438      0.05581      0.19906
     9.01000      0.08239      0.18717      0.05282      0.20311
     9.02000      0.07608      0.19031      0.05012      0.20707
     9.03000      0.07046      0.19366      0.04769      0.21092
     9.04000      0.06548      0.19716      0.04549      0.21468
     9.05000      0.06105      0.20072      0.04350      0.21834
     9.06000      0.05711      0.20430      0.04169      0.22190
     9.07000      0.05361      0.20788      0.04004      0.22538
     9.08000      0.05047      0.21142      0.03853      0.22877
     9.09000      0.04768      0.21491      0.03716      0.23206
     9.10000      0.04517      0.21833      0.03590      0.23529
     9.11000      0.04293      0.22170      0.03474      0.23843
     9.12000      0.04090      0.22498      0.03368      0.24151
     9.13000      0.03908      0.22821      0.03270      0.24450
     9.14000      0.03742      0.23133      0.03179      0.24744
     9.15000      0.03593      0.23442      0.03095      0.25030
     9.16000      0.03457      0.23740      0.03018      0.25312
     9.17000      0.03334      0.24035      0.02947      0.25587
     9.18000      0.03221      0.24319      0.02880      0.25857
     9.19000      0.03119      0.24602      0.02818      0.26122
     9.20000      0.03024      0.24872      0.02761      0.26384
     9.21000      0.02938      0.25143      0.02708      0.26640
     9.22000      0.02857      0.25401      0.02658      0.26893
     9.23000      0.02785      0.25663      0.02612      0.27143
     9.24000      0.02717      0.25910      0.02568      0.27386
     9.25000      0.02656      0.26165      0.02528      0.27631
     9.26000      0.02598      0.26403      0.02490      0.27865
     9.27000      0.02546      0.26649      0.02455      0.28107
     9.28000      0.02496      0.26880      0.02421      0.28334
     9.29000      0.02451      0.27118      0.02391      0.28571
     9.30000      0.02409      0.27344      0.02361      0.28792
     9.31000      0.02370      0.27573      0.02336      0.29027
     9.32000      0.02333      0.27794      0.02309      0.29243
     9.33000      0.02299      0.28016      0.02287      0.29475
     9.34000      0.02267      0.28232      0.02263      0.29687
     9.35000      0.02238      0.28448      0.02244      0.29914
     9.36000      0.02210      0.28659      0.02223      0.30124
     9.37000      0.02185      0.28871      0.02205      0.30345
     9.38000      0.02160      0.29077      0.02187      0.30553
     9.39000      0.02138      0.29285      0.02171      0.30766
     9.40000      0.02117      0.29488      0.02156      0.30977
     9.41000      0.02098      0.29691      0.02141      0.31182
     9.42000      0.02079      0.29893      0.02128      0.31392
     9.43000      0.02062      0.30091      0.02115      0.31594
     9.44000      0.02046      0.30292      0.02103      0.31802
     9.45000      0.02031      0.30486      0.02091      0.32001
     9.46000      0.02017      0.30684      0.02081      0.32209
     9.47000      0.02004      0.30874      0.02071      0.32405
     9.48000      0.01992      0.31072      0.02062      0.32609
     9.49000      0.01980      0.31256      0.02053      0.32805
     9.50000      0.01970      0.31454      0.02045      0.33005
     9.51000      0.01959      0.31633      0.02037      0.33201
     9.52000      0.01950      0.31830      0.02030      0.33398
     9.53000      0.01940      0.32007      0.02023      0.33594
     9.54000      0.01933      0.32202      0.02016      0.33786
     9.55000      0.01924      0.32379      0.02011      0.33983
     9.56000      0.01918      0.32570      0.02005      0.34171
     9.57000      0.01910      0.32748      0.02000      0.34367
     9.58000      0.01904      0.32935      0.01995      0.34554
     9.59000      0.01898      0.33116      0.01991      0.34749
     9.60000      0.01893      0.33296      0.01986      0.34935
     9.61000      0.01888      0.33480      0.01983      0.35130
     9.62000      0.01883      0.33653      0.01979      0.35314
     9.63000      0.01879      0.33842      0.01976      0.35507
     9.64000      0.01874      0.34007      0.01972      0.35691
     9.65000      0.01872      0.34199      0.01970      0.35883
     9.66000      0.01866      0.34360      0.01967      0.36063
     9.67000      0.01865      0.34551      0.01965      0.36255
     9.68000      0.01860      0.34710      0.01962      0.36433
     9.69000      0.01859      0.34898      0.01961      0.36623
     9.70000      0.01855      0.35061      0.01958      0.36799
     9.71000      0.01853      0.35243      0.01957      0.36987
     9.72000      0.01851      0.35408      0.01955      0.37165
     9.73000      0.01849      0.35583      0.01954      0.37348
     9.74000      0.01847      0.35754      0.01952      0.37525
     9.75000      0.01845      0.35918      0.01951      0.37709
     9.76000      0.01844      0.36095      0.01950      0.37883
     9.77000      0.01841      0.36252      0.01949      0.38061
     9.78000      0.01841      0.36431      0.01948      0.38239
     9.79000      0.01839      0.36584      0.01947      0.38409
     9.80000      0.01839      0.36763      0.01946      0.38587
     9.81000      0.01836      0.36911      0.01945      0.38754
     9.82000      0.01836      0.37086      0.01944      0.38930
     9.83000      0.01834      0.37235      0.01943      0.39092
     9.84000      0.01833      0.37399      0.01942      0.39264
     9.85000      0.01832      0.37551      0.01941      0.39424
     9.86000      0.01830      0.37701      0.01940      0.39589
     9.87000      0.01829      0.37856      0.01938      0.39745
     9.88000      0.01826      0.37990      0.01937      0.39900
     9.89000      0.01825      0.38147      0.01935      0.40049
     9.90000      0.01821      0.38262      0.01932      0.40193
     9.91000      0.01820      0.38418      0.01930      0.40332
     9.92000      0.01814      0.38510      0.01926      0.40457
     9.93000      0.01812      0.38653      0.01922      0.40581
     9.94000      0.01803      0.38717      0.01915      0.40679
     9.95000      0.01799      0.38829      0.01908      0.40772
     9.96000      0.01786      0.38846      0.01897      0.40816
     9.97000      0.01775      0.38879      0.01883      0.40832
     9.98000      0.01748      0.38753      0.01856      0.40714
     9.99000      0.01661      0.38224      0.01763      0.40150
    10.00       0.3222E-3    0.3847       0.3430E-3    0.4041   
# 
# 04/08/2018 at 00:57 YAMBO @ narro [start]
# 04/08/2018 at 00:57               [end]
#  
# Timing   [Min/Max/Average]: 09s/09s/09s
#
# .-Input file : yambo.in
# | optics                         # [R OPT] Optics
# | bse                            # [R BSE] Bethe Salpeter Equation.
# | bsk                            # [R BSK] Bethe Salpeter Equation kernel
# | bss                            # [R BSS] Bethe Salpeter Equation solver
# | BoseTemp= 0.000000     eV      # Bosonic Temperature
# | FFTGvecs=  3473        RL      # [FFT] Plane-waves
# | BSEmod= "resonant"             # [BSE] resonant/retarded/coupling
# | BSKmod= "Hartree"              # [BSE] IP/Hartree/HF/ALDA/SEX/BSfxc
# | BSSmod= "d"                    # [BSS] (h)aydock/(d)iagonalization/(i)nversion/(t)ddft`
# | BSENGexx=  63          RL      # [BSK] Exchange components
# | % BEnRange
# | -10.00000 | 10.00000 | eV      # [BSS] Energy range
# | %
# | % BDmRange
# |   0.10000 |  0.10000 | eV      # [BSS] Damping range
# | %
# | BEnSteps= 2001                 # [BSS] Energy steps
# | % BLongDir
# | 0.1000E-4 | 0.000    | 0.000    |        # [BSS] [cc] Electric Field
# | %
# | % BSEQptR
# |   1 |  4 |                     # [BSK] Transferred momenta range
# | %
# | % BSEBands
# |   3 | 10 |                     # [BSK] Bands range
# | %
