#                                                           
#  **    **    **     ****     ****  ******     *******     
# //**  **    ****   /**/**   **/** /*////**   **/////**    
#  //****    **//**  /**//** ** /** /*   /**  **     //**   
#   //**    **  //** /** //***  /** /******  /**      /**   
#    /**   **********/**  //*   /** /*//// **/**      /**   
#    /**  /**//////**/**   /    /** /*    /**//**     **    
#    /**  /**     /**/**        /** /*******  //*******     
#    //   //      // //         //  ///////    ///////      
#                                                           
#       Version 4.4.0 Revision 16741 Hash d917b3d70         
#              Branch is devel-BSE-finite-q                 
#                  MPI+SLK+OpenMP Build                     
#                http://www.yambo-code.org                  
#
# Absorption @ Q(2) [iku] : 0.500000  0.250000  0.000000
#
#
# - Energies      are Teter 93(XC)
# - Wavefunctions are Teter 93(XC)
#
# - The Green`s function is Resonant -
#
#
#    E/ev[1]      EPS-Im[2]    EPS-Re[3]    EPSo-Im[4]   EPSo-Re[5]
#
   -10.0        0.215E-09     1.00        0.749E-03     1.13    
   -9.99        0.215E-09     1.00        0.750E-03     1.13    
   -9.98        0.216E-09     1.00        0.751E-03     1.13    
   -9.97        0.216E-09     1.00        0.752E-03     1.13    
   -9.96        0.216E-09     1.00        0.753E-03     1.13    
   -9.95        0.217E-09     1.00        0.754E-03     1.13    
   -9.94        0.217E-09     1.00        0.755E-03     1.13    
   -9.93        0.217E-09     1.00        0.756E-03     1.13    
   -9.92        0.218E-09     1.00        0.757E-03     1.13    
   -9.91        0.218E-09     1.00        0.758E-03     1.13    
   -9.90        0.218E-09     1.00        0.759E-03     1.13    
   -9.89        0.219E-09     1.00        0.759E-03     1.13    
   -9.88        0.219E-09     1.00        0.760E-03     1.13    
   -9.87        0.219E-09     1.00        0.761E-03     1.13    
   -9.86        0.220E-09     1.00        0.762E-03     1.13    
   -9.85        0.220E-09     1.00        0.763E-03     1.13    
   -9.84        0.221E-09     1.00        0.764E-03     1.13    
   -9.83        0.221E-09     1.00        0.765E-03     1.13    
   -9.82        0.221E-09     1.00        0.766E-03     1.13    
   -9.81        0.222E-09     1.00        0.767E-03     1.13    
   -9.80        0.222E-09     1.00        0.768E-03     1.13    
   -9.79        0.222E-09     1.00        0.769E-03     1.13    
   -9.78        0.223E-09     1.00        0.770E-03     1.13    
   -9.77        0.223E-09     1.00        0.771E-03     1.13    
   -9.76        0.223E-09     1.00        0.772E-03     1.13    
   -9.75        0.224E-09     1.00        0.773E-03     1.13    
   -9.74        0.224E-09     1.00        0.774E-03     1.13    
   -9.73        0.224E-09     1.00        0.774E-03     1.13    
   -9.72        0.225E-09     1.00        0.775E-03     1.13    
   -9.71        0.225E-09     1.00        0.776E-03     1.13    
   -9.70        0.226E-09     1.00        0.777E-03     1.13    
   -9.69        0.226E-09     1.00        0.778E-03     1.13    
   -9.68        0.226E-09     1.00        0.779E-03     1.13    
   -9.67        0.227E-09     1.00        0.780E-03     1.13    
   -9.66        0.227E-09     1.00        0.781E-03     1.13    
   -9.65        0.227E-09     1.00        0.782E-03     1.13    
   -9.64        0.228E-09     1.00        0.783E-03     1.13    
   -9.63        0.228E-09     1.00        0.784E-03     1.13    
   -9.62        0.229E-09     1.00        0.785E-03     1.13    
   -9.61        0.229E-09     1.00        0.786E-03     1.13    
   -9.60        0.229E-09     1.00        0.787E-03     1.13    
   -9.59        0.230E-09     1.00        0.788E-03     1.13    
   -9.58        0.230E-09     1.00        0.789E-03     1.13    
   -9.57        0.230E-09     1.00        0.790E-03     1.13    
   -9.56        0.231E-09     1.00        0.791E-03     1.13    
   -9.55        0.231E-09     1.00        0.792E-03     1.13    
   -9.54        0.232E-09     1.00        0.793E-03     1.13    
   -9.53        0.232E-09     1.00        0.794E-03     1.13    
   -9.52        0.232E-09     1.00        0.795E-03     1.13    
   -9.51        0.233E-09     1.00        0.796E-03     1.13    
   -9.50        0.233E-09     1.00        0.797E-03     1.13    
   -9.49        0.234E-09     1.00        0.798E-03     1.13    
   -9.48        0.234E-09     1.00        0.799E-03     1.13    
   -9.47        0.234E-09     1.00        0.800E-03     1.13    
   -9.46        0.235E-09     1.00        0.801E-03     1.13    
   -9.45        0.235E-09     1.00        0.802E-03     1.13    
   -9.44        0.235E-09     1.00        0.803E-03     1.13    
   -9.43        0.236E-09     1.00        0.804E-03     1.13    
   -9.42        0.236E-09     1.00        0.805E-03     1.13    
   -9.41        0.237E-09     1.00        0.806E-03     1.13    
   -9.40        0.237E-09     1.00        0.807E-03     1.13    
   -9.39        0.237E-09     1.00        0.808E-03     1.13    
   -9.38        0.238E-09     1.00        0.809E-03     1.13    
   -9.37        0.238E-09     1.00        0.810E-03     1.13    
   -9.36        0.239E-09     1.00        0.811E-03     1.13    
   -9.35        0.239E-09     1.00        0.812E-03     1.13    
   -9.34        0.239E-09     1.00        0.813E-03     1.13    
   -9.33        0.240E-09     1.00        0.814E-03     1.13    
   -9.32        0.240E-09     1.00        0.815E-03     1.13    
   -9.31        0.241E-09     1.00        0.816E-03     1.13    
   -9.30        0.241E-09     1.00        0.817E-03     1.13    
   -9.29        0.241E-09     1.00        0.818E-03     1.13    
   -9.28        0.242E-09     1.00        0.819E-03     1.13    
   -9.27        0.242E-09     1.00        0.820E-03     1.13    
   -9.26        0.243E-09     1.00        0.821E-03     1.13    
   -9.25        0.243E-09     1.00        0.822E-03     1.13    
   -9.24        0.244E-09     1.00        0.823E-03     1.13    
   -9.23        0.244E-09     1.00        0.824E-03     1.13    
   -9.22        0.244E-09     1.00        0.825E-03     1.13    
   -9.21        0.245E-09     1.00        0.826E-03     1.13    
   -9.20        0.245E-09     1.00        0.827E-03     1.13    
   -9.19        0.246E-09     1.00        0.828E-03     1.13    
   -9.18        0.246E-09     1.00        0.830E-03     1.13    
   -9.17        0.246E-09     1.00        0.831E-03     1.13    
   -9.16        0.247E-09     1.00        0.832E-03     1.13    
   -9.15        0.247E-09     1.00        0.833E-03     1.13    
   -9.14        0.248E-09     1.00        0.834E-03     1.13    
   -9.13        0.248E-09     1.00        0.835E-03     1.13    
   -9.12        0.249E-09     1.00        0.836E-03     1.13    
   -9.11        0.249E-09     1.00        0.837E-03     1.13    
   -9.10        0.249E-09     1.00        0.838E-03     1.13    
   -9.09        0.250E-09     1.00        0.839E-03     1.13    
   -9.08        0.250E-09     1.00        0.840E-03     1.13    
   -9.07        0.251E-09     1.00        0.841E-03     1.13    
   -9.06        0.251E-09     1.00        0.842E-03     1.13    
   -9.05        0.252E-09     1.00        0.843E-03     1.13    
   -9.04        0.252E-09     1.00        0.844E-03     1.13    
   -9.03        0.252E-09     1.00        0.846E-03     1.13    
   -9.02        0.253E-09     1.00        0.847E-03     1.13    
   -9.01        0.253E-09     1.00        0.848E-03     1.13    
   -9.00        0.254E-09     1.00        0.849E-03     1.13    
   -8.99        0.254E-09     1.00        0.850E-03     1.13    
   -8.98        0.255E-09     1.00        0.851E-03     1.13    
   -8.97        0.255E-09     1.00        0.852E-03     1.13    
   -8.96        0.255E-09     1.00        0.853E-03     1.13    
   -8.95        0.256E-09     1.00        0.854E-03     1.13    
   -8.94        0.256E-09     1.00        0.855E-03     1.13    
   -8.93        0.257E-09     1.00        0.857E-03     1.13    
   -8.92        0.257E-09     1.00        0.858E-03     1.13    
   -8.91        0.258E-09     1.00        0.859E-03     1.13    
   -8.90        0.258E-09     1.00        0.860E-03     1.14    
   -8.89        0.259E-09     1.00        0.861E-03     1.14    
   -8.88        0.259E-09     1.00        0.862E-03     1.14    
   -8.87        0.260E-09     1.00        0.863E-03     1.14    
   -8.86        0.260E-09     1.00        0.864E-03     1.14    
   -8.85        0.260E-09     1.00        0.865E-03     1.14    
   -8.84        0.261E-09     1.00        0.867E-03     1.14    
   -8.83        0.261E-09     1.00        0.868E-03     1.14    
   -8.82        0.262E-09     1.00        0.869E-03     1.14    
   -8.81        0.262E-09     1.00        0.870E-03     1.14    
   -8.80        0.263E-09     1.00        0.871E-03     1.14    
   -8.79        0.263E-09     1.00        0.872E-03     1.14    
   -8.78        0.264E-09     1.00        0.873E-03     1.14    
   -8.77        0.264E-09     1.00        0.875E-03     1.14    
   -8.76        0.265E-09     1.00        0.876E-03     1.14    
   -8.75        0.265E-09     1.00        0.877E-03     1.14    
   -8.74        0.266E-09     1.00        0.878E-03     1.14    
   -8.73        0.266E-09     1.00        0.879E-03     1.14    
   -8.72        0.266E-09     1.00        0.880E-03     1.14    
   -8.71        0.267E-09     1.00        0.881E-03     1.14    
   -8.70        0.267E-09     1.00        0.883E-03     1.14    
   -8.69        0.268E-09     1.00        0.884E-03     1.14    
   -8.68        0.268E-09     1.00        0.885E-03     1.14    
   -8.67        0.269E-09     1.00        0.886E-03     1.14    
   -8.66        0.269E-09     1.00        0.887E-03     1.14    
   -8.65        0.270E-09     1.00        0.888E-03     1.14    
   -8.64        0.270E-09     1.00        0.890E-03     1.14    
   -8.63        0.271E-09     1.00        0.891E-03     1.14    
   -8.62        0.271E-09     1.00        0.892E-03     1.14    
   -8.61        0.272E-09     1.00        0.893E-03     1.14    
   -8.60        0.272E-09     1.00        0.894E-03     1.14    
   -8.59        0.273E-09     1.00        0.896E-03     1.14    
   -8.58        0.273E-09     1.00        0.897E-03     1.14    
   -8.57        0.274E-09     1.00        0.898E-03     1.14    
   -8.56        0.274E-09     1.00        0.899E-03     1.14    
   -8.55        0.275E-09     1.00        0.900E-03     1.14    
   -8.54        0.275E-09     1.00        0.901E-03     1.14    
   -8.53        0.276E-09     1.00        0.903E-03     1.14    
   -8.52        0.276E-09     1.00        0.904E-03     1.14    
   -8.51        0.277E-09     1.00        0.905E-03     1.14    
   -8.50        0.277E-09     1.00        0.906E-03     1.14    
   -8.49        0.278E-09     1.00        0.907E-03     1.14    
   -8.48        0.278E-09     1.00        0.909E-03     1.14    
   -8.47        0.279E-09     1.00        0.910E-03     1.14    
   -8.46        0.279E-09     1.00        0.911E-03     1.14    
   -8.45        0.280E-09     1.00        0.912E-03     1.14    
   -8.44        0.280E-09     1.00        0.914E-03     1.14    
   -8.43        0.281E-09     1.00        0.915E-03     1.14    
   -8.42        0.281E-09     1.00        0.916E-03     1.14    
   -8.41        0.282E-09     1.00        0.917E-03     1.14    
   -8.40        0.282E-09     1.00        0.918E-03     1.14    
   -8.39        0.283E-09     1.00        0.920E-03     1.14    
   -8.38        0.283E-09     1.00        0.921E-03     1.14    
   -8.37        0.284E-09     1.00        0.922E-03     1.14    
   -8.36        0.284E-09     1.00        0.923E-03     1.14    
   -8.35        0.285E-09     1.00        0.925E-03     1.14    
   -8.34        0.285E-09     1.00        0.926E-03     1.14    
   -8.33        0.286E-09     1.00        0.927E-03     1.14    
   -8.32        0.286E-09     1.00        0.928E-03     1.14    
   -8.31        0.287E-09     1.00        0.930E-03     1.14    
   -8.30        0.287E-09     1.00        0.931E-03     1.14    
   -8.29        0.288E-09     1.00        0.932E-03     1.14    
   -8.28        0.289E-09     1.00        0.933E-03     1.14    
   -8.27        0.289E-09     1.00        0.935E-03     1.14    
   -8.26        0.290E-09     1.00        0.936E-03     1.14    
   -8.25        0.290E-09     1.00        0.937E-03     1.14    
   -8.24        0.291E-09     1.00        0.938E-03     1.14    
   -8.23        0.291E-09     1.00        0.940E-03     1.14    
   -8.22        0.292E-09     1.00        0.941E-03     1.14    
   -8.21        0.292E-09     1.00        0.942E-03     1.14    
   -8.20        0.293E-09     1.00        0.944E-03     1.14    
   -8.19        0.293E-09     1.00        0.945E-03     1.14    
   -8.18        0.294E-09     1.00        0.946E-03     1.14    
   -8.17        0.294E-09     1.00        0.947E-03     1.14    
   -8.16        0.295E-09     1.00        0.949E-03     1.14    
   -8.15        0.296E-09     1.00        0.950E-03     1.14    
   -8.14        0.296E-09     1.00        0.951E-03     1.14    
   -8.13        0.297E-09     1.00        0.953E-03     1.14    
   -8.12        0.297E-09     1.00        0.954E-03     1.14    
   -8.11        0.298E-09     1.00        0.955E-03     1.14    
   -8.10        0.298E-09     1.00        0.957E-03     1.14    
   -8.09        0.299E-09     1.00        0.958E-03     1.14    
   -8.08        0.299E-09     1.00        0.959E-03     1.14    
   -8.07        0.300E-09     1.00        0.961E-03     1.14    
   -8.06        0.301E-09     1.00        0.962E-03     1.14    
   -8.05        0.301E-09     1.00        0.963E-03     1.14    
   -8.04        0.302E-09     1.00        0.964E-03     1.14    
   -8.03        0.302E-09     1.00        0.966E-03     1.14    
   -8.02        0.303E-09     1.00        0.967E-03     1.14    
   -8.01        0.303E-09     1.00        0.968E-03     1.14    
   -8.00        0.304E-09     1.00        0.970E-03     1.14    
   -7.99        0.305E-09     1.00        0.971E-03     1.14    
   -7.98        0.305E-09     1.00        0.972E-03     1.14    
   -7.97        0.306E-09     1.00        0.974E-03     1.14    
   -7.96        0.306E-09     1.00        0.975E-03     1.14    
   -7.95        0.307E-09     1.00        0.977E-03     1.14    
   -7.94        0.308E-09     1.00        0.978E-03     1.14    
   -7.93        0.308E-09     1.00        0.979E-03     1.14    
   -7.92        0.309E-09     1.00        0.981E-03     1.14    
   -7.91        0.309E-09     1.00        0.982E-03     1.14    
   -7.90        0.310E-09     1.00        0.983E-03     1.14    
   -7.89        0.310E-09     1.00        0.985E-03     1.14    
   -7.88        0.311E-09     1.00        0.986E-03     1.14    
   -7.87        0.312E-09     1.00        0.987E-03     1.14    
   -7.86        0.312E-09     1.00        0.989E-03     1.14    
   -7.85        0.313E-09     1.00        0.990E-03     1.14    
   -7.84        0.313E-09     1.00        0.992E-03     1.14    
   -7.83        0.314E-09     1.00        0.993E-03     1.14    
   -7.82        0.315E-09     1.00        0.994E-03     1.14    
   -7.81        0.315E-09     1.00        0.996E-03     1.15    
   -7.80        0.316E-09     1.00        0.997E-03     1.15    
   -7.79        0.316E-09     1.00        0.999E-03     1.15    
   -7.78        0.317E-09     1.00        0.100E-02     1.15    
   -7.77        0.318E-09     1.00        0.100E-02     1.15    
   -7.76        0.318E-09     1.00        0.100E-02     1.15    
   -7.75        0.319E-09     1.00        0.100E-02     1.15    
   -7.74        0.320E-09     1.00        0.101E-02     1.15    
   -7.73        0.320E-09     1.00        0.101E-02     1.15    
   -7.72        0.321E-09     1.00        0.101E-02     1.15    
   -7.71        0.321E-09     1.00        0.101E-02     1.15    
   -7.70        0.322E-09     1.00        0.101E-02     1.15    
   -7.69        0.323E-09     1.00        0.101E-02     1.15    
   -7.68        0.323E-09     1.00        0.101E-02     1.15    
   -7.67        0.324E-09     1.00        0.102E-02     1.15    
   -7.66        0.325E-09     1.00        0.102E-02     1.15    
   -7.65        0.325E-09     1.00        0.102E-02     1.15    
   -7.64        0.326E-09     1.00        0.102E-02     1.15    
   -7.63        0.326E-09     1.00        0.102E-02     1.15    
   -7.62        0.327E-09     1.00        0.102E-02     1.15    
   -7.61        0.328E-09     1.00        0.102E-02     1.15    
   -7.60        0.328E-09     1.00        0.103E-02     1.15    
   -7.59        0.329E-09     1.00        0.103E-02     1.15    
   -7.58        0.330E-09     1.00        0.103E-02     1.15    
   -7.57        0.330E-09     1.00        0.103E-02     1.15    
   -7.56        0.331E-09     1.00        0.103E-02     1.15    
   -7.55        0.332E-09     1.00        0.103E-02     1.15    
   -7.54        0.332E-09     1.00        0.103E-02     1.15    
   -7.53        0.333E-09     1.00        0.104E-02     1.15    
   -7.52        0.334E-09     1.00        0.104E-02     1.15    
   -7.51        0.334E-09     1.00        0.104E-02     1.15    
   -7.50        0.335E-09     1.00        0.104E-02     1.15    
   -7.49        0.336E-09     1.00        0.104E-02     1.15    
   -7.48        0.336E-09     1.00        0.104E-02     1.15    
   -7.47        0.337E-09     1.00        0.104E-02     1.15    
   -7.46        0.338E-09     1.00        0.105E-02     1.15    
   -7.45        0.338E-09     1.00        0.105E-02     1.15    
   -7.44        0.339E-09     1.00        0.105E-02     1.15    
   -7.43        0.340E-09     1.00        0.105E-02     1.15    
   -7.42        0.340E-09     1.00        0.105E-02     1.15    
   -7.41        0.341E-09     1.00        0.105E-02     1.15    
   -7.40        0.342E-09     1.00        0.106E-02     1.15    
   -7.39        0.342E-09     1.00        0.106E-02     1.15    
   -7.38        0.343E-09     1.00        0.106E-02     1.15    
   -7.37        0.344E-09     1.00        0.106E-02     1.15    
   -7.36        0.344E-09     1.00        0.106E-02     1.15    
   -7.35        0.345E-09     1.00        0.106E-02     1.15    
   -7.34        0.346E-09     1.00        0.106E-02     1.15    
   -7.33        0.347E-09     1.00        0.107E-02     1.15    
   -7.32        0.347E-09     1.00        0.107E-02     1.15    
   -7.31        0.348E-09     1.00        0.107E-02     1.15    
   -7.30        0.349E-09     1.00        0.107E-02     1.15    
   -7.29        0.349E-09     1.00        0.107E-02     1.15    
   -7.28        0.350E-09     1.00        0.107E-02     1.15    
   -7.27        0.351E-09     1.00        0.108E-02     1.15    
   -7.26        0.352E-09     1.00        0.108E-02     1.15    
   -7.25        0.352E-09     1.00        0.108E-02     1.15    
   -7.24        0.353E-09     1.00        0.108E-02     1.15    
   -7.23        0.354E-09     1.00        0.108E-02     1.15    
   -7.22        0.354E-09     1.00        0.108E-02     1.15    
   -7.21        0.355E-09     1.00        0.109E-02     1.15    
   -7.20        0.356E-09     1.00        0.109E-02     1.15    
   -7.19        0.357E-09     1.00        0.109E-02     1.15    
   -7.18        0.357E-09     1.00        0.109E-02     1.15    
   -7.17        0.358E-09     1.00        0.109E-02     1.15    
   -7.16        0.359E-09     1.00        0.109E-02     1.15    
   -7.15        0.360E-09     1.00        0.109E-02     1.15    
   -7.14        0.360E-09     1.00        0.110E-02     1.15    
   -7.13        0.361E-09     1.00        0.110E-02     1.15    
   -7.12        0.362E-09     1.00        0.110E-02     1.15    
   -7.11        0.363E-09     1.00        0.110E-02     1.15    
   -7.10        0.363E-09     1.00        0.110E-02     1.15    
   -7.09        0.364E-09     1.00        0.110E-02     1.15    
   -7.08        0.365E-09     1.00        0.111E-02     1.15    
   -7.07        0.366E-09     1.00        0.111E-02     1.15    
   -7.06        0.366E-09     1.00        0.111E-02     1.15    
   -7.05        0.367E-09     1.00        0.111E-02     1.15    
   -7.04        0.368E-09     1.00        0.111E-02     1.15    
   -7.03        0.369E-09     1.00        0.111E-02     1.15    
   -7.02        0.369E-09     1.00        0.112E-02     1.15    
   -7.01        0.370E-09     1.00        0.112E-02     1.15    
   -7.00        0.371E-09     1.00        0.112E-02     1.15    
   -6.99        0.372E-09     1.00        0.112E-02     1.15    
   -6.98        0.372E-09     1.00        0.112E-02     1.15    
   -6.97        0.373E-09     1.00        0.112E-02     1.15    
   -6.96        0.374E-09     1.00        0.113E-02     1.15    
   -6.95        0.375E-09     1.00        0.113E-02     1.15    
   -6.94        0.376E-09     1.00        0.113E-02     1.15    
   -6.93        0.376E-09     1.00        0.113E-02     1.15    
   -6.92        0.377E-09     1.00        0.113E-02     1.15    
   -6.91        0.378E-09     1.00        0.113E-02     1.15    
   -6.90        0.379E-09     1.00        0.114E-02     1.15    
   -6.89        0.380E-09     1.00        0.114E-02     1.15    
   -6.88        0.380E-09     1.00        0.114E-02     1.16    
   -6.87        0.381E-09     1.00        0.114E-02     1.16    
   -6.86        0.382E-09     1.00        0.114E-02     1.16    
   -6.85        0.383E-09     1.00        0.114E-02     1.16    
   -6.84        0.384E-09     1.00        0.115E-02     1.16    
   -6.83        0.384E-09     1.00        0.115E-02     1.16    
   -6.82        0.385E-09     1.00        0.115E-02     1.16    
   -6.81        0.386E-09     1.00        0.115E-02     1.16    
   -6.80        0.387E-09     1.00        0.115E-02     1.16    
   -6.79        0.388E-09     1.00        0.116E-02     1.16    
   -6.78        0.389E-09     1.00        0.116E-02     1.16    
   -6.77        0.389E-09     1.00        0.116E-02     1.16    
   -6.76        0.390E-09     1.00        0.116E-02     1.16    
   -6.75        0.391E-09     1.00        0.116E-02     1.16    
   -6.74        0.392E-09     1.00        0.116E-02     1.16    
   -6.73        0.393E-09     1.00        0.117E-02     1.16    
   -6.72        0.394E-09     1.00        0.117E-02     1.16    
   -6.71        0.394E-09     1.00        0.117E-02     1.16    
   -6.70        0.395E-09     1.00        0.117E-02     1.16    
   -6.69        0.396E-09     1.00        0.117E-02     1.16    
   -6.68        0.397E-09     1.00        0.117E-02     1.16    
   -6.67        0.398E-09     1.00        0.118E-02     1.16    
   -6.66        0.399E-09     1.00        0.118E-02     1.16    
   -6.65        0.400E-09     1.00        0.118E-02     1.16    
   -6.64        0.400E-09     1.00        0.118E-02     1.16    
   -6.63        0.401E-09     1.00        0.118E-02     1.16    
   -6.62        0.402E-09     1.00        0.119E-02     1.16    
   -6.61        0.403E-09     1.00        0.119E-02     1.16    
   -6.60        0.404E-09     1.00        0.119E-02     1.16    
   -6.59        0.405E-09     1.00        0.119E-02     1.16    
   -6.58        0.406E-09     1.00        0.119E-02     1.16    
   -6.57        0.407E-09     1.00        0.119E-02     1.16    
   -6.56        0.408E-09     1.00        0.120E-02     1.16    
   -6.55        0.408E-09     1.00        0.120E-02     1.16    
   -6.54        0.409E-09     1.00        0.120E-02     1.16    
   -6.53        0.410E-09     1.00        0.120E-02     1.16    
   -6.52        0.411E-09     1.00        0.120E-02     1.16    
   -6.51        0.412E-09     1.00        0.121E-02     1.16    
   -6.50        0.413E-09     1.00        0.121E-02     1.16    
   -6.49        0.414E-09     1.00        0.121E-02     1.16    
   -6.48        0.415E-09     1.00        0.121E-02     1.16    
   -6.47        0.416E-09     1.00        0.121E-02     1.16    
   -6.46        0.417E-09     1.00        0.121E-02     1.16    
   -6.45        0.418E-09     1.00        0.122E-02     1.16    
   -6.44        0.418E-09     1.00        0.122E-02     1.16    
   -6.43        0.419E-09     1.00        0.122E-02     1.16    
   -6.42        0.420E-09     1.00        0.122E-02     1.16    
   -6.41        0.421E-09     1.00        0.122E-02     1.16    
   -6.40        0.422E-09     1.00        0.123E-02     1.16    
   -6.39        0.423E-09     1.00        0.123E-02     1.16    
   -6.38        0.424E-09     1.00        0.123E-02     1.16    
   -6.37        0.425E-09     1.00        0.123E-02     1.16    
   -6.36        0.426E-09     1.00        0.123E-02     1.16    
   -6.35        0.427E-09     1.00        0.124E-02     1.16    
   -6.34        0.428E-09     1.00        0.124E-02     1.16    
   -6.33        0.429E-09     1.00        0.124E-02     1.16    
   -6.32        0.430E-09     1.00        0.124E-02     1.16    
   -6.31        0.431E-09     1.00        0.124E-02     1.16    
   -6.30        0.432E-09     1.00        0.125E-02     1.16    
   -6.29        0.433E-09     1.00        0.125E-02     1.16    
   -6.28        0.434E-09     1.00        0.125E-02     1.16    
   -6.27        0.435E-09     1.00        0.125E-02     1.16    
   -6.26        0.436E-09     1.00        0.125E-02     1.16    
   -6.25        0.437E-09     1.00        0.126E-02     1.16    
   -6.24        0.438E-09     1.00        0.126E-02     1.16    
   -6.23        0.439E-09     1.00        0.126E-02     1.16    
   -6.22        0.440E-09     1.00        0.126E-02     1.16    
   -6.21        0.441E-09     1.00        0.126E-02     1.16    
   -6.20        0.442E-09     1.00        0.127E-02     1.16    
   -6.19        0.443E-09     1.00        0.127E-02     1.16    
   -6.18        0.444E-09     1.00        0.127E-02     1.16    
   -6.17        0.445E-09     1.00        0.127E-02     1.16    
   -6.16        0.446E-09     1.00        0.127E-02     1.16    
   -6.15        0.447E-09     1.00        0.128E-02     1.16    
   -6.14        0.448E-09     1.00        0.128E-02     1.16    
   -6.13        0.449E-09     1.00        0.128E-02     1.16    
   -6.12        0.450E-09     1.00        0.128E-02     1.16    
   -6.11        0.451E-09     1.00        0.128E-02     1.16    
   -6.10        0.452E-09     1.00        0.129E-02     1.16    
   -6.09        0.453E-09     1.00        0.129E-02     1.16    
   -6.08        0.454E-09     1.00        0.129E-02     1.16    
   -6.07        0.455E-09     1.00        0.129E-02     1.16    
   -6.06        0.456E-09     1.00        0.129E-02     1.16    
   -6.05        0.457E-09     1.00        0.130E-02     1.17    
   -6.04        0.458E-09     1.00        0.130E-02     1.17    
   -6.03        0.459E-09     1.00        0.130E-02     1.17    
   -6.02        0.460E-09     1.00        0.130E-02     1.17    
   -6.01        0.461E-09     1.00        0.130E-02     1.17    
   -6.00        0.463E-09     1.00        0.131E-02     1.17    
   -5.99        0.464E-09     1.00        0.131E-02     1.17    
   -5.98        0.465E-09     1.00        0.131E-02     1.17    
   -5.97        0.466E-09     1.00        0.131E-02     1.17    
   -5.96        0.467E-09     1.00        0.132E-02     1.17    
   -5.95        0.468E-09     1.00        0.132E-02     1.17    
   -5.94        0.469E-09     1.00        0.132E-02     1.17    
   -5.93        0.470E-09     1.00        0.132E-02     1.17    
   -5.92        0.471E-09     1.00        0.132E-02     1.17    
   -5.91        0.472E-09     1.00        0.133E-02     1.17    
   -5.90        0.474E-09     1.00        0.133E-02     1.17    
   -5.89        0.475E-09     1.00        0.133E-02     1.17    
   -5.88        0.476E-09     1.00        0.133E-02     1.17    
   -5.87        0.477E-09     1.00        0.133E-02     1.17    
   -5.86        0.478E-09     1.00        0.134E-02     1.17    
   -5.85        0.479E-09     1.00        0.134E-02     1.17    
   -5.84        0.480E-09     1.00        0.134E-02     1.17    
   -5.83        0.481E-09     1.00        0.134E-02     1.17    
   -5.82        0.483E-09     1.00        0.135E-02     1.17    
   -5.81        0.484E-09     1.00        0.135E-02     1.17    
   -5.80        0.485E-09     1.00        0.135E-02     1.17    
   -5.79        0.486E-09     1.00        0.135E-02     1.17    
   -5.78        0.487E-09     1.00        0.135E-02     1.17    
   -5.77        0.488E-09     1.00        0.136E-02     1.17    
   -5.76        0.490E-09     1.00        0.136E-02     1.17    
   -5.75        0.491E-09     1.00        0.136E-02     1.17    
   -5.74        0.492E-09     1.00        0.136E-02     1.17    
   -5.73        0.493E-09     1.00        0.137E-02     1.17    
   -5.72        0.494E-09     1.00        0.137E-02     1.17    
   -5.71        0.496E-09     1.00        0.137E-02     1.17    
   -5.70        0.497E-09     1.00        0.137E-02     1.17    
   -5.69        0.498E-09     1.00        0.137E-02     1.17    
   -5.68        0.499E-09     1.00        0.138E-02     1.17    
   -5.67        0.500E-09     1.00        0.138E-02     1.17    
   -5.66        0.502E-09     1.00        0.138E-02     1.17    
   -5.65        0.503E-09     1.00        0.138E-02     1.17    
   -5.64        0.504E-09     1.00        0.139E-02     1.17    
   -5.63        0.505E-09     1.00        0.139E-02     1.17    
   -5.62        0.507E-09     1.00        0.139E-02     1.17    
   -5.61        0.508E-09     1.00        0.139E-02     1.17    
   -5.60        0.509E-09     1.00        0.140E-02     1.17    
   -5.59        0.510E-09     1.00        0.140E-02     1.17    
   -5.58        0.512E-09     1.00        0.140E-02     1.17    
   -5.57        0.513E-09     1.00        0.140E-02     1.17    
   -5.56        0.514E-09     1.00        0.140E-02     1.17    
   -5.55        0.515E-09     1.00        0.141E-02     1.17    
   -5.54        0.517E-09     1.00        0.141E-02     1.17    
   -5.53        0.518E-09     1.00        0.141E-02     1.17    
   -5.52        0.519E-09     1.00        0.141E-02     1.17    
   -5.51        0.520E-09     1.00        0.142E-02     1.17    
   -5.50        0.522E-09     1.00        0.142E-02     1.17    
   -5.49        0.523E-09     1.00        0.142E-02     1.17    
   -5.48        0.524E-09     1.00        0.142E-02     1.17    
   -5.47        0.526E-09     1.00        0.143E-02     1.17    
   -5.46        0.527E-09     1.00        0.143E-02     1.17    
   -5.45        0.528E-09     1.00        0.143E-02     1.17    
   -5.44        0.530E-09     1.00        0.143E-02     1.17    
   -5.43        0.531E-09     1.00        0.144E-02     1.17    
   -5.42        0.532E-09     1.00        0.144E-02     1.17    
   -5.41        0.534E-09     1.00        0.144E-02     1.17    
   -5.40        0.535E-09     1.00        0.144E-02     1.17    
   -5.39        0.536E-09     1.00        0.145E-02     1.17    
   -5.38        0.538E-09     1.00        0.145E-02     1.17    
   -5.37        0.539E-09     1.00        0.145E-02     1.17    
   -5.36        0.540E-09     1.00        0.145E-02     1.17    
   -5.35        0.542E-09     1.00        0.146E-02     1.17    
   -5.34        0.543E-09     1.00        0.146E-02     1.17    
   -5.33        0.544E-09     1.00        0.146E-02     1.17    
   -5.32        0.546E-09     1.00        0.146E-02     1.18    
   -5.31        0.547E-09     1.00        0.147E-02     1.18    
   -5.30        0.549E-09     1.00        0.147E-02     1.18    
   -5.29        0.550E-09     1.00        0.147E-02     1.18    
   -5.28        0.551E-09     1.00        0.147E-02     1.18    
   -5.27        0.553E-09     1.00        0.148E-02     1.18    
   -5.26        0.554E-09     1.00        0.148E-02     1.18    
   -5.25        0.556E-09     1.00        0.148E-02     1.18    
   -5.24        0.557E-09     1.00        0.148E-02     1.18    
   -5.23        0.558E-09     1.00        0.149E-02     1.18    
   -5.22        0.560E-09     1.00        0.149E-02     1.18    
   -5.21        0.561E-09     1.00        0.149E-02     1.18    
   -5.20        0.563E-09     1.00        0.149E-02     1.18    
   -5.19        0.564E-09     1.00        0.150E-02     1.18    
   -5.18        0.566E-09     1.00        0.150E-02     1.18    
   -5.17        0.567E-09     1.00        0.150E-02     1.18    
   -5.16        0.569E-09     1.00        0.150E-02     1.18    
   -5.15        0.570E-09     1.00        0.151E-02     1.18    
   -5.14        0.572E-09     1.00        0.151E-02     1.18    
   -5.13        0.573E-09     1.00        0.151E-02     1.18    
   -5.12        0.575E-09     1.00        0.151E-02     1.18    
   -5.11        0.576E-09     1.00        0.152E-02     1.18    
   -5.10        0.578E-09     1.00        0.152E-02     1.18    
   -5.09        0.579E-09     1.00        0.152E-02     1.18    
   -5.08        0.581E-09     1.00        0.153E-02     1.18    
   -5.07        0.582E-09     1.00        0.153E-02     1.18    
   -5.06        0.584E-09     1.00        0.153E-02     1.18    
   -5.05        0.585E-09     1.00        0.153E-02     1.18    
   -5.04        0.587E-09     1.00        0.154E-02     1.18    
   -5.03        0.588E-09     1.00        0.154E-02     1.18    
   -5.02        0.590E-09     1.00        0.154E-02     1.18    
   -5.01        0.591E-09     1.00        0.154E-02     1.18    
   -5.00        0.593E-09     1.00        0.155E-02     1.18    
   -4.99        0.595E-09     1.00        0.155E-02     1.18    
   -4.98        0.596E-09     1.00        0.155E-02     1.18    
   -4.97        0.598E-09     1.00        0.156E-02     1.18    
   -4.96        0.599E-09     1.00        0.156E-02     1.18    
   -4.95        0.601E-09     1.00        0.156E-02     1.18    
   -4.94        0.602E-09     1.00        0.156E-02     1.18    
   -4.93        0.604E-09     1.00        0.157E-02     1.18    
   -4.92        0.606E-09     1.00        0.157E-02     1.18    
   -4.91        0.607E-09     1.00        0.157E-02     1.18    
   -4.90        0.609E-09     1.00        0.157E-02     1.18    
   -4.89        0.611E-09     1.00        0.158E-02     1.18    
   -4.88        0.612E-09     1.00        0.158E-02     1.18    
   -4.87        0.614E-09     1.00        0.158E-02     1.18    
   -4.86        0.616E-09     1.00        0.159E-02     1.18    
   -4.85        0.617E-09     1.00        0.159E-02     1.18    
   -4.84        0.619E-09     1.00        0.159E-02     1.18    
   -4.83        0.621E-09     1.00        0.159E-02     1.18    
   -4.82        0.622E-09     1.00        0.160E-02     1.18    
   -4.81        0.624E-09     1.00        0.160E-02     1.18    
   -4.80        0.626E-09     1.00        0.160E-02     1.18    
   -4.79        0.627E-09     1.00        0.161E-02     1.18    
   -4.78        0.629E-09     1.00        0.161E-02     1.18    
   -4.77        0.631E-09     1.00        0.161E-02     1.18    
   -4.76        0.632E-09     1.00        0.162E-02     1.18    
   -4.75        0.634E-09     1.00        0.162E-02     1.18    
   -4.74        0.636E-09     1.00        0.162E-02     1.18    
   -4.73        0.638E-09     1.00        0.162E-02     1.18    
   -4.72        0.639E-09     1.00        0.163E-02     1.18    
   -4.71        0.641E-09     1.00        0.163E-02     1.18    
   -4.70        0.643E-09     1.00        0.163E-02     1.18    
   -4.69        0.645E-09     1.00        0.164E-02     1.18    
   -4.68        0.646E-09     1.00        0.164E-02     1.19    
   -4.67        0.648E-09     1.00        0.164E-02     1.19    
   -4.66        0.650E-09     1.00        0.164E-02     1.19    
   -4.65        0.652E-09     1.00        0.165E-02     1.19    
   -4.64        0.654E-09     1.00        0.165E-02     1.19    
   -4.63        0.655E-09     1.00        0.165E-02     1.19    
   -4.62        0.657E-09     1.00        0.166E-02     1.19    
   -4.61        0.659E-09     1.00        0.166E-02     1.19    
   -4.60        0.661E-09     1.00        0.166E-02     1.19    
   -4.59        0.663E-09     1.00        0.167E-02     1.19    
   -4.58        0.665E-09     1.00        0.167E-02     1.19    
   -4.57        0.667E-09     1.00        0.167E-02     1.19    
   -4.56        0.668E-09     1.00        0.168E-02     1.19    
   -4.55        0.670E-09     1.00        0.168E-02     1.19    
   -4.54        0.672E-09     1.00        0.168E-02     1.19    
   -4.53        0.674E-09     1.00        0.168E-02     1.19    
   -4.52        0.676E-09     1.00        0.169E-02     1.19    
   -4.51        0.678E-09     1.00        0.169E-02     1.19    
   -4.50        0.680E-09     1.00        0.169E-02     1.19    
   -4.49        0.682E-09     1.00        0.170E-02     1.19    
   -4.48        0.684E-09     1.00        0.170E-02     1.19    
   -4.47        0.686E-09     1.00        0.170E-02     1.19    
   -4.46        0.688E-09     1.00        0.171E-02     1.19    
   -4.45        0.690E-09     1.00        0.171E-02     1.19    
   -4.44        0.692E-09     1.00        0.171E-02     1.19    
   -4.43        0.693E-09     1.00        0.172E-02     1.19    
   -4.42        0.695E-09     1.00        0.172E-02     1.19    
   -4.41        0.697E-09     1.00        0.172E-02     1.19    
   -4.40        0.699E-09     1.00        0.173E-02     1.19    
   -4.39        0.701E-09     1.00        0.173E-02     1.19    
   -4.38        0.704E-09     1.00        0.173E-02     1.19    
   -4.37        0.706E-09     1.00        0.174E-02     1.19    
   -4.36        0.708E-09     1.00        0.174E-02     1.19    
   -4.35        0.710E-09     1.00        0.174E-02     1.19    
   -4.34        0.712E-09     1.00        0.175E-02     1.19    
   -4.33        0.714E-09     1.00        0.175E-02     1.19    
   -4.32        0.716E-09     1.00        0.175E-02     1.19    
   -4.31        0.718E-09     1.00        0.176E-02     1.19    
   -4.30        0.720E-09     1.00        0.176E-02     1.19    
   -4.29        0.722E-09     1.00        0.176E-02     1.19    
   -4.28        0.724E-09     1.00        0.177E-02     1.19    
   -4.27        0.726E-09     1.00        0.177E-02     1.19    
   -4.26        0.728E-09     1.00        0.177E-02     1.19    
   -4.25        0.731E-09     1.00        0.178E-02     1.19    
   -4.24        0.733E-09     1.00        0.178E-02     1.19    
   -4.23        0.735E-09     1.00        0.178E-02     1.19    
   -4.22        0.737E-09     1.00        0.179E-02     1.19    
   -4.21        0.739E-09     1.00        0.179E-02     1.19    
   -4.20        0.741E-09     1.00        0.179E-02     1.19    
   -4.19        0.744E-09     1.00        0.180E-02     1.19    
   -4.18        0.746E-09     1.00        0.180E-02     1.19    
   -4.17        0.748E-09     1.00        0.180E-02     1.19    
   -4.16        0.750E-09     1.00        0.181E-02     1.19    
   -4.15        0.753E-09     1.00        0.181E-02     1.19    
   -4.14        0.755E-09     1.00        0.181E-02     1.19    
   -4.13        0.757E-09     1.00        0.182E-02     1.19    
   -4.12        0.759E-09     1.00        0.182E-02     1.19    
   -4.11        0.762E-09     1.00        0.182E-02     1.19    
   -4.10        0.764E-09     1.00        0.183E-02     1.20    
   -4.09        0.766E-09     1.00        0.183E-02     1.20    
   -4.08        0.768E-09     1.00        0.183E-02     1.20    
   -4.07        0.771E-09     1.00        0.184E-02     1.20    
   -4.06        0.773E-09     1.00        0.184E-02     1.20    
   -4.05        0.775E-09     1.00        0.184E-02     1.20    
   -4.04        0.778E-09     1.00        0.185E-02     1.20    
   -4.03        0.780E-09     1.00        0.185E-02     1.20    
   -4.02        0.783E-09     1.00        0.186E-02     1.20    
   -4.01        0.785E-09     1.00        0.186E-02     1.20    
   -4.00        0.787E-09     1.00        0.186E-02     1.20    
   -3.99        0.790E-09     1.00        0.187E-02     1.20    
   -3.98        0.792E-09     1.00        0.187E-02     1.20    
   -3.97        0.795E-09     1.00        0.187E-02     1.20    
   -3.96        0.797E-09     1.00        0.188E-02     1.20    
   -3.95        0.799E-09     1.00        0.188E-02     1.20    
   -3.94        0.802E-09     1.00        0.188E-02     1.20    
   -3.93        0.804E-09     1.00        0.189E-02     1.20    
   -3.92        0.807E-09     1.00        0.189E-02     1.20    
   -3.91        0.809E-09     1.00        0.190E-02     1.20    
   -3.90        0.812E-09     1.00        0.190E-02     1.20    
   -3.89        0.814E-09     1.00        0.190E-02     1.20    
   -3.88        0.817E-09     1.00        0.191E-02     1.20    
   -3.87        0.819E-09     1.00        0.191E-02     1.20    
   -3.86        0.822E-09     1.00        0.191E-02     1.20    
   -3.85        0.825E-09     1.00        0.192E-02     1.20    
   -3.84        0.827E-09     1.00        0.192E-02     1.20    
   -3.83        0.830E-09     1.00        0.193E-02     1.20    
   -3.82        0.832E-09     1.00        0.193E-02     1.20    
   -3.81        0.835E-09     1.00        0.193E-02     1.20    
   -3.80        0.838E-09     1.00        0.194E-02     1.20    
   -3.79        0.840E-09     1.00        0.194E-02     1.20    
   -3.78        0.843E-09     1.00        0.195E-02     1.20    
   -3.77        0.846E-09     1.00        0.195E-02     1.20    
   -3.76        0.848E-09     1.00        0.195E-02     1.20    
   -3.75        0.851E-09     1.00        0.196E-02     1.20    
   -3.74        0.854E-09     1.00        0.196E-02     1.20    
   -3.73        0.856E-09     1.00        0.197E-02     1.20    
   -3.72        0.859E-09     1.00        0.197E-02     1.20    
   -3.71        0.862E-09     1.00        0.197E-02     1.20    
   -3.70        0.865E-09     1.00        0.198E-02     1.20    
   -3.69        0.867E-09     1.00        0.198E-02     1.20    
   -3.68        0.870E-09     1.00        0.199E-02     1.20    
   -3.67        0.873E-09     1.00        0.199E-02     1.20    
   -3.66        0.876E-09     1.00        0.199E-02     1.20    
   -3.65        0.878E-09     1.00        0.200E-02     1.20    
   -3.64        0.881E-09     1.00        0.200E-02     1.20    
   -3.63        0.884E-09     1.00        0.201E-02     1.20    
   -3.62        0.887E-09     1.00        0.201E-02     1.20    
   -3.61        0.890E-09     1.00        0.201E-02     1.20    
   -3.60        0.893E-09     1.00        0.202E-02     1.20    
   -3.59        0.896E-09     1.00        0.202E-02     1.20    
   -3.58        0.899E-09     1.00        0.203E-02     1.21    
   -3.57        0.902E-09     1.00        0.203E-02     1.21    
   -3.56        0.904E-09     1.00        0.203E-02     1.21    
   -3.55        0.907E-09     1.00        0.204E-02     1.21    
   -3.54        0.910E-09     1.00        0.204E-02     1.21    
   -3.53        0.913E-09     1.00        0.205E-02     1.21    
   -3.52        0.916E-09     1.00        0.205E-02     1.21    
   -3.51        0.919E-09     1.00        0.206E-02     1.21    
   -3.50        0.922E-09     1.00        0.206E-02     1.21    
   -3.49        0.926E-09     1.00        0.206E-02     1.21    
   -3.48        0.929E-09     1.00        0.207E-02     1.21    
   -3.47        0.932E-09     1.00        0.207E-02     1.21    
   -3.46        0.935E-09     1.00        0.208E-02     1.21    
   -3.45        0.938E-09     1.00        0.208E-02     1.21    
   -3.44        0.941E-09     1.00        0.209E-02     1.21    
   -3.43        0.944E-09     1.00        0.209E-02     1.21    
   -3.42        0.947E-09     1.00        0.209E-02     1.21    
   -3.41        0.950E-09     1.00        0.210E-02     1.21    
   -3.40        0.954E-09     1.00        0.210E-02     1.21    
   -3.39        0.957E-09     1.00        0.211E-02     1.21    
   -3.38        0.960E-09     1.00        0.211E-02     1.21    
   -3.37        0.963E-09     1.00        0.212E-02     1.21    
   -3.36        0.967E-09     1.00        0.212E-02     1.21    
   -3.35        0.970E-09     1.00        0.212E-02     1.21    
   -3.34        0.973E-09     1.00        0.213E-02     1.21    
   -3.33        0.976E-09     1.00        0.213E-02     1.21    
   -3.32        0.980E-09     1.00        0.214E-02     1.21    
   -3.31        0.983E-09     1.00        0.214E-02     1.21    
   -3.30        0.986E-09     1.00        0.215E-02     1.21    
   -3.29        0.990E-09     1.00        0.215E-02     1.21    
   -3.28        0.993E-09     1.00        0.216E-02     1.21    
   -3.27        0.997E-09     1.00        0.216E-02     1.21    
   -3.260       0.1000E-8     1.000       0.2165E-2     1.212   
   -3.250       0.1003E-8     1.000       0.2170E-2     1.212   
   -3.240       0.1007E-8     1.000       0.2175E-2     1.212   
   -3.230       0.1010E-8     1.000       0.2179E-2     1.212   
   -3.220       0.1014E-8     1.000       0.2184E-2     1.213   
   -3.210       0.1017E-8     1.000       0.2188E-2     1.213   
   -3.200       0.1021E-8     1.000       0.2193E-2     1.213   
   -3.190       0.1025E-8     1.000       0.2198E-2     1.213   
   -3.180       0.1028E-8     1.000       0.2203E-2     1.214   
   -3.170       0.1032E-8     1.000       0.2207E-2     1.214   
   -3.160       0.1035E-8     1.000       0.2212E-2     1.214   
   -3.150       0.1039E-8     1.000       0.2217E-2     1.214   
   -3.140       0.1043E-8     1.000       0.2221E-2     1.214   
   -3.130       0.1046E-8     1.000       0.2226E-2     1.215   
   -3.120       0.1050E-8     1.000       0.2231E-2     1.215   
   -3.110       0.1054E-8     1.000       0.2236E-2     1.215   
   -3.100       0.1057E-8     1.000       0.2241E-2     1.215   
   -3.090       0.1061E-8     1.000       0.2246E-2     1.216   
   -3.080       0.1065E-8     1.000       0.2250E-2     1.216   
   -3.070       0.1069E-8     1.000       0.2255E-2     1.216   
   -3.060       0.1072E-8     1.000       0.2260E-2     1.216   
   -3.050       0.1076E-8     1.000       0.2265E-2     1.216   
   -3.040       0.1080E-8     1.000       0.2270E-2     1.217   
   -3.030       0.1084E-8     1.000       0.2275E-2     1.217   
   -3.020       0.1088E-8     1.000       0.2280E-2     1.217   
   -3.010       0.1092E-8     1.000       0.2285E-2     1.217   
   -3.000       0.1096E-8     1.000       0.2290E-2     1.218   
   -2.990       0.1100E-8     1.000       0.2295E-2     1.218   
   -2.980       0.1104E-8     1.000       0.2300E-2     1.218   
   -2.970       0.1108E-8     1.000       0.2305E-2     1.218   
   -2.960       0.1112E-8     1.000       0.2310E-2     1.218   
   -2.950       0.1116E-8     1.000       0.2315E-2     1.219   
   -2.940       0.1120E-8     1.000       0.2320E-2     1.219   
   -2.930       0.1124E-8     1.000       0.2325E-2     1.219   
   -2.920       0.1128E-8     1.000       0.2330E-2     1.219   
   -2.910       0.1132E-8     1.000       0.2336E-2     1.220   
   -2.900       0.1136E-8     1.000       0.2341E-2     1.220   
   -2.890       0.1140E-8     1.000       0.2346E-2     1.220   
   -2.880       0.1144E-8     1.000       0.2351E-2     1.220   
   -2.870       0.1149E-8     1.000       0.2356E-2     1.221   
   -2.860       0.1153E-8     1.000       0.2362E-2     1.221   
   -2.850       0.1157E-8     1.000       0.2367E-2     1.221   
   -2.840       0.1161E-8     1.000       0.2372E-2     1.221   
   -2.830       0.1166E-8     1.000       0.2377E-2     1.222   
   -2.820       0.1170E-8     1.000       0.2383E-2     1.222   
   -2.810       0.1174E-8     1.000       0.2388E-2     1.222   
   -2.800       0.1179E-8     1.000       0.2393E-2     1.222   
   -2.790       0.1183E-8     1.000       0.2399E-2     1.222   
   -2.780       0.1188E-8     1.000       0.2404E-2     1.223   
   -2.770       0.1192E-8     1.000       0.2409E-2     1.223   
   -2.760       0.1197E-8     1.000       0.2415E-2     1.223   
   -2.750       0.1201E-8     1.000       0.2420E-2     1.223   
   -2.740       0.1206E-8     1.000       0.2426E-2     1.224   
   -2.730       0.1210E-8     1.000       0.2431E-2     1.224   
   -2.720       0.1215E-8     1.000       0.2437E-2     1.224   
   -2.710       0.1219E-8     1.000       0.2442E-2     1.224   
   -2.700       0.1224E-8     1.000       0.2448E-2     1.225   
   -2.690       0.1229E-8     1.000       0.2453E-2     1.225   
   -2.680       0.1233E-8     1.000       0.2459E-2     1.225   
   -2.670       0.1238E-8     1.000       0.2465E-2     1.225   
   -2.660       0.1243E-8     1.000       0.2470E-2     1.226   
   -2.650       0.1248E-8     1.000       0.2476E-2     1.226   
   -2.640       0.1252E-8     1.000       0.2481E-2     1.226   
   -2.630       0.1257E-8     1.000       0.2487E-2     1.226   
   -2.620       0.1262E-8     1.000       0.2493E-2     1.227   
   -2.610       0.1267E-8     1.000       0.2499E-2     1.227   
   -2.600       0.1272E-8     1.000       0.2504E-2     1.227   
   -2.590       0.1277E-8     1.000       0.2510E-2     1.227   
   -2.580       0.1282E-8     1.000       0.2516E-2     1.228   
   -2.570       0.1287E-8     1.000       0.2522E-2     1.228   
   -2.560       0.1292E-8     1.000       0.2527E-2     1.228   
   -2.550       0.1297E-8     1.000       0.2533E-2     1.228   
   -2.540       0.1302E-8     1.000       0.2539E-2     1.229   
   -2.530       0.1307E-8     1.000       0.2545E-2     1.229   
   -2.520       0.1312E-8     1.000       0.2551E-2     1.229   
   -2.510       0.1317E-8     1.000       0.2557E-2     1.229   
   -2.500       0.1323E-8     1.000       0.2563E-2     1.230   
   -2.490       0.1328E-8     1.000       0.2569E-2     1.230   
   -2.480       0.1333E-8     1.000       0.2575E-2     1.230   
   -2.470       0.1338E-8     1.000       0.2581E-2     1.230   
   -2.460       0.1344E-8     1.000       0.2587E-2     1.231   
   -2.450       0.1349E-8     1.000       0.2593E-2     1.231   
   -2.440       0.1355E-8     1.000       0.2599E-2     1.231   
   -2.430       0.1360E-8     1.000       0.2605E-2     1.231   
   -2.420       0.1365E-8     1.000       0.2611E-2     1.232   
   -2.410       0.1371E-8     1.000       0.2617E-2     1.232   
   -2.400       0.1376E-8     1.000       0.2623E-2     1.232   
   -2.390       0.1382E-8     1.000       0.2629E-2     1.233   
   -2.380       0.1388E-8     1.000       0.2636E-2     1.233   
   -2.370       0.1393E-8     1.000       0.2642E-2     1.233   
   -2.360       0.1399E-8     1.000       0.2648E-2     1.233   
   -2.350       0.1405E-8     1.000       0.2654E-2     1.234   
   -2.340       0.1410E-8     1.000       0.2661E-2     1.234   
   -2.330       0.1416E-8     1.000       0.2667E-2     1.234   
   -2.320       0.1422E-8     1.000       0.2673E-2     1.234   
   -2.310       0.1428E-8     1.000       0.2680E-2     1.235   
   -2.300       0.1434E-8     1.000       0.2686E-2     1.235   
   -2.290       0.1440E-8     1.000       0.2693E-2     1.235   
   -2.280       0.1445E-8     1.000       0.2699E-2     1.235   
   -2.270       0.1451E-8     1.000       0.2705E-2     1.236   
   -2.260       0.1458E-8     1.000       0.2712E-2     1.236   
   -2.250       0.1464E-8     1.000       0.2718E-2     1.236   
   -2.240       0.1470E-8     1.000       0.2725E-2     1.237   
   -2.230       0.1476E-8     1.000       0.2732E-2     1.237   
   -2.220       0.1482E-8     1.000       0.2738E-2     1.237   
   -2.210       0.1488E-8     1.000       0.2745E-2     1.237   
   -2.200       0.1494E-8     1.000       0.2751E-2     1.238   
   -2.190       0.1501E-8     1.000       0.2758E-2     1.238   
   -2.180       0.1507E-8     1.000       0.2765E-2     1.238   
   -2.170       0.1513E-8     1.000       0.2771E-2     1.238   
   -2.160       0.1520E-8     1.000       0.2778E-2     1.239   
   -2.150       0.1526E-8     1.000       0.2785E-2     1.239   
   -2.140       0.1533E-8     1.000       0.2792E-2     1.239   
   -2.130       0.1539E-8     1.000       0.2798E-2     1.240   
   -2.120       0.1546E-8     1.000       0.2805E-2     1.240   
   -2.110       0.1553E-8     1.000       0.2812E-2     1.240   
   -2.100       0.1559E-8     1.000       0.2819E-2     1.240   
   -2.090       0.1566E-8     1.000       0.2826E-2     1.241   
   -2.080       0.1573E-8     1.000       0.2833E-2     1.241   
   -2.070       0.1579E-8     1.000       0.2840E-2     1.241   
   -2.060       0.1586E-8     1.000       0.2847E-2     1.242   
   -2.050       0.1593E-8     1.000       0.2854E-2     1.242   
   -2.040       0.1600E-8     1.000       0.2861E-2     1.242   
   -2.030       0.1607E-8     1.000       0.2868E-2     1.242   
   -2.020       0.1614E-8     1.000       0.2875E-2     1.243   
   -2.010       0.1621E-8     1.000       0.2882E-2     1.243   
   -2.000       0.1628E-8     1.000       0.2889E-2     1.243   
   -1.990       0.1635E-8     1.000       0.2896E-2     1.244   
   -1.980       0.1643E-8     1.000       0.2904E-2     1.244   
   -1.970       0.1650E-8     1.000       0.2911E-2     1.244   
   -1.960       0.1657E-8     1.000       0.2918E-2     1.244   
   -1.950       0.1665E-8     1.000       0.2925E-2     1.245   
   -1.940       0.1672E-8     1.000       0.2933E-2     1.245   
   -1.930       0.1679E-8     1.000       0.2940E-2     1.245   
   -1.920       0.1687E-8     1.000       0.2948E-2     1.246   
   -1.910       0.1694E-8     1.000       0.2955E-2     1.246   
   -1.900       0.1702E-8     1.000       0.2962E-2     1.246   
   -1.890       0.1710E-8     1.000       0.2970E-2     1.247   
   -1.880       0.1717E-8     1.000       0.2977E-2     1.247   
   -1.870       0.1725E-8     1.000       0.2985E-2     1.247   
   -1.860       0.1733E-8     1.000       0.2992E-2     1.247   
   -1.850       0.1741E-8     1.000       0.3000E-2     1.248   
   -1.840       0.1749E-8     1.000       0.3008E-2     1.248   
   -1.830       0.1757E-8     1.000       0.3015E-2     1.248   
   -1.820       0.1765E-8     1.000       0.3023E-2     1.249   
   -1.810       0.1773E-8     1.000       0.3031E-2     1.249   
   -1.800       0.1781E-8     1.000       0.3038E-2     1.249   
   -1.790       0.1789E-8     1.000       0.3046E-2     1.250   
   -1.780       0.1797E-8     1.000       0.3054E-2     1.250   
   -1.770       0.1806E-8     1.000       0.3062E-2     1.250   
   -1.760       0.1814E-8     1.000       0.3070E-2     1.250   
   -1.750       0.1822E-8     1.000       0.3077E-2     1.251   
   -1.740       0.1831E-8     1.000       0.3085E-2     1.251   
   -1.730       0.1839E-8     1.000       0.3093E-2     1.251   
   -1.720       0.1848E-8     1.000       0.3101E-2     1.252   
   -1.710       0.1857E-8     1.000       0.3109E-2     1.252   
   -1.700       0.1865E-8     1.000       0.3117E-2     1.252   
   -1.690       0.1874E-8     1.000       0.3125E-2     1.253   
   -1.680       0.1883E-8     1.000       0.3134E-2     1.253   
   -1.670       0.1892E-8     1.000       0.3142E-2     1.253   
   -1.660       0.1901E-8     1.000       0.3150E-2     1.254   
   -1.650       0.1910E-8     1.000       0.3158E-2     1.254   
   -1.640       0.1919E-8     1.000       0.3166E-2     1.254   
   -1.630       0.1928E-8     1.000       0.3175E-2     1.254   
   -1.620       0.1937E-8     1.000       0.3183E-2     1.255   
   -1.610       0.1947E-8     1.000       0.3191E-2     1.255   
   -1.600       0.1956E-8     1.000       0.3200E-2     1.255   
   -1.590       0.1965E-8     1.000       0.3208E-2     1.256   
   -1.580       0.1975E-8     1.000       0.3217E-2     1.256   
   -1.570       0.1985E-8     1.000       0.3225E-2     1.256   
   -1.560       0.1994E-8     1.000       0.3234E-2     1.257   
   -1.550       0.2004E-8     1.000       0.3242E-2     1.257   
   -1.540       0.2014E-8     1.000       0.3251E-2     1.257   
   -1.530       0.2023E-8     1.000       0.3259E-2     1.258   
   -1.520       0.2033E-8     1.000       0.3268E-2     1.258   
   -1.510       0.2043E-8     1.000       0.3277E-2     1.258   
   -1.500       0.2053E-8     1.000       0.3285E-2     1.259   
   -1.490       0.2064E-8     1.000       0.3294E-2     1.259   
   -1.480       0.2074E-8     1.000       0.3303E-2     1.259   
   -1.470       0.2084E-8     1.000       0.3312E-2     1.260   
   -1.460       0.2094E-8     1.000       0.3321E-2     1.260   
   -1.450       0.2105E-8     1.000       0.3330E-2     1.260   
   -1.440       0.2115E-8     1.000       0.3339E-2     1.261   
   -1.430       0.2126E-8     1.000       0.3347E-2     1.261   
   -1.420       0.2137E-8     1.000       0.3357E-2     1.261   
   -1.410       0.2148E-8     1.000       0.3366E-2     1.262   
   -1.400       0.2158E-8     1.000       0.3375E-2     1.262   
   -1.390       0.2169E-8     1.000       0.3384E-2     1.262   
   -1.380       0.2180E-8     1.000       0.3393E-2     1.263   
   -1.370       0.2191E-8     1.000       0.3402E-2     1.263   
   -1.360       0.2203E-8     1.000       0.3411E-2     1.263   
   -1.350       0.2214E-8     1.000       0.3421E-2     1.264   
   -1.340       0.2225E-8     1.000       0.3430E-2     1.264   
   -1.330       0.2237E-8     1.000       0.3439E-2     1.264   
   -1.320       0.2248E-8     1.000       0.3449E-2     1.265   
   -1.310       0.2260E-8     1.000       0.3458E-2     1.265   
   -1.300       0.2272E-8     1.000       0.3468E-2     1.265   
   -1.290       0.2283E-8     1.000       0.3477E-2     1.266   
   -1.280       0.2295E-8     1.000       0.3487E-2     1.266   
   -1.270       0.2307E-8     1.000       0.3497E-2     1.266   
   -1.260       0.2319E-8     1.000       0.3506E-2     1.267   
   -1.250       0.2331E-8     1.000       0.3516E-2     1.267   
   -1.240       0.2344E-8     1.000       0.3526E-2     1.268   
   -1.230       0.2356E-8     1.000       0.3535E-2     1.268   
   -1.220       0.2369E-8     1.000       0.3545E-2     1.268   
   -1.210       0.2381E-8     1.000       0.3555E-2     1.269   
   -1.200       0.2394E-8     1.000       0.3565E-2     1.269   
   -1.190       0.2407E-8     1.000       0.3575E-2     1.269   
   -1.180       0.2419E-8     1.000       0.3585E-2     1.270   
   -1.170       0.2432E-8     1.000       0.3595E-2     1.270   
   -1.160       0.2445E-8     1.000       0.3605E-2     1.270   
   -1.150       0.2459E-8     1.000       0.3615E-2     1.271   
   -1.140       0.2472E-8     1.000       0.3625E-2     1.271   
   -1.130       0.2485E-8     1.000       0.3636E-2     1.271   
   -1.120       0.2499E-8     1.000       0.3646E-2     1.272   
   -1.110       0.2512E-8     1.000       0.3656E-2     1.272   
   -1.100       0.2526E-8     1.000       0.3667E-2     1.273   
   -1.090       0.2540E-8     1.000       0.3677E-2     1.273   
   -1.080       0.2554E-8     1.000       0.3687E-2     1.273   
   -1.070       0.2568E-8     1.000       0.3698E-2     1.274   
   -1.060       0.2582E-8     1.000       0.3708E-2     1.274   
   -1.050       0.2597E-8     1.000       0.3719E-2     1.274   
   -1.040       0.2611E-8     1.000       0.3730E-2     1.275   
   -1.030       0.2626E-8     1.000       0.3740E-2     1.275   
   -1.020       0.2640E-8     1.000       0.3751E-2     1.276   
   -1.010       0.2655E-8     1.000       0.3762E-2     1.276   
   -1.000       0.2670E-8     1.000       0.3773E-2     1.276   
   -.9900       0.2685E-8     1.000       0.3784E-2     1.277   
   -.9800       0.2700E-8     1.000       0.3795E-2     1.277   
   -.9700       0.2715E-8     1.000       0.3805E-2     1.277   
   -.9600       0.2731E-8     1.000       0.3817E-2     1.278   
   -.9500       0.2746E-8     1.000       0.3828E-2     1.278   
   -.9400       0.2762E-8     1.000       0.3839E-2     1.279   
   -.9300       0.2778E-8     1.000       0.3850E-2     1.279   
   -.9200       0.2794E-8     1.000       0.3861E-2     1.279   
   -.9100       0.2810E-8     1.000       0.3872E-2     1.280   
   -.9000       0.2826E-8     1.000       0.3884E-2     1.280   
   -.8900       0.2843E-8     1.000       0.3895E-2     1.280   
   -.8800       0.2859E-8     1.000       0.3907E-2     1.281   
   -.8700       0.2876E-8     1.000       0.3918E-2     1.281   
   -.8600       0.2893E-8     1.000       0.3930E-2     1.282   
   -.8500       0.2910E-8     1.000       0.3941E-2     1.282   
   -.8400       0.2927E-8     1.000       0.3953E-2     1.282   
   -.8300       0.2944E-8     1.000       0.3964E-2     1.283   
   -.8200       0.2962E-8     1.000       0.3976E-2     1.283   
   -.8100       0.2979E-8     1.000       0.3988E-2     1.284   
   -.8000       0.2997E-8     1.000       0.4000E-2     1.284   
   -.7900       0.3015E-8     1.000       0.4012E-2     1.284   
   -.7800       0.3033E-8     1.000       0.4024E-2     1.285   
   -.7700       0.3051E-8     1.000       0.4036E-2     1.285   
   -.7600       0.3069E-8     1.000       0.4048E-2     1.286   
   -.7500       0.3088E-8     1.000       0.4060E-2     1.286   
   -.7400       0.3107E-8     1.000       0.4072E-2     1.286   
   -.7300       0.3126E-8     1.000       0.4084E-2     1.287   
   -.7200       0.3145E-8     1.000       0.4097E-2     1.287   
   -.7100       0.3164E-8     1.000       0.4109E-2     1.288   
   -.7000       0.3183E-8     1.000       0.4122E-2     1.288   
   -.6900       0.3203E-8     1.000       0.4134E-2     1.289   
   -.6800       0.3223E-8     1.000       0.4147E-2     1.289   
   -.6700       0.3243E-8     1.000       0.4159E-2     1.289   
   -.6600       0.3263E-8     1.000       0.4172E-2     1.290   
   -.6500       0.3283E-8     1.000       0.4185E-2     1.290   
   -.6400       0.3304E-8     1.000       0.4197E-2     1.291   
   -.6300       0.3324E-8     1.000       0.4210E-2     1.291   
   -.6200       0.3345E-8     1.000       0.4223E-2     1.291   
   -.6100       0.3366E-8     1.000       0.4236E-2     1.292   
   -.6000       0.3388E-8     1.000       0.4249E-2     1.292   
   -.5900       0.3409E-8     1.000       0.4262E-2     1.293   
   -.5800       0.3431E-8     1.000       0.4275E-2     1.293   
   -.5700       0.3453E-8     1.000       0.4289E-2     1.294   
   -.5600       0.3475E-8     1.000       0.4302E-2     1.294   
   -.5500       0.3497E-8     1.000       0.4315E-2     1.294   
   -.5400       0.3520E-8     1.000       0.4329E-2     1.295   
   -.5300       0.3543E-8     1.000       0.4342E-2     1.295   
   -.5200       0.3566E-8     1.000       0.4356E-2     1.296   
   -.5100       0.3589E-8     1.000       0.4369E-2     1.296   
   -.5000       0.3612E-8     1.000       0.4383E-2     1.297   
   -.4900       0.3636E-8     1.000       0.4397E-2     1.297   
   -.4800       0.3660E-8     1.000       0.4410E-2     1.297   
   -.4700       0.3684E-8     1.000       0.4424E-2     1.298   
   -.4600       0.3709E-8     1.000       0.4438E-2     1.298   
   -.4500       0.3733E-8     1.000       0.4452E-2     1.299   
   -.4400       0.3758E-8     1.000       0.4466E-2     1.299   
   -.4300       0.3783E-8     1.000       0.4481E-2     1.300   
   -.4200       0.3809E-8     1.000       0.4495E-2     1.300   
   -.4100       0.3834E-8     1.000       0.4509E-2     1.301   
   -.4000       0.3860E-8     1.000       0.4523E-2     1.301   
   -.3900       0.3886E-8     1.000       0.4538E-2     1.301   
   -.3800       0.3913E-8     1.000       0.4552E-2     1.302   
   -.3700       0.3940E-8     1.000       0.4567E-2     1.302   
   -.3600       0.3967E-8     1.000       0.4582E-2     1.303   
   -.3500       0.3994E-8     1.000       0.4596E-2     1.303   
   -.3400       0.4021E-8     1.000       0.4611E-2     1.304   
   -.3300       0.4049E-8     1.000       0.4626E-2     1.304   
   -.3200       0.4077E-8     1.000       0.4641E-2     1.305   
   -.3100       0.4106E-8     1.000       0.4656E-2     1.305   
   -.3000       0.4134E-8     1.000       0.4671E-2     1.306   
   -.2900       0.4163E-8     1.000       0.4686E-2     1.306   
   -.2800       0.4193E-8     1.000       0.4702E-2     1.307   
   -.2700       0.4222E-8     1.000       0.4717E-2     1.307   
   -.2600       0.4252E-8     1.000       0.4732E-2     1.308   
   -.2500       0.4283E-8     1.000       0.4748E-2     1.308   
   -.2400       0.4313E-8     1.000       0.4763E-2     1.308   
   -.2300       0.4344E-8     1.000       0.4779E-2     1.309   
   -.2200       0.4376E-8     1.000       0.4795E-2     1.309   
   -.2100       0.4407E-8     1.000       0.4811E-2     1.310   
   -.2000       0.4439E-8     1.000       0.4827E-2     1.310   
   -.1900       0.4471E-8     1.000       0.4843E-2     1.311   
   -.1800       0.4504E-8     1.000       0.4859E-2     1.311   
   -.1700       0.4537E-8     1.000       0.4875E-2     1.312   
   -.1600       0.4570E-8     1.000       0.4891E-2     1.312   
   -.1500       0.4604E-8     1.000       0.4907E-2     1.313   
   -.1400       0.4638E-8     1.000       0.4924E-2     1.313   
   -.1300       0.4673E-8     1.000       0.4940E-2     1.314   
   -.1200       0.4708E-8     1.000       0.4957E-2     1.314   
   -.1100       0.4743E-8     1.000       0.4973E-2     1.315   
   -.1000       0.4779E-8     1.000       0.4990E-2     1.315   
   -.9000E-1    0.4815E-8     1.000       0.5007E-2     1.316   
   -.8000E-1    0.4851E-8     1.000       0.5024E-2     1.316   
   -.7000E-1    0.4888E-8     1.000       0.5041E-2     1.317   
   -.6000E-1    0.4925E-8     1.000       0.5058E-2     1.317   
   -.5000E-1    0.4963E-8     1.000       0.5075E-2     1.318   
   -.4000E-1    0.5001E-8     1.000       0.5093E-2     1.318   
   -.3000E-1    0.5040E-8     1.000       0.5110E-2     1.319   
   -.2000E-1    0.5079E-8     1.000       0.5128E-2     1.319   
   -.1000E-1    0.5119E-8     1.000       0.5145E-2     1.320   
    0.000       0.5159E-8     1.000       0.5163E-2     1.320   
   0.1000E-1    0.5199E-8     1.000       0.5181E-2     1.321   
   0.2000E-1    0.5240E-8     1.000       0.5198E-2     1.321   
   0.3000E-1    0.5282E-8     1.000       0.5216E-2     1.322   
   0.4000E-1    0.5323E-8     1.000       0.5234E-2     1.322   
   0.5000E-1    0.5366E-8     1.000       0.5253E-2     1.323   
   0.6000E-1    0.5409E-8     1.000       0.5271E-2     1.323   
   0.7000E-1    0.5452E-8     1.000       0.5289E-2     1.324   
   0.8000E-1    0.5496E-8     1.000       0.5308E-2     1.325   
   0.9000E-1    0.5541E-8     1.000       0.5326E-2     1.325   
   0.1000       0.5586E-8     1.000       0.5345E-2     1.326   
   0.1100       0.5632E-8     1.000       0.5364E-2     1.326   
   0.1200       0.5678E-8     1.000       0.5382E-2     1.327   
   0.1300       0.5725E-8     1.000       0.5401E-2     1.327   
   0.1400       0.5772E-8     1.000       0.5421E-2     1.328   
   0.1500       0.5820E-8     1.000       0.5440E-2     1.328   
   0.1600       0.5868E-8     1.000       0.5459E-2     1.329   
   0.1700       0.5917E-8     1.000       0.5478E-2     1.329   
   0.1800       0.5967E-8     1.000       0.5498E-2     1.330   
   0.1900       0.6018E-8     1.000       0.5518E-2     1.330   
   0.2000       0.6069E-8     1.000       0.5537E-2     1.331   
   0.2100       0.6120E-8     1.000       0.5557E-2     1.332   
   0.2200       0.6173E-8     1.000       0.5577E-2     1.332   
   0.2300       0.6226E-8     1.000       0.5597E-2     1.333   
   0.2400       0.6279E-8     1.000       0.5617E-2     1.333   
   0.2500       0.6334E-8     1.000       0.5638E-2     1.334   
   0.2600       0.6389E-8     1.000       0.5658E-2     1.334   
   0.2700       0.6445E-8     1.000       0.5678E-2     1.335   
   0.2800       0.6501E-8     1.000       0.5699E-2     1.336   
   0.2900       0.6559E-8     1.000       0.5720E-2     1.336   
   0.3000       0.6617E-8     1.000       0.5741E-2     1.337   
   0.3100       0.6676E-8     1.000       0.5762E-2     1.337   
   0.3200       0.6735E-8     1.000       0.5783E-2     1.338   
   0.3300       0.6796E-8     1.000       0.5804E-2     1.338   
   0.3400       0.6857E-8     1.000       0.5825E-2     1.339   
   0.3500       0.6919E-8     1.000       0.5847E-2     1.340   
   0.3600       0.6982E-8     1.000       0.5869E-2     1.340   
   0.3700       0.7046E-8     1.000       0.5890E-2     1.341   
   0.3800       0.7110E-8     1.000       0.5912E-2     1.341   
   0.3900       0.7176E-8     1.000       0.5934E-2     1.342   
   0.4000       0.7243E-8     1.000       0.5956E-2     1.343   
   0.4100       0.7310E-8     1.000       0.5978E-2     1.343   
   0.4200       0.7378E-8     1.000       0.6001E-2     1.344   
   0.4300       0.7448E-8     1.000       0.6023E-2     1.344   
   0.4400       0.7518E-8     1.000       0.6046E-2     1.345   
   0.4500       0.7589E-8     1.000       0.6069E-2     1.346   
   0.4600       0.7662E-8     1.000       0.6092E-2     1.346   
   0.4700       0.7735E-8     1.000       0.6115E-2     1.347   
   0.4800       0.7810E-8     1.000       0.6138E-2     1.347   
   0.4900       0.7885E-8     1.000       0.6161E-2     1.348   
   0.5000       0.7962E-8     1.000       0.6185E-2     1.349   
   0.5100       0.8039E-8     1.000       0.6208E-2     1.349   
   0.5200       0.8118E-8     1.000       0.6232E-2     1.350   
   0.5300       0.8198E-8     1.000       0.6256E-2     1.350   
   0.5400       0.8280E-8     1.000       0.6280E-2     1.351   
   0.5500       0.8362E-8     1.000       0.6304E-2     1.352   
   0.5600       0.8446E-8     1.000       0.6329E-2     1.352   
   0.5700       0.8531E-8     1.000       0.6353E-2     1.353   
   0.5800       0.8617E-8     1.000       0.6378E-2     1.354   
   0.5900       0.8705E-8     1.000       0.6402E-2     1.354   
   0.6000       0.8794E-8     1.000       0.6427E-2     1.355   
   0.6100       0.8884E-8     1.000       0.6452E-2     1.356   
   0.6200       0.8975E-8     1.000       0.6478E-2     1.356   
   0.6300       0.9069E-8     1.000       0.6503E-2     1.357   
   0.6400       0.9163E-8     1.000       0.6529E-2     1.357   
   0.6500       0.9259E-8     1.000       0.6554E-2     1.358   
   0.6600       0.9357E-8     1.000       0.6580E-2     1.359   
   0.6700       0.9456E-8     1.000       0.6606E-2     1.359   
   0.6800       0.9557E-8     1.000       0.6632E-2     1.360   
   0.6900       0.9659E-8     1.000       0.6659E-2     1.361   
   0.7000       0.9763E-8     1.000       0.6685E-2     1.361   
   0.7100       0.9869E-8     1.000       0.6712E-2     1.362   
   0.7200       0.9976E-8     1.000       0.6739E-2     1.363   
   0.7300       0.1009E-7     1.000       0.6766E-2     1.363   
   0.7400       0.1020E-7     1.000       0.6793E-2     1.364   
   0.7500       0.1031E-7     1.000       0.6820E-2     1.365   
   0.7600       0.1042E-7     1.000       0.6848E-2     1.365   
   0.7700       0.1054E-7     1.000       0.6876E-2     1.366   
   0.7800       0.1066E-7     1.000       0.6904E-2     1.367   
   0.7900       0.1078E-7     1.000       0.6932E-2     1.368   
   0.8000       0.1090E-7     1.000       0.6960E-2     1.368   
   0.8100       0.1103E-7     1.000       0.6988E-2     1.369   
   0.8200       0.1115E-7     1.000       0.7017E-2     1.370   
   0.8300       0.1128E-7     1.000       0.7046E-2     1.370   
   0.8400       0.1141E-7     1.000       0.7075E-2     1.371   
   0.8500       0.1155E-7     1.000       0.7104E-2     1.372   
   0.8600       0.1168E-7     1.000       0.7134E-2     1.372   
   0.8700       0.1182E-7     1.000       0.7163E-2     1.373   
   0.8800       0.1196E-7     1.000       0.7193E-2     1.374   
   0.8900       0.1211E-7     1.000       0.7223E-2     1.375   
   0.9000       0.1225E-7     1.000       0.7253E-2     1.375   
   0.9100       0.1240E-7     1.000       0.7283E-2     1.376   
   0.9200       0.1255E-7     1.000       0.7314E-2     1.377   
   0.9300       0.1271E-7     1.000       0.7345E-2     1.378   
   0.9400       0.1286E-7     1.000       0.7376E-2     1.378   
   0.9500       0.1302E-7     1.000       0.7407E-2     1.379   
   0.9600       0.1319E-7     1.000       0.7438E-2     1.380   
   0.9700       0.1335E-7     1.000       0.7470E-2     1.381   
   0.9800       0.1352E-7     1.000       0.7502E-2     1.381   
   0.9900       0.1370E-7     1.000       0.7534E-2     1.382   
    1.000       0.1387E-7     1.000       0.7566E-2     1.383   
    1.010       0.1405E-7     1.000       0.7598E-2     1.384   
    1.020       0.1423E-7     1.000       0.7631E-2     1.384   
    1.030       0.1442E-7     1.000       0.7664E-2     1.385   
    1.040       0.1461E-7     1.000       0.7697E-2     1.386   
    1.050       0.1480E-7     1.000       0.7731E-2     1.387   
    1.060       0.1500E-7     1.000       0.7764E-2     1.387   
    1.070       0.1520E-7     1.000       0.7798E-2     1.388   
    1.080       0.1541E-7     1.000       0.7832E-2     1.389   
    1.090       0.1562E-7     1.000       0.7866E-2     1.390   
    1.100       0.1583E-7     1.000       0.7901E-2     1.390   
    1.110       0.1605E-7     1.000       0.7936E-2     1.391   
    1.120       0.1628E-7     1.000       0.7971E-2     1.392   
    1.130       0.1650E-7     1.000       0.8006E-2     1.393   
    1.140       0.1674E-7     1.000       0.8042E-2     1.394   
    1.150       0.1698E-7     1.000       0.8077E-2     1.394   
    1.160       0.1722E-7     1.000       0.8113E-2     1.395   
    1.170       0.1747E-7     1.000       0.8150E-2     1.396   
    1.180       0.1772E-7     1.000       0.8186E-2     1.397   
    1.190       0.1798E-7     1.000       0.8223E-2     1.398   
    1.200       0.1825E-7     1.000       0.8260E-2     1.399   
    1.210       0.1852E-7     1.000       0.8297E-2     1.399   
    1.220       0.1879E-7     1.000       0.8335E-2     1.400   
    1.230       0.1908E-7     1.000       0.8373E-2     1.401   
    1.240       0.1937E-7     1.000       0.8411E-2     1.402   
    1.250       0.1966E-7     1.000       0.8449E-2     1.403   
    1.260       0.1997E-7     1.000       0.8488E-2     1.404   
    1.270       0.2028E-7     1.000       0.8527E-2     1.404   
    1.280       0.2059E-7     1.000       0.8566E-2     1.405   
    1.290       0.2092E-7     1.000       0.8606E-2     1.406   
    1.300       0.2125E-7     1.000       0.8646E-2     1.407   
    1.310       0.2159E-7     1.000       0.8686E-2     1.408   
    1.320       0.2194E-7     1.000       0.8726E-2     1.409   
    1.330       0.2230E-7     1.000       0.8767E-2     1.410   
    1.340       0.2267E-7     1.000       0.8808E-2     1.410   
    1.350       0.2304E-7     1.000       0.8849E-2     1.411   
    1.360       0.2343E-7     1.000       0.8891E-2     1.412   
    1.370       0.2382E-7     1.000       0.8933E-2     1.413   
    1.380       0.2423E-7     1.000       0.8975E-2     1.414   
    1.390       0.2464E-7     1.000       0.9018E-2     1.415   
    1.400       0.2507E-7     1.000       0.9061E-2     1.416   
    1.410       0.2551E-7     1.000       0.9104E-2     1.417   
    1.420       0.2596E-7     1.000       0.9148E-2     1.418   
    1.430       0.2642E-7     1.000       0.9192E-2     1.419   
    1.440       0.2689E-7     1.000       0.9236E-2     1.419   
    1.450       0.2738E-7     1.000       0.9280E-2     1.420   
    1.460       0.2788E-7     1.000       0.9325E-2     1.421   
    1.470       0.2839E-7     1.000       0.9371E-2     1.422   
    1.480       0.2892E-7     1.000       0.9416E-2     1.423   
    1.490       0.2946E-7     1.000       0.9462E-2     1.424   
    1.500       0.3002E-7     1.000       0.9509E-2     1.425   
    1.510       0.3059E-7     1.000       0.9555E-2     1.426   
    1.520       0.3118E-7     1.000       0.9602E-2     1.427   
    1.530       0.3179E-7     1.000       0.9650E-2     1.428   
    1.540       0.3242E-7     1.000       0.9698E-2     1.429   
    1.550       0.3306E-7     1.000       0.9746E-2     1.430   
    1.560       0.3373E-7     1.000       0.9794E-2     1.431   
    1.570       0.3441E-7     1.000       0.9843E-2     1.432   
    1.580       0.3512E-7     1.000       0.9893E-2     1.433   
    1.590       0.3584E-7     1.000       0.9943E-2     1.434   
    1.600       0.3659E-7     1.000       0.9993E-2     1.435   
    1.610       0.3737E-7     1.000       0.1004E-1     1.436   
    1.620       0.3817E-7     1.000       0.1009E-1     1.437   
    1.630       0.3899E-7     1.000       0.1015E-1     1.438   
    1.640       0.3984E-7     1.000       0.1020E-1     1.439   
    1.650       0.4072E-7     1.000       0.1025E-1     1.440   
    1.660       0.4163E-7     1.000       0.1030E-1     1.441   
    1.670       0.4257E-7     1.000       0.1036E-1     1.442   
    1.680       0.4355E-7     1.000       0.1041E-1     1.443   
    1.690       0.4455E-7     1.000       0.1046E-1     1.444   
    1.700       0.4559E-7     1.000       0.1052E-1     1.445   
    1.710       0.4667E-7     1.000       0.1057E-1     1.446   
    1.720       0.4779E-7     1.000       0.1063E-1     1.447   
    1.730       0.4895E-7     1.000       0.1068E-1     1.448   
    1.740       0.5015E-7     1.000       0.1074E-1     1.449   
    1.750       0.5140E-7     1.000       0.1080E-1     1.450   
    1.760       0.5269E-7     1.000       0.1085E-1     1.451   
    1.770       0.5403E-7     1.000       0.1091E-1     1.453   
    1.780       0.5542E-7     1.000       0.1097E-1     1.454   
    1.790       0.5687E-7     1.000       0.1103E-1     1.455   
    1.800       0.5838E-7     1.000       0.1109E-1     1.456   
    1.810       0.5995E-7     1.000       0.1115E-1     1.457   
    1.820       0.6158E-7     1.000       0.1121E-1     1.458   
    1.830       0.6328E-7     1.000       0.1127E-1     1.459   
    1.840       0.6505E-7     1.000       0.1133E-1     1.460   
    1.850       0.6689E-7     1.000       0.1139E-1     1.461   
    1.860       0.6882E-7     1.000       0.1145E-1     1.463   
    1.870       0.7083E-7     1.000       0.1152E-1     1.464   
    1.880       0.7293E-7     1.000       0.1158E-1     1.465   
    1.890       0.7512E-7     1.000       0.1165E-1     1.466   
    1.900       0.7741E-7     1.000       0.1171E-1     1.467   
    1.910       0.7982E-7     1.000       0.1178E-1     1.468   
    1.920       0.8233E-7     1.000       0.1184E-1     1.470   
    1.930       0.8497E-7     1.000       0.1191E-1     1.471   
    1.940       0.8773E-7     1.000       0.1197E-1     1.472   
    1.950       0.9063E-7     1.000       0.1204E-1     1.473   
    1.960       0.9368E-7     1.000       0.1211E-1     1.474   
    1.970       0.9688E-7     1.000       0.1218E-1     1.476   
    1.980       0.1002E-6     1.000       0.1225E-1     1.477   
    1.990       0.1038E-6     1.000       0.1232E-1     1.478   
    2.000       0.1075E-6     1.000       0.1239E-1     1.479   
    2.010       0.1115E-6     1.000       0.1246E-1     1.480   
    2.020       0.1157E-6     1.000       0.1253E-1     1.482   
    2.030       0.1201E-6     1.000       0.1261E-1     1.483   
    2.040       0.1247E-6     1.000       0.1268E-1     1.484   
    2.050       0.1296E-6     1.000       0.1275E-1     1.486   
    2.060       0.1349E-6     1.000       0.1283E-1     1.487   
    2.070       0.1404E-6     1.000       0.1290E-1     1.488   
    2.080       0.1463E-6     1.000       0.1298E-1     1.489   
    2.090       0.1526E-6     1.000       0.1306E-1     1.491   
    2.100       0.1593E-6     1.000       0.1314E-1     1.492   
    2.110       0.1665E-6     1.000       0.1321E-1     1.493   
    2.120       0.1741E-6     1.000       0.1329E-1     1.495   
    2.130       0.1823E-6     1.000       0.1337E-1     1.496   
    2.140       0.1910E-6     1.000       0.1345E-1     1.497   
    2.150       0.2004E-6     1.000       0.1354E-1     1.499   
    2.160       0.2105E-6     1.000       0.1362E-1     1.500   
    2.170       0.2213E-6     1.000       0.1370E-1     1.501   
    2.180       0.2330E-6     1.000       0.1379E-1     1.503   
    2.190       0.2457E-6     1.000       0.1387E-1     1.504   
    2.200       0.2594E-6     1.000       0.1396E-1     1.506   
    2.210       0.2742E-6     1.000       0.1404E-1     1.507   
    2.220       0.2904E-6     1.000       0.1413E-1     1.508   
    2.230       0.3079E-6     1.000       0.1422E-1     1.510   
    2.240       0.3271E-6     1.000       0.1431E-1     1.511   
    2.250       0.3481E-6     1.000       0.1440E-1     1.513   
    2.260       0.3710E-6     1.000       0.1449E-1     1.514   
    2.270       0.3963E-6     1.000       0.1458E-1     1.515   
    2.280       0.4241E-6     1.000       0.1468E-1     1.517   
    2.290       0.4547E-6     1.000       0.1477E-1     1.518   
    2.300       0.4887E-6     1.000       0.1487E-1     1.520   
    2.310       0.5264E-6     1.000       0.1496E-1     1.521   
    2.320       0.5683E-6     1.000       0.1506E-1     1.523   
    2.330       0.6150E-6     1.000       0.1516E-1     1.524   
    2.340       0.6671E-6     1.000       0.1526E-1     1.526   
    2.350       0.7255E-6     1.000       0.1536E-1     1.527   
    2.360       0.7909E-6     1.000       0.1546E-1     1.529   
    2.370       0.8643E-6     1.000       0.1556E-1     1.530   
    2.380       0.9466E-6     1.000       0.1567E-1     1.532   
    2.390       0.1039E-5     1.000       0.1577E-1     1.534   
    2.400       0.1142E-5     1.000       0.1588E-1     1.535   
    2.410       0.1257E-5     1.000       0.1598E-1     1.537   
    2.420       0.1384E-5     1.000       0.1609E-1     1.538   
    2.430       0.1523E-5     1.000       0.1620E-1     1.540   
    2.440       0.1673E-5     1.000       0.1631E-1     1.542   
    2.450       0.1831E-5     1.000       0.1642E-1     1.543   
    2.460       0.1992E-5     1.000       0.1654E-1     1.545   
    2.470       0.2150E-5     1.000       0.1665E-1     1.547   
    2.480       0.2297E-5     1.000       0.1677E-1     1.548   
    2.490       0.2421E-5     1.000       0.1689E-1     1.550   
    2.500       0.2513E-5     1.000       0.1700E-1     1.552   
    2.510       0.2566E-5     1.000       0.1712E-1     1.553   
    2.520       0.2577E-5     1.000       0.1725E-1     1.555   
    2.530       0.2549E-5     1.000       0.1737E-1     1.557   
    2.540       0.2487E-5     1.000       0.1749E-1     1.558   
    2.550       0.2402E-5     1.000       0.1762E-1     1.560   
    2.560       0.2306E-5     1.000       0.1775E-1     1.562   
    2.570       0.2207E-5     1.000       0.1788E-1     1.564   
    2.580       0.2114E-5     1.000       0.1801E-1     1.566   
    2.590       0.2032E-5     1.000       0.1814E-1     1.567   
    2.600       0.1965E-5     1.000       0.1827E-1     1.569   
    2.610       0.1913E-5     1.000       0.1841E-1     1.571   
    2.620       0.1874E-5     1.000       0.1854E-1     1.573   
    2.630       0.1848E-5     1.000       0.1868E-1     1.575   
    2.640       0.1828E-5     1.000       0.1882E-1     1.577   
    2.650       0.1810E-5     1.000       0.1897E-1     1.578   
    2.660       0.1787E-5     1.000       0.1911E-1     1.580   
    2.670       0.1754E-5     1.000       0.1926E-1     1.582   
    2.680       0.1708E-5     1.000       0.1940E-1     1.584   
    2.690       0.1645E-5     1.000       0.1955E-1     1.586   
    2.700       0.1568E-5     1.000       0.1971E-1     1.588   
    2.710       0.1478E-5     1.000       0.1986E-1     1.590   
    2.720       0.1381E-5     1.000       0.2002E-1     1.592   
    2.730       0.1280E-5     1.000       0.2017E-1     1.594   
    2.740       0.1180E-5     1.000       0.2033E-1     1.596   
    2.750       0.1083E-5     1.000       0.2050E-1     1.598   
    2.760       0.9926E-6     1.000       0.2066E-1     1.600   
    2.770       0.9085E-6     1.000       0.2083E-1     1.602   
    2.780       0.8317E-6     1.000       0.2100E-1     1.604   
    2.790       0.7620E-6     1.000       0.2117E-1     1.606   
    2.800       0.6992E-6     1.000       0.2134E-1     1.609   
    2.810       0.6427E-6     1.000       0.2152E-1     1.611   
    2.820       0.5920E-6     1.000       0.2169E-1     1.613   
    2.830       0.5464E-6     1.000       0.2188E-1     1.615   
    2.840       0.5055E-6     1.000       0.2206E-1     1.617   
    2.850       0.4687E-6     1.000       0.2225E-1     1.619   
    2.860       0.4356E-6     1.000       0.2244E-1     1.622   
    2.870       0.4058E-6     1.000       0.2263E-1     1.624   
    2.880       0.3788E-6     1.000       0.2282E-1     1.626   
    2.890       0.3543E-6     1.000       0.2302E-1     1.628   
    2.900       0.3321E-6     1.000       0.2322E-1     1.631   
    2.910       0.3119E-6     1.000       0.2342E-1     1.633   
    2.920       0.2934E-6     1.000       0.2363E-1     1.635   
    2.930       0.2765E-6     1.000       0.2384E-1     1.638   
    2.940       0.2611E-6     1.000       0.2406E-1     1.640   
    2.950       0.2469E-6     1.000       0.2427E-1     1.642   
    2.960       0.2338E-6     1.000       0.2449E-1     1.645   
    2.970       0.2217E-6     1.000       0.2472E-1     1.647   
    2.980       0.2106E-6     1.000       0.2494E-1     1.650   
    2.990       0.2002E-6     1.000       0.2517E-1     1.652   
    3.000       0.1907E-6     1.000       0.2541E-1     1.655   
    3.010       0.1817E-6     1.000       0.2565E-1     1.657   
    3.020       0.1735E-6     1.000       0.2589E-1     1.660   
    3.030       0.1657E-6     1.000       0.2614E-1     1.663   
    3.040       0.1585E-6     1.000       0.2639E-1     1.665   
    3.050       0.1517E-6     1.000       0.2664E-1     1.668   
    3.060       0.1454E-6     1.000       0.2690E-1     1.670   
    3.070       0.1395E-6     1.000       0.2717E-1     1.673   
    3.080       0.1339E-6     1.000       0.2744E-1     1.676   
    3.090       0.1286E-6     1.000       0.2771E-1     1.679   
    3.100       0.1237E-6     1.000       0.2799E-1     1.681   
    3.110       0.1190E-6     1.000       0.2828E-1     1.684   
    3.120       0.1146E-6     1.000       0.2857E-1     1.687   
    3.130       0.1104E-6     1.000       0.2886E-1     1.690   
    3.140       0.1065E-6     1.000       0.2916E-1     1.693   
    3.150       0.1028E-6     1.000       0.2947E-1     1.696   
    3.160       0.9924E-7     1.000       0.2978E-1     1.699   
    3.170       0.9589E-7     1.000       0.3010E-1     1.702   
    3.180       0.9270E-7     1.000       0.3042E-1     1.705   
    3.190       0.8967E-7     1.000       0.3075E-1     1.708   
    3.200       0.8679E-7     1.000       0.3109E-1     1.711   
    3.210       0.8405E-7     1.000       0.3144E-1     1.714   
    3.220       0.8143E-7     1.000       0.3179E-1     1.717   
    3.230       0.7894E-7     1.000       0.3215E-1     1.720   
    3.240       0.7656E-7     1.000       0.3252E-1     1.723   
    3.250       0.7428E-7     1.000       0.3289E-1     1.727   
    3.260       0.7211E-7     1.000       0.3328E-1     1.730   
    3.270       0.7003E-7     1.000       0.3367E-1     1.733   
    3.280       0.6804E-7     1.000       0.3407E-1     1.736   
    3.290       0.6614E-7     1.000       0.3448E-1     1.740   
    3.300       0.6431E-7     1.000       0.3490E-1     1.743   
    3.310       0.6256E-7     1.000       0.3533E-1     1.747   
    3.320       0.6088E-7     1.000       0.3577E-1     1.750   
    3.330       0.5927E-7     1.000       0.3622E-1     1.754   
    3.340       0.5772E-7     1.000       0.3668E-1     1.757   
    3.350       0.5623E-7     1.000       0.3716E-1     1.761   
    3.360       0.5480E-7     1.000       0.3764E-1     1.765   
    3.370       0.5342E-7     1.000       0.3814E-1     1.769   
    3.380       0.5209E-7     1.000       0.3865E-1     1.772   
    3.390       0.5082E-7     1.000       0.3918E-1     1.776   
    3.400       0.4959E-7     1.000       0.3972E-1     1.780   
    3.410       0.4840E-7     1.000       0.4028E-1     1.784   
    3.420       0.4726E-7     1.000       0.4085E-1     1.788   
    3.430       0.4615E-7     1.000       0.4144E-1     1.792   
    3.440       0.4509E-7     1.000       0.4204E-1     1.796   
    3.450       0.4406E-7     1.000       0.4267E-1     1.800   
    3.460       0.4307E-7     1.000       0.4331E-1     1.805   
    3.470       0.4211E-7     1.000       0.4397E-1     1.809   
    3.480       0.4118E-7     1.000       0.4466E-1     1.813   
    3.490       0.4028E-7     1.000       0.4536E-1     1.818   
    3.500       0.3941E-7     1.000       0.4609E-1     1.822   
    3.510       0.3857E-7     1.000       0.4685E-1     1.827   
    3.520       0.3776E-7     1.000       0.4763E-1     1.831   
    3.530       0.3697E-7     1.000       0.4844E-1     1.836   
    3.540       0.3620E-7     1.000       0.4928E-1     1.841   
    3.550       0.3546E-7     1.000       0.5015E-1     1.846   
    3.560       0.3475E-7     1.000       0.5106E-1     1.851   
    3.570       0.3405E-7     1.000       0.5200E-1     1.856   
    3.580       0.3337E-7     1.000       0.5297E-1     1.861   
    3.590       0.3272E-7     1.000       0.5399E-1     1.866   
    3.600       0.3208E-7     1.000       0.5505E-1     1.871   
    3.610       0.3147E-7     1.000       0.5616E-1     1.877   
    3.620       0.3087E-7     1.000       0.5731E-1     1.882   
    3.630       0.3028E-7     1.000       0.5852E-1     1.888   
    3.640       0.2972E-7     1.000       0.5979E-1     1.893   
    3.650       0.2916E-7     1.000       0.6112E-1     1.899   
    3.660       0.2863E-7     1.000       0.6251E-1     1.905   
    3.670       0.2811E-7     1.000       0.6397E-1     1.911   
    3.680       0.2760E-7     1.000       0.6551E-1     1.917   
    3.690       0.2711E-7     1.000       0.6714E-1     1.924   
    3.700       0.2663E-7     1.000       0.6885E-1     1.930   
    3.710       0.2616E-7     1.000       0.7067E-1     1.937   
    3.720       0.2571E-7     1.000       0.7259E-1     1.944   
    3.730       0.2526E-7     1.000       0.7463E-1     1.951   
    3.740       0.2483E-7     1.000       0.7679E-1     1.958   
    3.750       0.2441E-7     1.000       0.7910E-1     1.965   
    3.760       0.2400E-7     1.000       0.8157E-1     1.972   
    3.770       0.2360E-7     1.000       0.8420E-1     1.980   
    3.780       0.2321E-7     1.000       0.8702E-1     1.988   
    3.790       0.2283E-7     1.000       0.9006E-1     1.996   
    3.800       0.2246E-7     1.000       0.9332E-1     2.004   
    3.810       0.2210E-7     1.000       0.9685E-1     2.012   
    3.820       0.2174E-7     1.000       0.1007        2.021   
    3.830       0.2140E-7     1.000       0.1048        2.030   
    3.840       0.2106E-7     1.000       0.1093        2.039   
    3.850       0.2073E-7     1.000       0.1142        2.049   
    3.860       0.2041E-7     1.000       0.1196        2.058   
    3.870       0.2010E-7     1.000       0.1254        2.068   
    3.880       0.1979E-7     1.000       0.1319        2.078   
    3.890       0.1949E-7     1.000       0.1391        2.089   
    3.900       0.1920E-7     1.000       0.1470        2.099   
    3.910       0.1891E-7     1.000       0.1557        2.110   
    3.920       0.1863E-7     1.000       0.1655        2.121   
    3.930       0.1836E-7     1.000       0.1763        2.132   
    3.940       0.1809E-7     1.000       0.1884        2.143   
    3.950       0.1783E-7     1.000       0.2020        2.154   
    3.960       0.1757E-7     1.000       0.2172        2.165   
    3.970       0.1732E-7     1.000       0.2342        2.175   
    3.980       0.1707E-7     1.000       0.2531        2.184   
    3.990       0.1683E-7     1.000       0.2743        2.192   
    4.000       0.1660E-7     1.000       0.2976        2.198   
    4.010       0.1637E-7     1.000       0.3232        2.201   
    4.020       0.1614E-7     1.000       0.3509        2.201   
    4.030       0.1592E-7     1.000       0.3801        2.197   
    4.040       0.1571E-7     1.000       0.4101        2.187   
    4.050       0.1549E-7     1.000       0.4397        2.172   
    4.060       0.1529E-7     1.000       0.4672        2.150   
    4.070       0.1508E-7     1.000       0.4907        2.122   
    4.080       0.1488E-7     1.000       0.5080        2.089   
    4.090       0.1469E-7     1.000       0.5176        2.052   
    4.100       0.1450E-7     1.000       0.5184        2.014   
    4.110       0.1431E-7     1.000       0.5105        1.978   
    4.120       0.1412E-7     1.000       0.4949        1.945   
    4.130       0.1394E-7     1.000       0.4733        1.918   
    4.140       0.1377E-7     1.000       0.4478        1.898   
    4.150       0.1359E-7     1.000       0.4202        1.884   
    4.160       0.1342E-7     1.000       0.3924        1.876   
    4.170       0.1325E-7     1.000       0.3654        1.874   
    4.180       0.1309E-7     1.000       0.3400        1.875   
    4.190       0.1293E-7     1.000       0.3167        1.881   
    4.200       0.1277E-7     1.000       0.2957        1.889   
    4.210       0.1261E-7     1.000       0.2769        1.899   
    4.220       0.1246E-7     1.000       0.2602        1.911   
    4.230       0.1231E-7     1.000       0.2456        1.924   
    4.240       0.1216E-7     1.000       0.2328        1.937   
    4.250       0.1202E-7     1.000       0.2216        1.951   
    4.260       0.1188E-7     1.000       0.2119        1.966   
    4.270       0.1174E-7     1.000       0.2034        1.980   
    4.280       0.1160E-7     1.000       0.1961        1.995   
    4.290       0.1147E-7     1.000       0.1899        2.010   
    4.300       0.1133E-7     1.000       0.1845        2.025   
    4.310       0.1120E-7     1.000       0.1799        2.040   
    4.320       0.1108E-7     1.000       0.1759        2.055   
    4.330       0.1095E-7     1.000       0.1727        2.070   
    4.340       0.1083E-7     1.000       0.1699        2.085   
    4.350       0.1071E-7     1.000       0.1677        2.100   
    4.360       0.1059E-7     1.000       0.1660        2.115   
    4.370       0.1047E-7     1.000       0.1646        2.130   
    4.380       0.1035E-7     1.000       0.1637        2.145   
    4.390       0.1024E-7     1.000       0.1630        2.160   
    4.400       0.1013E-7     1.000       0.1627        2.175   
    4.410       0.1002E-7     1.000       0.1627        2.190   
    4.420       0.9909E-8     1.000       0.1630        2.206   
    4.430       0.9803E-8     1.000       0.1635        2.221   
    4.440       0.9698E-8     1.000       0.1643        2.237   
    4.450       0.9595E-8     1.000       0.1653        2.252   
    4.460       0.9494E-8     1.000       0.1666        2.268   
    4.470       0.9394E-8     1.000       0.1680        2.284   
    4.480       0.9296E-8     1.000       0.1697        2.300   
    4.490       0.9199E-8     1.000       0.1716        2.316   
    4.500       0.9104E-8     1.000       0.1737        2.333   
    4.510       0.9011E-8     1.000       0.1760        2.350   
    4.520       0.8918E-8     1.000       0.1785        2.367   
    4.530       0.8827E-8     1.000       0.1811        2.384   
    4.540       0.8738E-8     1.000       0.1840        2.402   
    4.550       0.8650E-8     1.000       0.1871        2.420   
    4.560       0.8563E-8     1.000       0.1904        2.438   
    4.570       0.8478E-8     1.000       0.1940        2.456   
    4.580       0.8393E-8     1.000       0.1977        2.475   
    4.590       0.8310E-8     1.000       0.2016        2.494   
    4.600       0.8229E-8     1.000       0.2058        2.514   
    4.610       0.8148E-8     1.000       0.2102        2.534   
    4.620       0.8069E-8     1.000       0.2149        2.554   
    4.630       0.7991E-8     1.000       0.2198        2.575   
    4.640       0.7914E-8     1.000       0.2250        2.596   
    4.650       0.7838E-8     1.000       0.2305        2.618   
    4.660       0.7763E-8     1.000       0.2362        2.640   
    4.670       0.7689E-8     1.000       0.2423        2.663   
    4.680       0.7616E-8     1.000       0.2487        2.687   
    4.690       0.7544E-8     1.000       0.2554        2.711   
    4.700       0.7474E-8     1.000       0.2625        2.735   
    4.710       0.7404E-8     1.000       0.2699        2.761   
    4.720       0.7335E-8     1.000       0.2778        2.786   
    4.730       0.7267E-8     1.000       0.2861        2.813   
    4.740       0.7201E-8     1.000       0.2948        2.841   
    4.750       0.7135E-8     1.000       0.3040        2.869   
    4.760       0.7070E-8     1.000       0.3137        2.898   
    4.770       0.7005E-8     1.000       0.3240        2.928   
    4.780       0.6942E-8     1.000       0.3349        2.959   
    4.790       0.6880E-8     1.000       0.3464        2.990   
    4.800       0.6818E-8     1.000       0.3585        3.023   
    4.810       0.6757E-8     1.000       0.3714        3.057   
    4.820       0.6697E-8     1.000       0.3851        3.092   
    4.830       0.6638E-8     1.000       0.3996        3.128   
    4.840       0.6580E-8     1.000       0.4150        3.165   
    4.850       0.6522E-8     1.000       0.4314        3.204   
    4.860       0.6465E-8     1.000       0.4489        3.244   
    4.870       0.6409E-8     1.000       0.4675        3.286   
    4.880       0.6354E-8     1.000       0.4873        3.329   
    4.890       0.6299E-8     1.000       0.5086        3.373   
    4.900       0.6245E-8     1.000       0.5313        3.420   
    4.910       0.6192E-8     1.000       0.5557        3.468   
    4.920       0.6139E-8     1.000       0.5818        3.518   
    4.930       0.6087E-8     1.000       0.6100        3.570   
    4.940       0.6036E-8     1.000       0.6402        3.624   
    4.950       0.5986E-8     1.000       0.6729        3.680   
    4.960       0.5936E-8     1.000       0.7082        3.739   
    4.970       0.5886E-8     1.000       0.7464        3.800   
    4.980       0.5837E-8     1.000       0.7878        3.864   
    4.990       0.5789E-8     1.000       0.8328        3.930   
    5.000       0.5742E-8     1.000       0.8818        4.000   
    5.010       0.5695E-8     1.000       0.9353        4.072   
    5.020       0.5648E-8     1.000       0.9938        4.148   
    5.030       0.5602E-8     1.000        1.058        4.226   
    5.040       0.5557E-8     1.000        1.128        4.308   
    5.050       0.5512E-8     1.000        1.206        4.393   
    5.060       0.5468E-8     1.000        1.292        4.482   
    5.070       0.5425E-8     1.000        1.386        4.574   
    5.080       0.5381E-8     1.000        1.492        4.669   
    5.090       0.5339E-8     1.000        1.608        4.767   
    5.100       0.5297E-8     1.000        1.739        4.868   
    5.110       0.5255E-8     1.000        1.884        4.970   
    5.120       0.5214E-8     1.000        2.047        5.072   
    5.130       0.5173E-8     1.000        2.230        5.175   
    5.140       0.5133E-8     1.000        2.435        5.274   
    5.150       0.5093E-8     1.000        2.665        5.367   
    5.160       0.5054E-8     1.000        2.923        5.452   
    5.170       0.5015E-8     1.000        3.211        5.522   
    5.180       0.4977E-8     1.000        3.532        5.571   
    5.190       0.4939E-8     1.000        3.888        5.591   
    5.200       0.4901E-8     1.000        4.277        5.571   
    5.210       0.4864E-8     1.000        4.696        5.501   
    5.220       0.4828E-8     1.000        5.139        5.366   
    5.230       0.4792E-8     1.000        5.593        5.155   
    5.240       0.4756E-8     1.000        6.038        4.857   
    5.250       0.4720E-8     1.000        6.452        4.468   
    5.260       0.4685E-8     1.000        6.806        3.993   
    5.270       0.4651E-8     1.000        7.073        3.447   
    5.280       0.4616E-8     1.000        7.234        2.857   
    5.290       0.4582E-8     1.000        7.280        2.257   
    5.300       0.4549E-8     1.000        7.216        1.683   
    5.310       0.4516E-8     1.000        7.062        1.161   
    5.320       0.4483E-8     1.000        6.843       0.7106   
    5.330       0.4451E-8     1.000        6.588       0.3354   
    5.340       0.4419E-8     1.000        6.321       0.2999E-1
    5.350       0.4387E-8     1.000        6.061       -.2182   
    5.360       0.4355E-8     1.000        5.816       -.4253   
    5.370       0.4324E-8     1.000        5.590       -.6070   
    5.380       0.4294E-8     1.000        5.377       -.7758   
    5.390       0.4263E-8     1.000        5.169       -.9392   
    5.400       0.4233E-8     1.000        4.957       -1.099   
    5.410       0.4203E-8     1.000        4.732       -1.251   
    5.420       0.4174E-8     1.000        4.492       -1.388   
    5.430       0.4145E-8     1.000        4.236       -1.502   
    5.440       0.4116E-8     1.000        3.971       -1.587   
    5.450       0.4087E-8     1.000        3.702       -1.638   
    5.460       0.4059E-8     1.000        3.438       -1.657   
    5.470       0.4031E-8     1.000        3.185       -1.646   
    5.480       0.4004E-8     1.000        2.948       -1.608   
    5.490       0.3976E-8     1.000        2.730       -1.550   
    5.500       0.3949E-8     1.000        2.532       -1.475   
    5.510       0.3922E-8     1.000        2.355       -1.388   
    5.520       0.3896E-8     1.000        2.198       -1.293   
    5.530       0.3869E-8     1.000        2.059       -1.192   
    5.540       0.3843E-8     1.000        1.937       -1.088   
    5.550       0.3818E-8     1.000        1.831       -.9819   
    5.560       0.3792E-8     1.000        1.738       -.8752   
    5.570       0.3767E-8     1.000        1.659       -.7685   
    5.580       0.3742E-8     1.000        1.592       -.6625   
    5.590       0.3717E-8     1.000        1.536       -.5573   
    5.600       0.3693E-8     1.000        1.491       -.4532   
    5.610       0.3669E-8     1.000        1.455       -.3502   
    5.620       0.3645E-8     1.000        1.429       -.2485   
    5.630       0.3621E-8     1.000        1.413       -.1481   
    5.640       0.3597E-8     1.000        1.406       -.4915E-1
    5.650       0.3574E-8     1.000        1.409       0.4828E-1
    5.660       0.3551E-8     1.000        1.421       0.1439   
    5.670       0.3528E-8     1.000        1.444       0.2375   
    5.680       0.3505E-8     1.000        1.478       0.3286   
    5.690       0.3483E-8     1.000        1.523       0.4164   
    5.700       0.3461E-8     1.000        1.581       0.5001   
    5.710       0.3439E-8     1.000        1.653       0.5782   
    5.720       0.3417E-8     1.000        1.738       0.6491   
    5.730       0.3395E-8     1.000        1.840       0.7102   
    5.740       0.3374E-8     1.000        1.957       0.7585   
    5.750       0.3353E-8     1.000        2.090       0.7900   
    5.760       0.3332E-8     1.000        2.239       0.7998   
    5.770       0.3311E-8     1.000        2.400       0.7825   
    5.780       0.3290E-8     1.000        2.570       0.7321   
    5.790       0.3270E-8     1.000        2.742       0.6432   
    5.800       0.3250E-8     1.000        2.907       0.5118   
    5.810       0.3230E-8     1.000        3.051       0.3373   
    5.820       0.3210E-8     1.000        3.161       0.1234   
    5.830       0.3190E-8     1.000        3.226       -.1205   
    5.840       0.3171E-8     1.000        3.236       -.3804   
    5.850       0.3151E-8     1.000        3.189       -.6393   
    5.860       0.3132E-8     1.000        3.089       -.8808   
    5.870       0.3113E-8     1.000        2.946       -1.092   
    5.880       0.3095E-8     1.000        2.772       -1.264   
    5.890       0.3076E-8     1.000        2.580       -1.395   
    5.900       0.3057E-8     1.000        2.382       -1.486   
    5.910       0.3039E-8     1.000        2.188       -1.541   
    5.920       0.3021E-8     1.000        2.002       -1.568   
    5.930       0.3003E-8     1.000        1.829       -1.570   
    5.940       0.2985E-8     1.000        1.670       -1.555   
    5.950       0.2968E-8     1.000        1.526       -1.525   
    5.960       0.2950E-8     1.000        1.397       -1.486   
    5.970       0.2933E-8     1.000        1.281       -1.441   
    5.980       0.2916E-8     1.000        1.177       -1.391   
    5.990       0.2899E-8     1.000        1.085       -1.338   
    6.000       0.2882E-8     1.000        1.003       -1.284   
    6.010       0.2865E-8     1.000       0.9288       -1.229   
    6.020       0.2849E-8     1.000       0.8627       -1.175   
    6.030       0.2832E-8     1.000       0.8035       -1.122   
    6.040       0.2816E-8     1.000       0.7502       -1.070   
    6.050       0.2800E-8     1.000       0.7022       -1.019   
    6.060       0.2784E-8     1.000       0.6588       -.9700   
    6.070       0.2768E-8     1.000       0.6195       -.9223   
    6.080       0.2752E-8     1.000       0.5838       -.8762   
    6.090       0.2736E-8     1.000       0.5513       -.8317   
    6.100       0.2721E-8     1.000       0.5216       -.7888   
    6.110       0.2706E-8     1.000       0.4944       -.7474   
    6.120       0.2690E-8     1.000       0.4694       -.7075   
    6.130       0.2675E-8     1.000       0.4465       -.6691   
    6.140       0.2660E-8     1.000       0.4254       -.6320   
    6.150       0.2645E-8     1.000       0.4058       -.5963   
    6.160       0.2631E-8     1.000       0.3878       -.5618   
    6.170       0.2616E-8     1.000       0.3710       -.5285   
    6.180       0.2602E-8     1.000       0.3554       -.4964   
    6.190       0.2587E-8     1.000       0.3409       -.4654   
    6.200       0.2573E-8     1.000       0.3274       -.4354   
    6.210       0.2559E-8     1.000       0.3147       -.4064   
    6.220       0.2545E-8     1.000       0.3029       -.3783   
    6.230       0.2531E-8     1.000       0.2918       -.3511   
    6.240       0.2517E-8     1.000       0.2814       -.3248   
    6.250       0.2504E-8     1.000       0.2716       -.2993   
    6.260       0.2490E-8     1.000       0.2624       -.2746   
    6.270       0.2477E-8     1.000       0.2537       -.2506   
    6.280       0.2463E-8     1.000       0.2455       -.2273   
    6.290       0.2450E-8     1.000       0.2378       -.2047   
    6.300       0.2437E-8     1.000       0.2305       -.1827   
    6.310       0.2424E-8     1.000       0.2236       -.1613   
    6.320       0.2411E-8     1.000       0.2170       -.1405   
    6.330       0.2398E-8     1.000       0.2108       -.1202   
    6.340       0.2386E-8     1.000       0.2048       -.1005   
    6.350       0.2373E-8     1.000       0.1992       -.8131E-1
    6.360       0.2360E-8     1.000       0.1938       -.6258E-1
    6.370       0.2348E-8     1.000       0.1887       -.4431E-1
    6.380       0.2336E-8     1.000       0.1839       -.2648E-1
    6.390       0.2324E-8     1.000       0.1792       -.9079E-2
    6.400       0.2311E-8     1.000       0.1748       0.7914E-2
    6.410       0.2299E-8     1.000       0.1706       0.2452E-1
    6.420       0.2287E-8     1.000       0.1666       0.4075E-1
    6.430       0.2276E-8     1.000       0.1627       0.5662E-1
    6.440       0.2264E-8     1.000       0.1590       0.7215E-1
    6.450       0.2252E-8     1.000       0.1555       0.8734E-1
    6.460       0.2241E-8     1.000       0.1521       0.1022   
    6.470       0.2229E-8     1.000       0.1488       0.1168   
    6.480       0.2218E-8     1.000       0.1457       0.1311   
    6.490       0.2207E-8     1.000       0.1427       0.1451   
    6.500       0.2195E-8     1.000       0.1398       0.1588   
    6.510       0.2184E-8     1.000       0.1371       0.1723   
    6.520       0.2173E-8     1.000       0.1344       0.1855   
    6.530       0.2162E-8     1.000       0.1319       0.1984   
    6.540       0.2151E-8     1.000       0.1294       0.2112   
    6.550       0.2141E-8     1.000       0.1271       0.2237   
    6.560       0.2130E-8     1.000       0.1248       0.2360   
    6.570       0.2119E-8     1.000       0.1226       0.2481   
    6.580       0.2109E-8     1.000       0.1206       0.2599   
    6.590       0.2098E-8     1.000       0.1185       0.2716   
    6.600       0.2088E-8     1.000       0.1166       0.2831   
    6.610       0.2077E-8     1.000       0.1147       0.2945   
    6.620       0.2067E-8     1.000       0.1130       0.3056   
    6.630       0.2057E-8     1.000       0.1112       0.3166   
    6.640       0.2047E-8     1.000       0.1096       0.3274   
    6.650       0.2037E-8     1.000       0.1080       0.3381   
    6.660       0.2027E-8     1.000       0.1065       0.3486   
    6.670       0.2017E-8     1.000       0.1050       0.3590   
    6.680       0.2007E-8     1.000       0.1036       0.3692   
    6.690       0.1998E-8     1.000       0.1022       0.3793   
    6.700       0.1988E-8     1.000       0.1009       0.3893   
    6.710       0.1978E-8     1.000       0.9966E-1    0.3991   
    6.720       0.1969E-8     1.000       0.9847E-1    0.4088   
    6.730       0.1959E-8     1.000       0.9732E-1    0.4185   
    6.740       0.1950E-8     1.000       0.9623E-1    0.4280   
    6.750       0.1941E-8     1.000       0.9519E-1    0.4374   
    6.760       0.1931E-8     1.000       0.9419E-1    0.4467   
    6.770       0.1922E-8     1.000       0.9325E-1    0.4559   
    6.780       0.1913E-8     1.000       0.9236E-1    0.4650   
    6.790       0.1904E-8     1.000       0.9151E-1    0.4740   
    6.800       0.1895E-8     1.000       0.9072E-1    0.4829   
    6.810       0.1886E-8     1.000       0.8997E-1    0.4918   
    6.820       0.1877E-8     1.000       0.8928E-1    0.5006   
    6.830       0.1868E-8     1.000       0.8863E-1    0.5093   
    6.840       0.1860E-8     1.000       0.8804E-1    0.5179   
    6.850       0.1851E-8     1.000       0.8751E-1    0.5265   
    6.860       0.1842E-8     1.000       0.8703E-1    0.5350   
    6.870       0.1834E-8     1.000       0.8661E-1    0.5435   
    6.880       0.1825E-8     1.000       0.8625E-1    0.5519   
    6.890       0.1817E-8     1.000       0.8596E-1    0.5603   
    6.900       0.1809E-8     1.000       0.8573E-1    0.5686   
    6.910       0.1800E-8     1.000       0.8558E-1    0.5768   
    6.920       0.1792E-8     1.000       0.8551E-1    0.5851   
    6.930       0.1784E-8     1.000       0.8552E-1    0.5933   
    6.940       0.1776E-8     1.000       0.8563E-1    0.6014   
    6.950       0.1767E-8     1.000       0.8584E-1    0.6096   
    6.960       0.1759E-8     1.000       0.8616E-1    0.6177   
    6.970       0.1751E-8     1.000       0.8661E-1    0.6257   
    6.980       0.1744E-8     1.000       0.8719E-1    0.6337   
    6.990       0.1736E-8     1.000       0.8793E-1    0.6417   
    7.000       0.1728E-8     1.000       0.8883E-1    0.6496   
    7.010       0.1720E-8     1.000       0.8993E-1    0.6575   
    7.020       0.1712E-8     1.000       0.9123E-1    0.6652   
    7.030       0.1705E-8     1.000       0.9277E-1    0.6729   
    7.040       0.1697E-8     1.000       0.9456E-1    0.6804   
    7.050       0.1689E-8     1.000       0.9661E-1    0.6877   
    7.060       0.1682E-8     1.000       0.9894E-1    0.6947   
    7.070       0.1675E-8     1.000       0.1015       0.7014   
    7.080       0.1667E-8     1.000       0.1044       0.7076   
    7.090       0.1660E-8     1.000       0.1074       0.7134   
    7.100       0.1652E-8     1.000       0.1105       0.7185   
    7.110       0.1645E-8     1.000       0.1136       0.7229   
    7.120       0.1638E-8     1.000       0.1163       0.7266   
    7.130       0.1631E-8     1.000       0.1187       0.7296   
    7.140       0.1624E-8     1.000       0.1202       0.7320   
    7.150       0.1617E-8     1.000       0.1210       0.7340   
    7.160       0.1609E-8     1.000       0.1207       0.7360   
    7.170       0.1603E-8     1.000       0.1196       0.7383   
    7.180       0.1596E-8     1.000       0.1176       0.7410   
    7.190       0.1589E-8     1.000       0.1151       0.7443   
    7.200       0.1582E-8     1.000       0.1122       0.7484   
    7.210       0.1575E-8     1.000       0.1092       0.7532   
    7.220       0.1568E-8     1.000       0.1062       0.7587   
    7.230       0.1562E-8     1.000       0.1034       0.7647   
    7.240       0.1555E-8     1.000       0.1008       0.7713   
    7.250       0.1548E-8     1.000       0.9852E-1    0.7782   
    7.260       0.1542E-8     1.000       0.9652E-1    0.7854   
    7.270       0.1535E-8     1.000       0.9480E-1    0.7928   
    7.280       0.1529E-8     1.000       0.9338E-1    0.8005   
    7.290       0.1522E-8     1.000       0.9222E-1    0.8082   
    7.300       0.1516E-8     1.000       0.9131E-1    0.8161   
    7.310       0.1509E-8     1.000       0.9063E-1    0.8241   
    7.320       0.1503E-8     1.000       0.9017E-1    0.8321   
    7.330       0.1497E-8     1.000       0.8992E-1    0.8403   
    7.340       0.1490E-8     1.000       0.8985E-1    0.8485   
    7.350       0.1484E-8     1.000       0.8997E-1    0.8567   
    7.360       0.1478E-8     1.000       0.9027E-1    0.8650   
    7.370       0.1472E-8     1.000       0.9073E-1    0.8734   
    7.380       0.1466E-8     1.000       0.9137E-1    0.8819   
    7.390       0.1460E-8     1.000       0.9217E-1    0.8904   
    7.400       0.1454E-8     1.000       0.9314E-1    0.8990   
    7.410       0.1448E-8     1.000       0.9428E-1    0.9078   
    7.420       0.1442E-8     1.000       0.9560E-1    0.9166   
    7.430       0.1436E-8     1.000       0.9710E-1    0.9255   
    7.440       0.1430E-8     1.000       0.9879E-1    0.9346   
    7.450       0.1424E-8     1.000       0.1007       0.9438   
    7.460       0.1418E-8     1.000       0.1028       0.9531   
    7.470       0.1412E-8     1.000       0.1052       0.9626   
    7.480       0.1407E-8     1.000       0.1078       0.9723   
    7.490       0.1401E-8     1.000       0.1106       0.9822   
    7.500       0.1395E-8     1.000       0.1138       0.9922   
    7.510       0.1390E-8     1.000       0.1173        1.002   
    7.520       0.1384E-8     1.000       0.1211        1.013   
    7.530       0.1378E-8     1.000       0.1254        1.024   
    7.540       0.1373E-8     1.000       0.1301        1.035   
    7.550       0.1367E-8     1.000       0.1353        1.046   
    7.560       0.1362E-8     1.000       0.1410        1.057   
    7.570       0.1356E-8     1.000       0.1474        1.069   
    7.580       0.1351E-8     1.000       0.1544        1.081   
    7.590       0.1346E-8     1.000       0.1623        1.093   
    7.600       0.1340E-8     1.000       0.1710        1.106   
    7.610       0.1335E-8     1.000       0.1807        1.119   
    7.620       0.1330E-8     1.000       0.1916        1.132   
    7.630       0.1324E-8     1.000       0.2038        1.145   
    7.640       0.1319E-8     1.000       0.2174        1.159   
    7.650       0.1314E-8     1.000       0.2328        1.172   
    7.660       0.1309E-8     1.000       0.2500        1.186   
    7.670       0.1304E-8     1.000       0.2694        1.199   
    7.680       0.1299E-8     1.000       0.2913        1.211   
    7.690       0.1294E-8     1.000       0.3159        1.223   
    7.700       0.1289E-8     1.000       0.3435        1.233   
    7.710       0.1284E-8     1.000       0.3745        1.241   
    7.720       0.1279E-8     1.000       0.4088        1.246   
    7.730       0.1274E-8     1.000       0.4466        1.247   
    7.740       0.1269E-8     1.000       0.4876        1.244   
    7.750       0.1264E-8     1.000       0.5313        1.233   
    7.760       0.1259E-8     1.000       0.5764        1.215   
    7.770       0.1254E-8     1.000       0.6212        1.188   
    7.780       0.1249E-8     1.000       0.6632        1.151   
    7.790       0.1245E-8     1.000       0.6995        1.104   
    7.800       0.1240E-8     1.000       0.7268        1.048   
    7.810       0.1235E-8     1.000       0.7424       0.9860   
    7.820       0.1230E-8     1.000       0.7446       0.9214   
    7.830       0.1226E-8     1.000       0.7331       0.8583   
    7.840       0.1221E-8     1.000       0.7093       0.8004   
    7.850       0.1216E-8     1.000       0.6756       0.7507   
    7.860       0.1212E-8     1.000       0.6353       0.7107   
    7.870       0.1207E-8     1.000       0.5914       0.6807   
    7.880       0.1203E-8     1.000       0.5465       0.6602   
    7.890       0.1198E-8     1.000       0.5026       0.6481   
    7.900       0.1194E-8     1.000       0.4611       0.6428   
    7.910       0.1189E-8     1.000       0.4226       0.6431   
    7.920       0.1185E-8     1.000       0.3876       0.6476   
    7.930       0.1180E-8     1.000       0.3561       0.6553   
    7.940       0.1176E-8     1.000       0.3279       0.6652   
    7.950       0.1172E-8     1.000       0.3028       0.6768   
    7.960       0.1167E-8     1.000       0.2806       0.6895   
    7.970       0.1163E-8     1.000       0.2609       0.7029   
    7.980       0.1159E-8     1.000       0.2434       0.7168   
    7.990       0.1154E-8     1.000       0.2280       0.7308   
    8.000       0.1150E-8     1.000       0.2143       0.7448   
    8.010       0.1146E-8     1.000       0.2022       0.7588   
    8.020       0.1142E-8     1.000       0.1914       0.7727   
    8.030       0.1138E-8     1.000       0.1819       0.7863   
    8.040       0.1133E-8     1.000       0.1734       0.7998   
    8.050       0.1129E-8     1.000       0.1658       0.8130   
    8.060       0.1125E-8     1.000       0.1591       0.8260   
    8.070       0.1121E-8     1.000       0.1531       0.8387   
    8.080       0.1117E-8     1.000       0.1478       0.8513   
    8.090       0.1113E-8     1.000       0.1431       0.8636   
    8.100       0.1109E-8     1.000       0.1389       0.8757   
    8.110       0.1105E-8     1.000       0.1352       0.8876   
    8.120       0.1101E-8     1.000       0.1320       0.8993   
    8.130       0.1097E-8     1.000       0.1291       0.9109   
    8.140       0.1093E-8     1.000       0.1267       0.9223   
    8.150       0.1089E-8     1.000       0.1246       0.9336   
    8.160       0.1085E-8     1.000       0.1228       0.9448   
    8.170       0.1081E-8     1.000       0.1213       0.9559   
    8.180       0.1078E-8     1.000       0.1202       0.9669   
    8.190       0.1074E-8     1.000       0.1193       0.9778   
    8.200       0.1070E-8     1.000       0.1187       0.9887   
    8.210       0.1066E-8     1.000       0.1183       0.9996   
    8.220       0.1062E-8     1.000       0.1183        1.010   
    8.230       0.1059E-8     1.000       0.1185        1.021   
    8.240       0.1055E-8     1.000       0.1189        1.032   
    8.250       0.1051E-8     1.000       0.1197        1.043   
    8.260       0.1047E-8     1.000       0.1207        1.054   
    8.270       0.1044E-8     1.000       0.1220        1.065   
    8.280       0.1040E-8     1.000       0.1237        1.076   
    8.290       0.1037E-8     1.000       0.1257        1.087   
    8.300       0.1033E-8     1.000       0.1280        1.098   
    8.310       0.1029E-8     1.000       0.1308        1.109   
    8.320       0.1026E-8     1.000       0.1339        1.121   
    8.330       0.1022E-8     1.000       0.1376        1.132   
    8.340       0.1019E-8     1.000       0.1417        1.144   
    8.350       0.1015E-8     1.000       0.1464        1.156   
    8.360       0.1012E-8     1.000       0.1517        1.167   
    8.370       0.1008E-8     1.000       0.1576        1.179   
    8.380       0.1005E-8     1.000       0.1643        1.191   
    8.390       0.1001E-8     1.000       0.1718        1.203   
    8.40        0.998E-09     1.00        0.180         1.21    
    8.41        0.994E-09     1.00        0.189         1.23    
    8.42        0.991E-09     1.00        0.200         1.24    
    8.43        0.988E-09     1.00        0.211         1.25    
    8.44        0.984E-09     1.00        0.223         1.26    
    8.45        0.981E-09     1.00        0.237         1.27    
    8.46        0.978E-09     1.00        0.252         1.28    
    8.47        0.974E-09     1.00        0.269         1.29    
    8.48        0.971E-09     1.00        0.288         1.30    
    8.49        0.968E-09     1.00        0.308         1.30    
    8.50        0.964E-09     1.00        0.331         1.31    
    8.51        0.961E-09     1.00        0.355         1.31    
    8.52        0.958E-09     1.00        0.381         1.30    
    8.53        0.955E-09     1.00        0.408         1.30    
    8.54        0.952E-09     1.00        0.435         1.28    
    8.55        0.948E-09     1.00        0.461         1.27    
    8.56        0.945E-09     1.00        0.483         1.24    
    8.57        0.942E-09     1.00        0.500         1.21    
    8.58        0.939E-09     1.00        0.510         1.18    
    8.59        0.936E-09     1.00        0.511         1.14    
    8.60        0.933E-09     1.00        0.504         1.11    
    8.61        0.930E-09     1.00        0.490         1.08    
    8.62        0.927E-09     1.00        0.469         1.05    
    8.63        0.924E-09     1.00        0.444         1.03    
    8.64        0.920E-09     1.00        0.417         1.01    
    8.65        0.917E-09     1.00        0.390         1.01    
    8.66        0.914E-09     1.00        0.363         1.00    
    8.67        0.911E-09     1.00        0.337         1.00    
    8.68        0.908E-09     1.00        0.314         1.01    
    8.69        0.905E-09     1.00        0.292         1.02    
    8.70        0.903E-09     1.00        0.273         1.03    
    8.71        0.900E-09     1.00        0.256         1.04    
    8.72        0.897E-09     1.00        0.241         1.05    
    8.73        0.894E-09     1.00        0.228         1.06    
    8.74        0.891E-09     1.00        0.216         1.08    
    8.75        0.888E-09     1.00        0.206         1.09    
    8.76        0.885E-09     1.00        0.197         1.11    
    8.77        0.882E-09     1.00        0.190         1.12    
    8.78        0.879E-09     1.00        0.183         1.13    
    8.79        0.877E-09     1.00        0.177         1.15    
    8.80        0.874E-09     1.00        0.172         1.16    
    8.81        0.871E-09     1.00        0.168         1.18    
    8.82        0.868E-09     1.00        0.164         1.19    
    8.83        0.865E-09     1.00        0.161         1.20    
    8.84        0.863E-09     1.00        0.158         1.22    
    8.85        0.860E-09     1.00        0.156         1.23    
    8.86        0.857E-09     1.00        0.154         1.25    
    8.87        0.855E-09     1.00        0.153         1.26    
    8.88        0.852E-09     1.00        0.152         1.27    
    8.89        0.849E-09     1.00        0.151         1.29    
    8.90        0.846E-09     1.00        0.150         1.30    
    8.91        0.844E-09     1.00        0.150         1.32    
    8.92        0.841E-09     1.00        0.150         1.33    
    8.93        0.838E-09     1.00        0.151         1.34    
    8.94        0.836E-09     1.00        0.151         1.36    
    8.95        0.833E-09     1.00        0.152         1.37    
    8.96        0.831E-09     1.00        0.153         1.39    
    8.97        0.828E-09     1.00        0.155         1.40    
    8.98        0.825E-09     1.00        0.156         1.42    
    8.99        0.823E-09     1.00        0.158         1.43    
    9.00        0.820E-09     1.00        0.160         1.45    
    9.01        0.818E-09     1.00        0.162         1.46    
    9.02        0.815E-09     1.00        0.165         1.48    
    9.03        0.813E-09     1.00        0.167         1.49    
    9.04        0.810E-09     1.00        0.170         1.51    
    9.05        0.808E-09     1.00        0.173         1.53    
    9.06        0.805E-09     1.00        0.176         1.54    
    9.07        0.803E-09     1.00        0.180         1.56    
    9.08        0.800E-09     1.00        0.184         1.58    
    9.09        0.798E-09     1.00        0.188         1.59    
    9.10        0.795E-09     1.00        0.193         1.61    
    9.11        0.793E-09     1.00        0.197         1.63    
    9.12        0.791E-09     1.00        0.203         1.65    
    9.13        0.788E-09     1.00        0.208         1.67    
    9.14        0.786E-09     1.00        0.214         1.69    
    9.15        0.783E-09     1.00        0.220         1.71    
    9.16        0.781E-09     1.00        0.227         1.73    
    9.17        0.779E-09     1.00        0.234         1.75    
    9.18        0.776E-09     1.00        0.242         1.77    
    9.19        0.774E-09     1.00        0.250         1.80    
    9.20        0.772E-09     1.00        0.259         1.82    
    9.21        0.769E-09     1.00        0.268         1.84    
    9.22        0.767E-09     1.00        0.278         1.87    
    9.23        0.765E-09     1.00        0.289         1.89    
    9.24        0.762E-09     1.00        0.301         1.92    
    9.25        0.760E-09     1.00        0.313         1.95    
    9.26        0.758E-09     1.00        0.327         1.97    
    9.27        0.756E-09     1.00        0.342         2.00    
    9.28        0.753E-09     1.00        0.358         2.03    
    9.29        0.751E-09     1.00        0.375         2.06    
    9.30        0.749E-09     1.00        0.394         2.10    
    9.31        0.747E-09     1.00        0.414         2.13    
    9.32        0.744E-09     1.00        0.437         2.16    
    9.33        0.742E-09     1.00        0.461         2.20    
    9.34        0.740E-09     1.00        0.488         2.24    
    9.35        0.738E-09     1.00        0.518         2.27    
    9.36        0.736E-09     1.00        0.551         2.31    
    9.37        0.733E-09     1.00        0.587         2.35    
    9.38        0.731E-09     1.00        0.627         2.39    
    9.39        0.729E-09     1.00        0.672         2.44    
    9.40        0.727E-09     1.00        0.721         2.48    
    9.41        0.725E-09     1.00        0.776         2.52    
    9.42        0.723E-09     1.00        0.838         2.57    
    9.43        0.721E-09     1.00        0.907         2.61    
    9.44        0.719E-09     1.00        0.984         2.65    
    9.45        0.717E-09     1.00         1.07         2.68    
    9.46        0.714E-09     1.00         1.16         2.71    
    9.47        0.712E-09     1.00         1.27         2.73    
    9.48        0.710E-09     1.00         1.38         2.75    
    9.49        0.708E-09     1.00         1.50         2.74    
    9.50        0.706E-09     1.00         1.63         2.72    
    9.51        0.704E-09     1.00         1.76         2.68    
    9.52        0.702E-09     1.00         1.89         2.62    
    9.53        0.700E-09     1.00         2.01         2.53    
    9.54        0.698E-09     1.00         2.11         2.42    
    9.55        0.696E-09     1.00         2.19         2.30    
    9.56        0.694E-09     1.00         2.23         2.16    
    9.57        0.692E-09     1.00         2.24         2.03    
    9.58        0.690E-09     1.00         2.23         1.91    
    9.59        0.688E-09     1.00         2.19         1.80    
    9.60        0.686E-09     1.00         2.13         1.72    
    9.61        0.684E-09     1.00         2.06         1.67    
    9.62        0.682E-09     1.00         1.99         1.65    
    9.63        0.680E-09     1.00         1.93         1.65    
    9.64        0.679E-09     1.00         1.88         1.66    
    9.65        0.677E-09     1.00         1.84         1.70    
    9.66        0.675E-09     1.00         1.81         1.75    
    9.67        0.673E-09     1.00         1.81         1.81    
    9.68        0.671E-09     1.00         1.82         1.88    
    9.69        0.669E-09     1.00         1.85         1.95    
    9.70        0.667E-09     1.00         1.90         2.03    
    9.71        0.665E-09     1.00         1.96         2.10    
    9.72        0.663E-09     1.00         2.05         2.17    
    9.73        0.662E-09     1.00         2.17         2.24    
    9.74        0.660E-09     1.00         2.30         2.30    
    9.75        0.658E-09     1.00         2.46         2.35    
    9.76        0.656E-09     1.00         2.65         2.37    
    9.77        0.654E-09     1.00         2.85         2.37    
    9.78        0.652E-09     1.00         3.08         2.34    
    9.79        0.651E-09     1.00         3.33         2.27    
    9.80        0.649E-09     1.00         3.59         2.15    
    9.81        0.647E-09     1.00         3.85         1.97    
    9.82        0.645E-09     1.00         4.09         1.73    
    9.83        0.644E-09     1.00         4.30         1.42    
    9.84        0.642E-09     1.00         4.44         1.07    
    9.85        0.640E-09     1.00         4.52        0.674    
    9.86        0.638E-09     1.00         4.52        0.266    
    9.87        0.636E-09     1.00         4.43        -.130    
    9.88        0.635E-09     1.00         4.27        -.492    
    9.89        0.633E-09     1.00         4.04        -.804    
    9.90        0.631E-09     1.00         3.79        -1.06    
    9.91        0.630E-09     1.00         3.51        -1.25    
    9.92        0.628E-09     1.00         3.23        -1.38    
    9.93        0.626E-09     1.00         2.95        -1.46    
    9.94        0.624E-09     1.00         2.69        -1.51    
    9.95        0.623E-09     1.00         2.45        -1.51    
    9.96        0.621E-09     1.00         2.24        -1.50    
    9.97        0.619E-09     1.00         2.04        -1.46    
    9.98        0.618E-09     1.00         1.86        -1.42    
    9.99        0.616E-09     1.00         1.71        -1.36    
    10.0        0.614E-09     1.00         1.57        -1.30    
# 
# 03/14/2019 at 10:16 YAMBO @ bacalhau [start]
# 03/14/2019 at 10:16                  [end]
#  
# Timing   [Min/Max/Average]: 12s/12s/12s
#
# .-Input file : yambo.in
# | optics                         # [R OPT] Optics
# | bse                            # [R BSE] Bethe Salpeter Equation.
# | bss                            # [R BSS] Bethe Salpeter Equation solver
# | em1s                           # [R Xs] Static Inverse Dielectric Matrix
# | BoseTemp= 0.000000     eV      # Bosonic Temperature
# | FFTGvecs=  3473        RL      # [FFT] Plane-waves
# | X_Threads= 1                   # [OPENMP/X] Number of threads for response functions
# | DIP_Threads= 1                 # [OPENMP/X] Number of threads for dipoles
# | K_Threads= 1                   # [OPENMP/BSK] Number of threads for response functions
# | Chimod= "HARTREE"              # [X] IP/Hartree/ALDA/LRC/PF/BSfxc
# | BSEmod= "resonant"             # [BSE] resonant/retarded/coupling
# | BSKmod= "SEX"                  # [BSE] IP/Hartree/HF/ALDA/SEX/BSfxc
# | Lkind= "full"                  # [BSE] Lbar (default) / full
# | BSSmod= "s"                    # [BSS] (h)aydock/(d)iagonalization/(i)nversion/(t)ddft`
# | BSENGexx=  51          RL      # [BSK] Exchange components
# | BSENGBlk=  51          RL      # [BSK] Screened interaction block size
# | #WehCpl                        # [BSK] eh interaction included also in coupling
# | % BSEQptR
# |   1 |  4 |                     # [BSK] Transferred momenta range
# | %
# | % BSEBands
# |   3 | 10 |                     # [BSK] Bands range
# | %
# | % BEnRange
# | -10.00000 | 10.00000 | eV      # [BSS] Energy range
# | %
# | % BDmRange
# |   0.10000 |  0.10000 | eV      # [BSS] Damping range
# | %
# | BEnSteps= 2001                 # [BSS] Energy steps
# | % BLongDir
# | 0.5774E-5 |0.5774E-5 |0.5774E-5 |        # [BSS] [cc] Electric Field
# | %
# | BSSNEig=  5                    # [SLEPC] Number of eigenvalues to compute
# | % BndsRnXs
# |    1 |  60 |                   # [Xs] Polarization function bands
# | %
# | NGsBlkXs=  51          RL      # [Xs] Response block size
# | % DmRngeXs
# | 0.1000E-2 |0.1000E-2 | eV      # [Xs] Damping range
# | %
# | % LongDrXs
# | 0.1000E-4 | 0.000    | 0.000    |        # [Xs] [cc] Electric Field
# | %
