#                                                           
#  ____  ____     _       ____    ____  ______      ___     
# |_  _||_  _|   / \     |_   \  /   _||_   _ \   ."   `.   
#   \ \  / /    / _ \      |   \/   |    | |_) | /  .-.  \  
#    \ \/ /    / ___ \     | |\  /| |    |  __". | |   | |  
#    _|  |_  _/ /   \ \_  _| |_\/_| |_  _| |__) |\  `-"  /  
#   |______||____| |____||_____||_____||_______/  `.___."   
#                                                           
#                                                           
#                                                           
#        Version 4.3.0 Revision 15338 Hash 3cdf17c          
#                      MPI+SLK Build                        
#                http://www.yambo-code.org                  
#
# EELS @ Q(1)  [q->0 direction]:0.5774E-5 0.5774E-5 0.5774E-5
#
#
# - Energies      are Teter 93(XC)
# - Wavefunctions are Teter 93(XC)
#
# - The Green`s function is Resonant -
# - Using the Length Gauge -
# - [r,Vnl] *is* included -
#
#   BSK|Identifier              :7789
#      |Dimension               :96
#      |Bands                   :3 - 10
#      |Exchange           [res]: yes
#      |Correlation        [res]: yes
#      |Kernel`s coupling       : no
#      |Exchange           [cpl]: no
#      |Correlation        [cpl]: no
#      |W interaction is bare   : no
#      |ALDA kernel in R-space  : no
#      |RL vectors    [exchange]:51
#      |RL vectors [correlation]:51
#      |E/h energy range    [ev]:-1.000000 - -1.000000
#      |Coupling range     [o/o]: 100.0000 -  100.0000
#    W |Interaction is diagonal : no
#      |Matrix size             :51
#      |Bands                   :1 - 60
#      |e/h energy range    [ev]:-1.000000 - -1.000000
#      |Poles              [o/o]: 100.0000
#      |RL vectors in the sum   :3473
#      |[r,Vnl] included        : yes
#      |Field direction         :0.1000E-4  0.000000  0.000000
#      |Coulomb Cutoff          :none
#      |xc-Kernel               :none
#   RIM|RL components      [col]:0
#      |Random points      [col]:0
#
#    E/ev[1]      EEL-Im[2]    EEL-Re[3]    EELo-Im[4]   EELo-Re[5]
#
   -10.00       -.9341E-2     2.679       -.6562E-3    0.5011   
    -9.99000     -0.46888      2.55975     -0.03355      0.49524
    -9.98000     -0.54704      2.73289     -0.03605      0.50636
    -9.97000     -0.57010      2.78417     -0.03682      0.50853
    -9.96000     -0.58075      2.80610     -0.03728      0.50854
    -9.95000     -0.58505      2.81318     -0.03761      0.50766
    -9.94000     -0.58546      2.81113     -0.03784      0.50609
    -9.93000     -0.58342      2.80330     -0.03803      0.50419
    -9.92000     -0.57964      2.79125     -0.03818      0.50198
    -9.91000     -0.57440      2.77561     -0.03830      0.49956
    -9.90000     -0.56814      2.75735     -0.03840      0.49696
    -9.89000     -0.56146      2.73784     -0.03848      0.49422
    -9.88000     -0.55383      2.71582     -0.03856      0.49139
    -9.87000     -0.54603      2.69309     -0.03863      0.48847
    -9.86000     -0.53801      2.66955     -0.03869      0.48546
    -9.85000     -0.52992      2.64553     -0.03875      0.48238
    -9.84000     -0.52146      2.62030     -0.03880      0.47924
    -9.83000     -0.51327      2.59538     -0.03885      0.47608
    -9.82000     -0.50468      2.56922     -0.03888      0.47274
    -9.81000     -0.49637      2.54339     -0.03895      0.46956
    -9.80000     -0.48799      2.51707     -0.03898      0.46614
    -9.79000     -0.47966      2.49059     -0.03905      0.46292
    -9.78000     -0.47128      2.46368     -0.03909      0.45941
    -9.77000     -0.46294      2.43654     -0.03916      0.45613
    -9.76000     -0.45484      2.40974     -0.03919      0.45255
    -9.75000     -0.44663      2.38232     -0.03928      0.44921
    -9.74000     -0.43871      2.35538     -0.03931      0.44558
    -9.73000     -0.43085      2.32832     -0.03940      0.44219
    -9.72000     -0.42315      2.30139     -0.03945      0.43852
    -9.71000     -0.41556      2.27448     -0.03955      0.43505
    -9.70000     -0.40817      2.24782     -0.03961      0.43139
    -9.69000     -0.40084      2.22110     -0.03971      0.42785
    -9.68000     -0.39372      2.19466     -0.03979      0.42415
    -9.67000     -0.38674      2.16835     -0.03990      0.42055
    -9.66000     -0.37987      2.14214     -0.03999      0.41683
    -9.65000     -0.37318      2.11614     -0.04011      0.41319
    -9.64000     -0.36655      2.09012     -0.04022      0.40942
    -9.63000     -0.36028      2.06487     -0.04036      0.40573
    -9.62000     -0.35408      2.03959     -0.04048      0.40192
    -9.61000     -0.34802      2.01452     -0.04063      0.39817
    -9.60000     -0.34218      1.98984     -0.04077      0.39433
    -9.59000     -0.33647      1.96538     -0.04093      0.39053
    -9.58000     -0.33100      1.94139     -0.04110      0.38665
    -9.57000     -0.32560      1.91743     -0.04128      0.38279
    -9.56000     -0.32043      1.89399     -0.04146      0.37887
    -9.55000     -0.31532      1.87053     -0.04166      0.37495
    -9.54000     -0.31042      1.84752     -0.04187      0.37099
    -9.53000     -0.30551      1.82434     -0.04210      0.36702
    -9.52000     -0.30082      1.80163     -0.04233      0.36300
    -9.51000     -0.29615      1.77884     -0.04258      0.35899
    -9.50000     -0.29165      1.75640     -0.04284      0.35490
    -9.49000     -0.28705      1.73354     -0.04313      0.35084
    -9.48000     -0.28263      1.71108     -0.04341      0.34669
    -9.47000     -0.27837      1.68895     -0.04373      0.34256
    -9.46000     -0.27416      1.66685     -0.04405      0.33836
    -9.45000     -0.27019      1.64532     -0.04441      0.33418
    -9.44000     -0.26613      1.62341     -0.04476      0.32987
    -9.43000     -0.26235      1.60224     -0.04515      0.32560
    -9.42000     -0.25860      1.58102     -0.04555      0.32124
    -9.41000     -0.25502      1.56020     -0.04598      0.31686
    -9.40000     -0.25147      1.53937     -0.04643      0.31243
    -9.39000     -0.24811      1.51899     -0.04690      0.30795
    -9.38000     -0.24474      1.49848     -0.04740      0.30344
    -9.37000     -0.24155      1.47841     -0.04793      0.29887
    -9.36000     -0.23840      1.45837     -0.04849      0.29425
    -9.35000     -0.23537      1.43858     -0.04908      0.28957
    -9.34000     -0.23243      1.41895     -0.04970      0.28484
    -9.33000     -0.22954      1.39938     -0.05036      0.28006
    -9.32000     -0.22681      1.38020     -0.05105      0.27519
    -9.31000     -0.22409      1.36095     -0.05178      0.27028
    -9.30000     -0.22147      1.34188     -0.05255      0.26528
    -9.29000     -0.21893      1.32296     -0.05338      0.26023
    -9.28000     -0.21641      1.30402     -0.05424      0.25507
    -9.27000     -0.21407      1.28548     -0.05517      0.24988
    -9.26000     -0.21171      1.26680     -0.05614      0.24456
    -9.25000     -0.20948      1.24841     -0.05719      0.23920
    -9.24000     -0.20731      1.23009     -0.05828      0.23370
    -9.23000     -0.20526      1.21199     -0.05946      0.22814
    -9.22000     -0.20326      1.19394     -0.06069      0.22245
    -9.21000     -0.20136      1.17606     -0.06203      0.21668
    -9.20000     -0.19953      1.15828     -0.06344      0.21077
    -9.19000     -0.19780      1.14065     -0.06495      0.20477
    -9.18000     -0.19612      1.12303     -0.06657      0.19863
    -9.17000     -0.19454      1.10557     -0.06830      0.19237
    -9.16000     -0.19303      1.08815     -0.07015      0.18598
    -9.15000     -0.19160      1.07084     -0.07215      0.17944
    -9.14000     -0.19025      1.05357     -0.07430      0.17277
    -9.13000     -0.18899      1.03639     -0.07661      0.16594
    -9.12000     -0.18786      1.01939     -0.07911      0.15895
    -9.11000     -0.18680      1.00239     -0.08181      0.15180
    -9.10000     -0.18581      0.98536     -0.08474      0.14449
    -9.09000     -0.18496      0.96853     -0.08793      0.13701
    -9.08000     -0.18415      0.95155     -0.09139      0.12935
    -9.07000     -0.18353      0.93482     -0.09516      0.12153
    -9.06000     -0.18296      0.91798     -0.09927      0.11355
   -9.049999    -0.182560     0.901257    -0.103770     0.105430
    -9.04000     -0.18227      0.88450     -0.10866      0.09718
    -9.03000     -0.18214      0.86784     -0.11401      0.08885
    -9.02000     -0.18211      0.85103     -0.11982      0.08049
    -9.01000     -0.18233      0.83445     -0.12616      0.07215
    -9.00000     -0.18267      0.81772     -0.13303      0.06392
    -8.99000     -0.18323      0.80104     -0.14046      0.05588
    -8.98000     -0.18398      0.78428     -0.14840      0.04814
    -8.97000     -0.18497      0.76753     -0.15679      0.04075
    -8.96000     -0.18626      0.75081     -0.16549      0.03381
    -8.95000     -0.18780      0.73399     -0.17432      0.02733
    -8.94000     -0.18969      0.71721     -0.18308      0.02126
    -8.93000     -0.19197      0.70043     -0.19155      0.01544
     -8.9200      -0.1947       0.6837      -0.1996       0.0096
   -8.910       -.1978       0.6669       -.2072       0.3497E-2
   -8.900       -.2015       0.6502       -.2144       -.3284E-2
    -8.89000     -0.20584      0.63365     -0.22159     -0.01104
    -8.88000     -0.21081      0.61722     -0.22898     -0.01993
    -8.87000     -0.21656      0.60104     -0.23700     -0.03012
    -8.86000     -0.22313      0.58519     -0.24603     -0.04155
    -8.85000     -0.23066      0.56988     -0.25644     -0.05423
    -8.84000     -0.23913      0.55521     -0.26856     -0.06796
    -8.83000     -0.24865      0.54149     -0.28267     -0.08266
    -8.82000     -0.25913      0.52894     -0.29910     -0.09807
   -8.809999    -0.270583     0.518000    -0.318106    -0.114064
   -8.800000    -0.282684     0.508949    -0.340058    -0.130325
   -8.790000    -0.295147     0.502223    -0.365245    -0.146639
   -8.780000    -0.307405     0.498124    -0.394137    -0.162556
   -8.770000    -0.318786     0.496854    -0.427033    -0.177728
   -8.760000    -0.328493     0.498377    -0.464518    -0.191421
   -8.750000    -0.335579     0.502281    -0.506835    -0.203036
   -8.740000    -0.339411     0.507888    -0.554589    -0.211340
   -8.730000    -0.339493     0.514171    -0.607756    -0.215375
   -8.720000    -0.335780     0.519993    -0.666703    -0.213141
   -8.709999    -0.328669     0.524309    -0.730723    -0.203245
   -8.700000    -0.318810     0.526297    -0.799259    -0.182918
   -8.690000    -0.307134     0.525545    -0.870224    -0.150633
   -8.679999    -0.294479     0.521941    -0.941211    -0.103550
    -8.67000     -0.28161      0.51566     -1.00819     -0.04135
    -8.66000     -0.26902      0.50700     -1.06668      0.03728
   -8.650000    -0.257176     0.496404    -1.111670     0.129358
   -8.639999    -0.246190     0.484192    -1.138538     0.232336
   -8.629999    -0.236242     0.470778    -1.144686     0.339702
   -8.620000    -0.227279     0.456415    -1.128922     0.446094
   -8.610000    -0.219352     0.441409    -1.093636     0.544646
   -8.599999    -0.212323     0.425898    -1.042013     0.631199
   -8.589999    -0.206146     0.410046    -0.979540     0.702574
   -8.580000    -0.200733     0.393963    -0.910275     0.758304
   -8.570000    -0.196008     0.377727    -0.839282     0.798893
   -8.559999    -0.191885     0.361387    -0.769371     0.826157
   -8.549999    -0.188315     0.344995    -0.703050     0.842272
   -8.540000    -0.185223     0.328570    -0.641355     0.849435
   -8.530000    -0.182575     0.312139    -0.585228     0.849782
   -8.520000    -0.180302     0.295700    -0.534547     0.845020
   -8.509999    -0.178391     0.279271    -0.489391     0.836741
   -8.500000    -0.176785     0.262842    -0.448980     0.825908
   -8.490000    -0.175477     0.246420    -0.413267     0.813696
   -8.480000    -0.174431     0.229997    -0.381266     0.800473
   -8.470000    -0.173632     0.213567    -0.352930     0.787101
   -8.460000    -0.173060     0.197121    -0.327172     0.773389
   -8.450000    -0.172697     0.180649    -0.304053     0.759968
   -8.440000    -0.172527     0.164144    -0.282829     0.746526
   -8.430000    -0.172539     0.147594    -0.263516     0.733389
   -8.420000    -0.172720     0.130990    -0.245665     0.720250
   -8.410000    -0.173053     0.114324    -0.229329     0.707337
    -8.40000     -0.17354      0.09759     -0.21430      0.69452
    -8.39000     -0.17416      0.08078     -0.20055      0.68192
    -8.38000     -0.17491      0.06390     -0.18794      0.66948
    -8.37000     -0.17579      0.04695     -0.17643      0.65729
    -8.36000     -0.17683      0.02992     -0.16591      0.64538
    -8.35000     -0.17802      0.01280     -0.15631      0.63380
   -8.340       -.1794       -.4441E-2    -.1475       0.6225   
    -8.33000     -0.18093     -0.02184     -0.13951      0.61158
    -8.32000     -0.18263     -0.03941     -0.13215      0.60096
    -8.31000     -0.18449     -0.05719     -0.12541      0.59073
    -8.30000     -0.18648     -0.07517     -0.11921      0.58080
    -8.29000     -0.18861     -0.09336     -0.11351      0.57123
   -8.280000    -0.190883    -0.111763    -0.108252     0.561977
   -8.270000    -0.193299    -0.130379    -0.103396     0.553045
    -8.26000     -0.19587     -0.14922     -0.09891      0.54442
    -8.25000     -0.19861     -0.16830     -0.09474      0.53609
    -8.24000     -0.20152     -0.18762     -0.09087      0.52802
    -8.23000     -0.20463     -0.20722     -0.08728      0.52024
    -8.22000     -0.20792     -0.22709     -0.08391      0.51267
    -8.21000     -0.21142     -0.24727     -0.08078      0.50538
    -8.20000     -0.21512     -0.26777     -0.07785      0.49827
    -8.19000     -0.21904     -0.28859     -0.07511      0.49142
    -8.18000     -0.22321     -0.30978     -0.07252      0.48473
    -8.17000     -0.22759     -0.33133     -0.07011      0.47829
    -8.16000     -0.23226     -0.35328     -0.06783      0.47196
    -8.15000     -0.23715     -0.37563     -0.06569      0.46588
    -8.14000     -0.24236     -0.39843     -0.06366      0.45992
    -8.13000     -0.24786     -0.42168     -0.06176      0.45416
    -8.12000     -0.25369     -0.44542     -0.05995      0.44850
    -8.11000     -0.25985     -0.46967     -0.05825      0.44306
    -8.10000     -0.26640     -0.49446     -0.05662      0.43768
    -8.09000     -0.27332     -0.51982     -0.05510      0.43251
    -8.08000     -0.28067     -0.54579     -0.05364      0.42739
    -8.07000     -0.28848     -0.57240     -0.05226      0.42247
    -8.06000     -0.29673     -0.59965     -0.05094      0.41759
    -8.05000     -0.30552     -0.62764     -0.04969      0.41288
    -8.04000     -0.31487     -0.65638     -0.04849      0.40822
    -8.03000     -0.32477     -0.68587     -0.04736      0.40371
    -8.02000     -0.33535     -0.71623     -0.04626      0.39926
    -8.01000     -0.34657     -0.74743     -0.04523      0.39493
    -8.00000     -0.35858     -0.77959     -0.04423      0.39067
    -7.99000     -0.37131     -0.81267     -0.04328      0.38650
    -7.98000     -0.38491     -0.84678     -0.04237      0.38242
    -7.97000     -0.39945     -0.88199     -0.04149      0.37841
    -7.96000     -0.41497     -0.91831     -0.04066      0.37449
    -7.95000     -0.43154     -0.95580     -0.03986      0.37064
    -7.94000     -0.44931     -0.99457     -0.03908      0.36684
    -7.93000     -0.46835     -1.03466     -0.03835      0.36315
    -7.92000     -0.48885     -1.07620     -0.03763      0.35948
    -7.91000     -0.51089     -1.11922     -0.03695      0.35592
    -7.90000     -0.53459     -1.16379     -0.03628      0.35237
    -7.89000     -0.56021     -1.21007     -0.03566      0.34894
    -7.88000     -0.58791     -1.25812     -0.03504      0.34550
    -7.87000     -0.61791     -1.30805     -0.03445      0.34218
    -7.86000     -0.65029     -1.35981     -0.03388      0.33885
    -7.85000     -0.68561     -1.41376     -0.03333      0.33563
    -7.84000     -0.72395     -1.46978     -0.03280      0.33241
    -7.83000     -0.76594     -1.52822     -0.03228      0.32927
    -7.82000     -0.81152     -1.58880     -0.03179      0.32616
    -7.81000     -0.86148     -1.65189     -0.03131      0.32311
    -7.80000     -0.91658     -1.71769     -0.03084      0.32010
    -7.79000     -0.97711     -1.78605     -0.03039      0.31712
    -7.78000     -1.04377     -1.85703     -0.02996      0.31420
    -7.77000     -1.11761     -1.93075     -0.02953      0.31130
    -7.76000     -1.19899     -2.00684     -0.02913      0.30846
    -7.75000     -1.28937     -2.08539     -0.02873      0.30564
    -7.74000     -1.39033     -2.16632     -0.02834      0.30287
    -7.73000     -1.50138     -2.24842     -0.02797      0.30013
    -7.72000     -1.62695     -2.33235     -0.02761      0.29743
    -7.71000     -1.76678     -2.41639     -0.02725      0.29475
    -7.70000     -1.92262     -2.49938     -0.02691      0.29211
    -7.69000     -2.09836     -2.58016     -0.02658      0.28949
    -7.68000     -2.29525     -2.65616     -0.02625      0.28692
    -7.67000     -2.51598     -2.72441     -0.02593      0.28435
    -7.66000     -2.76366     -2.78093     -0.02563      0.28184
    -7.65000     -3.03806     -2.82052     -0.02533      0.27933
    -7.64000     -3.34412     -2.83648     -0.02504      0.27687
    -7.63000     -3.67926     -2.82096     -0.02475      0.27443
    -7.62000     -4.04575     -2.76317     -0.02448      0.27202
    -7.61000     -4.43603     -2.65272     -0.02421      0.26964
    -7.60000     -4.84239     -2.47790     -0.02394      0.26728
    -7.59000     -5.25521     -2.22459     -0.02369      0.26495
    -7.58000     -5.65356     -1.88490     -0.02344      0.26264
    -7.57000     -6.01260     -1.45677     -0.02319      0.26036
    -7.56000     -6.30529     -0.94720     -0.02295      0.25809
    -7.55000     -6.50723     -0.36806     -0.02272      0.25586
    -7.54000     -6.59743      0.25015     -0.02249      0.25363
    -7.53000     -6.56583      0.88148     -0.02227      0.25143
    -7.52000     -6.41848      1.48010     -0.02205      0.24925
    -7.51000     -6.16810      2.02627     -0.02184      0.24710
    -7.50000     -5.83766      2.49737     -0.02163      0.24496
    -7.49000     -5.45531      2.88085     -0.02143      0.24284
    -7.48000     -5.04904      3.17495     -0.02123      0.24075
    -7.47000     -4.63676      3.38827     -0.02104      0.23867
    -7.46000     -4.23496      3.53048     -0.02085      0.23661
    -7.45000     -3.85520      3.61335     -0.02066      0.23456
    -7.44000     -3.50372      3.64892     -0.02048      0.23255
    -7.43000     -3.18217      3.64795     -0.02030      0.23053
    -7.42000     -2.89207      3.61973     -0.02012      0.22855
    -7.41000     -2.63078      3.57145     -0.01995      0.22656
    -7.40000     -2.39844      3.50968     -0.01978      0.22462
    -7.39000     -2.18905      3.43763     -0.01962      0.22266
    -7.38000     -2.00331      3.36002     -0.01946      0.22075
    -7.37000     -1.83929      3.28002     -0.01930      0.21883
    -7.36000     -1.69111      3.19742     -0.01914      0.21695
    -7.35000     -1.55919      3.11508     -0.01899      0.21506
    -7.34000     -1.44148      3.03397     -0.01884      0.21320
    -7.33000     -1.33459      2.95334     -0.01869      0.21134
    -7.32000     -1.23940      2.87558     -0.01855      0.20951
    -7.31000     -1.15348      2.80004     -0.01841      0.20768
    -7.30000     -1.07600      2.72719     -0.01827      0.20588
    -7.29000     -1.00578      2.65687     -0.01813      0.20407
    -7.28000     -0.94182      2.58894     -0.01800      0.20230
    -7.27000     -0.88367      2.52369     -0.01786      0.20052
    -7.26000     -0.83059      2.46094     -0.01774      0.19876
    -7.25000     -0.78190      2.40047     -0.01761      0.19701
    -7.24000     -0.73760      2.34282     -0.01748      0.19529
    -7.23000     -0.69695      2.28755     -0.01736      0.19356
    -7.22000     -0.65947      2.23435     -0.01724      0.19185
    -7.21000     -0.62494      2.18332     -0.01712      0.19015
    -7.20000     -0.59326      2.13463     -0.01700      0.18847
    -7.19000     -0.56346      2.08704     -0.01689      0.18679
    -7.18000     -0.53629      2.04206     -0.01677      0.18512
    -7.17000     -0.51087      1.99848     -0.01666      0.18347
    -7.16000     -0.48741      1.95688     -0.01655      0.18183
    -7.15000     -0.46524      1.91621     -0.01644      0.18019
    -7.14000     -0.44486      1.87764     -0.01634      0.17857
    -7.13000     -0.42566      1.84014     -0.01623      0.17695
    -7.12000     -0.40782      1.80425     -0.01613      0.17535
    -7.11000     -0.39106      1.76951     -0.01603      0.17375
    -7.10000     -0.37536      1.73603     -0.01593      0.17217
    -7.09000     -0.36064      1.70375     -0.01583      0.17060
    -7.08000     -0.34685      1.67268     -0.01574      0.16904
    -7.07000     -0.33384      1.64258     -0.01564      0.16748
    -7.06000     -0.32156      1.61342     -0.01555      0.16594
    -7.05000     -0.31005      1.58536     -0.01545      0.16440
    -7.04000     -0.29908      1.55798     -0.01536      0.16287
    -7.03000     -0.28881      1.53170     -0.01528      0.16136
    -7.02000     -0.27904      1.50609     -0.01519      0.15985
    -7.01000     -0.26987      1.48149     -0.01510      0.15835
    -7.00000     -0.26105      1.45730     -0.01501      0.15685
    -6.99000     -0.25280      1.43412     -0.01493      0.15537
    -6.98000     -0.24482      1.41122     -0.01485      0.15389
    -6.97000     -0.23735      1.38930     -0.01477      0.15242
    -6.96000     -0.23023      1.36798     -0.01468      0.15096
    -6.95000     -0.22342      1.34713     -0.01461      0.14951
    -6.94000     -0.21688      1.32671     -0.01453      0.14806
    -6.93000     -0.21070      1.30700     -0.01445      0.14663
    -6.92000     -0.20475      1.28763     -0.01438      0.14519
    -6.91000     -0.19910      1.26891     -0.01430      0.14377
    -6.90000     -0.19372      1.25068     -0.01423      0.14235
    -6.89000     -0.18858      1.23295     -0.01416      0.14095
    -6.88000     -0.18368      1.21571     -0.01408      0.13954
    -6.87000     -0.17898      1.19887     -0.01402      0.13815
    -6.86000     -0.17446      1.18237     -0.01394      0.13675
    -6.85000     -0.17013      1.16629     -0.01388      0.13538
    -6.84000     -0.16603      1.15075     -0.01381      0.13400
    -6.83000     -0.16204      1.13537     -0.01375      0.13264
    -6.82000     -0.15822      1.12040     -0.01368      0.13127
    -6.81000     -0.15451      1.10565     -0.01362      0.12992
    -6.80000     -0.15097      1.09129     -0.01355      0.12856
    -6.79000     -0.14756      1.07722     -0.01349      0.12722
    -6.78000     -0.14428      1.06345     -0.01343      0.12589
    -6.77000     -0.14111      1.04993     -0.01337      0.12455
    -6.76000     -0.13805      1.03671     -0.01332      0.12323
    -6.75000     -0.13511      1.02374     -0.01326      0.12191
    -6.74000     -0.13227      1.01105     -0.01320      0.12060
    -6.73000     -0.12957      0.99872     -0.01315      0.11928
    -6.72000     -0.12693      0.98652     -0.01309      0.11798
    -6.71000     -0.12439      0.97461     -0.01304      0.11668
    -6.70000     -0.12193      0.96287     -0.01299      0.11539
    -6.69000     -0.11957      0.95144     -0.01294      0.11410
    -6.68000     -0.11727      0.94014     -0.01289      0.11282
    -6.67000     -0.11505      0.92906     -0.01284      0.11154
    -6.66000     -0.11291      0.91820     -0.01280      0.11026
    -6.65000     -0.11082      0.90750     -0.01275      0.10900
    -6.64000     -0.10880      0.89697     -0.01271      0.10773
    -6.63000     -0.10685      0.88662     -0.01266      0.10648
    -6.62000     -0.10494      0.87640     -0.01262      0.10521
    -6.61000     -0.10313      0.86652     -0.01258      0.10397
    -6.60000     -0.10134      0.85664     -0.01254      0.10271
    -6.59000     -0.09965      0.84712     -0.01251      0.10147
    -6.58000     -0.09799      0.83767     -0.01247      0.10023
    -6.57000     -0.09639      0.82838     -0.01244      0.09900
    -6.56000     -0.09483      0.81926     -0.01240      0.09776
    -6.55000     -0.09331      0.81023     -0.01237      0.09654
    -6.54000     -0.09185      0.80138     -0.01234      0.09531
    -6.53000     -0.09040      0.79257     -0.01232      0.09409
    -6.52000     -0.08901      0.78395     -0.01229      0.09287
    -6.51000     -0.08764      0.77539     -0.01227      0.09165
    -6.50000     -0.08633      0.76701     -0.01225      0.09044
    -6.49000     -0.08503      0.75868     -0.01223      0.08922
    -6.48000     -0.08379      0.75053     -0.01222      0.08801
    -6.47000     -0.08256      0.74244     -0.01221      0.08681
    -6.46000     -0.08139      0.73453     -0.01220      0.08560
    -6.45000     -0.08024      0.72669     -0.01219      0.08440
    -6.44000     -0.07913      0.71900     -0.01219      0.08320
    -6.43000     -0.07799      0.71117     -0.01219      0.08200
    -6.42000     -0.07694      0.70372     -0.01220      0.08080
    -6.41000     -0.07591      0.69632     -0.01221      0.07960
    -6.40000     -0.07492      0.68906     -0.01223      0.07840
    -6.39000     -0.07394      0.68188     -0.01225      0.07720
    -6.38000     -0.07299      0.67478     -0.01228      0.07601
    -6.37000     -0.07206      0.66778     -0.01232      0.07481
    -6.36000     -0.07116      0.66086     -0.01236      0.07362
    -6.35000     -0.07028      0.65404     -0.01242      0.07242
    -6.34000     -0.06941      0.64728     -0.01248      0.07123
    -6.33000     -0.06858      0.64060     -0.01256      0.07004
    -6.32000     -0.06775      0.63397     -0.01265      0.06884
    -6.31000     -0.06695      0.62744     -0.01275      0.06765
    -6.30000     -0.06617      0.62097     -0.01288      0.06647
    -6.29000     -0.06541      0.61456     -0.01302      0.06529
    -6.28000     -0.06466      0.60822     -0.01318      0.06411
    -6.27000     -0.06394      0.60195     -0.01336      0.06295
    -6.26000     -0.06322      0.59572     -0.01357      0.06180
    -6.25000     -0.06254      0.58958     -0.01380      0.06067
    -6.24000     -0.06186      0.58350     -0.01407      0.05956
    -6.23000     -0.06121      0.57749     -0.01436      0.05849
    -6.22000     -0.06057      0.57154     -0.01467      0.05746
    -6.21000     -0.05994      0.56564     -0.01500      0.05648
    -6.20000     -0.05934      0.55981     -0.01533      0.05556
    -6.19000     -0.05875      0.55404     -0.01566      0.05471
    -6.18000     -0.05817      0.54832     -0.01595      0.05393
    -6.17000     -0.05761      0.54267     -0.01620      0.05321
    -6.16000     -0.05707      0.53707     -0.01637      0.05254
    -6.15000     -0.05653      0.53150     -0.01645      0.05190
    -6.14000     -0.05602      0.52600     -0.01645      0.05125
    -6.13000     -0.05551      0.52055     -0.01636      0.05057
    -6.12000     -0.05502      0.51513     -0.01620      0.04984
    -6.11000     -0.05454      0.50978     -0.01599      0.04904
    -6.10000     -0.05407      0.50445     -0.01577      0.04816
    -6.09000     -0.05362      0.49918     -0.01553      0.04721
    -6.08000     -0.05318      0.49393     -0.01532      0.04620
    -6.07000     -0.05275      0.48875     -0.01512      0.04512
    -6.06000     -0.05233      0.48357     -0.01496      0.04400
    -6.05000     -0.05193      0.47846     -0.01484      0.04284
    -6.04000     -0.05153      0.47339     -0.01475      0.04165
    -6.03000     -0.05116      0.46836     -0.01471      0.04043
    -6.02000     -0.05078      0.46334     -0.01471      0.03919
    -6.01000     -0.05043      0.45840     -0.01475      0.03793
    -6.00000     -0.05008      0.45345     -0.01483      0.03666
    -5.99000     -0.04975      0.44855     -0.01496      0.03537
    -5.98000     -0.04942      0.44367     -0.01513      0.03407
    -5.97000     -0.04911      0.43882     -0.01534      0.03276
    -5.96000     -0.04881      0.43403     -0.01561      0.03145
    -5.95000     -0.04852      0.42924     -0.01594      0.03012
    -5.94000     -0.04824      0.42449     -0.01632      0.02879
    -5.93000     -0.04797      0.41974     -0.01676      0.02745
    -5.92000     -0.04772      0.41504     -0.01728      0.02611
    -5.91000     -0.04748      0.41036     -0.01788      0.02477
    -5.90000     -0.04725      0.40571     -0.01857      0.02344
    -5.89000     -0.04703      0.40109     -0.01936      0.02213
    -5.88000     -0.04682      0.39648     -0.02026      0.02084
    -5.87000     -0.04663      0.39188     -0.02128      0.01959
    -5.86000     -0.04645      0.38732     -0.02243      0.01841
    -5.85000     -0.04627      0.38276     -0.02373      0.01732
    -5.84000     -0.04612      0.37823     -0.02519      0.01636
    -5.83000     -0.04598      0.37371     -0.02681      0.01557
    -5.82000     -0.04585      0.36920     -0.02858      0.01500
    -5.81000     -0.04573      0.36471     -0.03048      0.01471
    -5.80000     -0.04562      0.36022     -0.03247      0.01476
    -5.79000     -0.04554      0.35574     -0.03448      0.01522
    -5.78000     -0.04546      0.35127     -0.03639      0.01613
    -5.77000     -0.04540      0.34681     -0.03809      0.01749
    -5.76000     -0.04536      0.34235     -0.03942      0.01928
    -5.75000     -0.04534      0.33791     -0.04025      0.02138
    -5.74000     -0.04533      0.33346     -0.04049      0.02366
    -5.73000     -0.04534      0.32902     -0.04010      0.02593
    -5.72000     -0.04537      0.32458     -0.03912      0.02801
    -5.71000     -0.04543      0.32015     -0.03767      0.02976
    -5.70000     -0.04550      0.31572     -0.03587      0.03108
    -5.69000     -0.04560      0.31127     -0.03386      0.03195
    -5.68000     -0.04572      0.30682     -0.03179      0.03238
    -5.67000     -0.04587      0.30237     -0.02973      0.03241
    -5.66000     -0.04604      0.29789     -0.02777      0.03212
    -5.65000     -0.04625      0.29342     -0.02595      0.03157
    -5.64000     -0.04649      0.28892     -0.02428      0.03080
    -5.63000     -0.04676      0.28442     -0.02277      0.02989
    -5.62000     -0.04707      0.27989     -0.02142      0.02886
    -5.61000     -0.04742      0.27535     -0.02022      0.02775
    -5.60000     -0.04781      0.27078     -0.01915      0.02659
    -5.59000     -0.04825      0.26619     -0.01820      0.02540
    -5.58000     -0.04874      0.26157     -0.01737      0.02419
    -5.57000     -0.04929      0.25694     -0.01663      0.02297
    -5.56000     -0.04990      0.25227     -0.01598      0.02175
    -5.55000     -0.05059      0.24758     -0.01541      0.02054
    -5.54000     -0.05135      0.24285     -0.01491      0.01934
    -5.53000     -0.05219      0.23810     -0.01448      0.01815
    -5.52000     -0.05313      0.23332     -0.01410      0.01698
    -5.51000     -0.05417      0.22851     -0.01378      0.01582
    -5.50000     -0.05534      0.22367     -0.01350      0.01469
    -5.49000     -0.05663      0.21882     -0.01328      0.01357
    -5.48000     -0.05806      0.21395     -0.01310      0.01248
    -5.47000     -0.05967      0.20908     -0.01296      0.01142
    -5.46000     -0.06145      0.20422     -0.01285      0.01038
     -5.4500      -0.0634       0.1994      -0.0128       0.0094
     -5.4400      -0.0656       0.1946      -0.0128       0.0084
     -5.4300      -0.0681       0.1900      -0.0128       0.0075
     -5.4200      -0.0708       0.1855      -0.0128       0.0067
     -5.4100      -0.0737       0.1812      -0.0128       0.0059
   -5.400       -.7681E-1    0.1771       -.1281E-1    0.5123E-2
   -5.390       -.8012E-1    0.1734       -.1281E-1    0.4442E-2
   -5.380       -.8353E-1    0.1702       -.1277E-1    0.3809E-2
   -5.370       -.8693E-1    0.1674       -.1269E-1    0.3212E-2
   -5.360       -.9019E-1    0.1651       -.1255E-1    0.2632E-2
   -5.350       -.9314E-1    0.1633       -.1235E-1    0.2050E-2
   -5.340       -.9559E-1    0.1620       -.1211E-1    0.1450E-2
   -5.330       -.9740E-1    0.1608       -.1183E-1    0.8189E-3
   -5.320       -.9850E-1    0.1598       -.1152E-1    0.1517E-3
   -5.310       -.9890E-1    0.1585       -.1121E-1    -.5521E-3
   -5.300       -.9868E-1    0.1567       -.1090E-1    -.1289E-2
   -5.290       -.9802E-1    0.1544       -.1061E-1    -.2055E-2
   -5.280       -.9711E-1    0.1513       -.1033E-1    -.2843E-2
   -5.270       -.9613E-1    0.1476       -.1007E-1    -.3648E-2
   -5.260       -.9526E-1    0.1431       -.9826E-2    -.4467E-2
     -5.2500      -0.0946       0.1380      -0.0096      -0.0053
     -5.2400      -0.0943       0.1324      -0.0094      -0.0061
     -5.2300      -0.0944       0.1263      -0.0092      -0.0070
     -5.2200      -0.0948       0.1198      -0.0090      -0.0078
     -5.2100      -0.0958       0.1129      -0.0089      -0.0086
     -5.2000      -0.0971       0.1058      -0.0087      -0.0094
     -5.1900      -0.0990       0.0983      -0.0086      -0.0102
     -5.1800      -0.1013       0.0906      -0.0085      -0.0111
     -5.1700      -0.1041       0.0826      -0.0084      -0.0119
     -5.1600      -0.1074       0.0743      -0.0082      -0.0127
     -5.1500      -0.1113       0.0658      -0.0081      -0.0134
     -5.1400      -0.1158       0.0571      -0.0080      -0.0142
     -5.1300      -0.1209       0.0482      -0.0080      -0.0150
     -5.1200      -0.1267       0.0390      -0.0079      -0.0158
     -5.1100      -0.1333       0.0297      -0.0078      -0.0165
     -5.1000      -0.1409       0.0201      -0.0077      -0.0173
     -5.0900      -0.1494       0.0103      -0.0076      -0.0181
   -5.080       -.1590       0.3247E-3    -.7574E-2    -.1880E-1
     -5.0700      -0.1699      -0.0098      -0.0075      -0.0195
     -5.0600      -0.1822      -0.0200      -0.0074      -0.0203
     -5.0500      -0.1961      -0.0302      -0.0074      -0.0210
     -5.0400      -0.2118      -0.0401      -0.0073      -0.0217
     -5.0300      -0.2295      -0.0497      -0.0073      -0.0225
     -5.0200      -0.2495      -0.0587      -0.0072      -0.0232
     -5.0100      -0.2720      -0.0666      -0.0072      -0.0239
     -5.0000      -0.2973      -0.0731      -0.0071      -0.0246
     -4.9900      -0.3256      -0.0775      -0.0071      -0.0253
     -4.9800      -0.3569      -0.0789      -0.0070      -0.0260
     -4.9700      -0.3913      -0.0765      -0.0070      -0.0267
     -4.9600      -0.4284      -0.0691      -0.0069      -0.0274
     -4.9500      -0.4675      -0.0554      -0.0069      -0.0281
     -4.9400      -0.5073      -0.0342      -0.0068      -0.0288
   -4.930       -.5461       -.4619E-2    -.6800E-2    -.2943E-1
     -4.9200      -0.5815       0.0340      -0.0068      -0.0301
     -4.9100      -0.6107       0.0810      -0.0067      -0.0308
     -4.9000      -0.6309       0.1352      -0.0067      -0.0314
     -4.8900      -0.6401       0.1937      -0.0066      -0.0321
     -4.8800      -0.6371       0.2533      -0.0066      -0.0328
     -4.8700      -0.6223       0.3102      -0.0066      -0.0334
     -4.8600      -0.5972       0.3615      -0.0065      -0.0341
     -4.8500      -0.5645       0.4050      -0.0065      -0.0347
     -4.8400      -0.5268       0.4396      -0.0065      -0.0354
     -4.8300      -0.4868       0.4655      -0.0064      -0.0360
     -4.8200      -0.4467       0.4834      -0.0064      -0.0366
     -4.8100      -0.4080       0.4943      -0.0064      -0.0373
     -4.8000      -0.3716       0.4997      -0.0063      -0.0379
     -4.7900      -0.3381       0.5006      -0.0063      -0.0385
     -4.7800      -0.3077       0.4981      -0.0063      -0.0392
     -4.7700      -0.2803       0.4932      -0.0062      -0.0398
     -4.7600      -0.2558       0.4865      -0.0062      -0.0404
     -4.7500      -0.2340       0.4786      -0.0062      -0.0410
     -4.7400      -0.2145       0.4698      -0.0062      -0.0416
     -4.7300      -0.1972       0.4606      -0.0061      -0.0423
     -4.7200      -0.1818       0.4512      -0.0061      -0.0429
     -4.7100      -0.1680       0.4417      -0.0061      -0.0435
     -4.7000      -0.1558       0.4323      -0.0060      -0.0441
     -4.6900      -0.1448       0.4229      -0.0060      -0.0447
     -4.6800      -0.1350       0.4138      -0.0060      -0.0453
     -4.6700      -0.1262       0.4049      -0.0060      -0.0459
     -4.6600      -0.1182       0.3963      -0.0059      -0.0465
     -4.6500      -0.1110       0.3879      -0.0059      -0.0471
     -4.6400      -0.1045       0.3798      -0.0059      -0.0476
     -4.6300      -0.0986       0.3720      -0.0059      -0.0482
     -4.6200      -0.0932       0.3645      -0.0058      -0.0488
     -4.6100      -0.0883       0.3572      -0.0058      -0.0494
     -4.6000      -0.0838       0.3501      -0.0058      -0.0500
     -4.5900      -0.0797       0.3434      -0.0057      -0.0505
     -4.5800      -0.0760       0.3368      -0.0057      -0.0511
     -4.5700      -0.0725       0.3305      -0.0057      -0.0517
     -4.5600      -0.0693       0.3244      -0.0057      -0.0522
     -4.5500      -0.0663       0.3185      -0.0057      -0.0528
     -4.5400      -0.0636       0.3128      -0.0056      -0.0534
     -4.5300      -0.0611       0.3073      -0.0056      -0.0539
     -4.5200      -0.0587       0.3019      -0.0056      -0.0545
     -4.5100      -0.0565       0.2968      -0.0056      -0.0550
     -4.5000      -0.0545       0.2918      -0.0055      -0.0556
     -4.4900      -0.0525       0.2869      -0.0055      -0.0561
     -4.4800      -0.0507       0.2822      -0.0055      -0.0567
     -4.4700      -0.0491       0.2776      -0.0055      -0.0572
     -4.4600      -0.0475       0.2731      -0.0054      -0.0578
     -4.4500      -0.0460       0.2688      -0.0054      -0.0583
     -4.4400      -0.0446       0.2646      -0.0054      -0.0589
     -4.4300      -0.0433       0.2605      -0.0054      -0.0594
     -4.4200      -0.0421       0.2565      -0.0054      -0.0599
     -4.4100      -0.0409       0.2526      -0.0053      -0.0605
     -4.4000      -0.0398       0.2488      -0.0053      -0.0610
     -4.3900      -0.0387       0.2451      -0.0053      -0.0615
     -4.3800      -0.0377       0.2414      -0.0053      -0.0621
     -4.3700      -0.0368       0.2379      -0.0052      -0.0626
     -4.3600      -0.0359       0.2344      -0.0052      -0.0631
     -4.3500      -0.0350       0.2310      -0.0052      -0.0636
     -4.3400      -0.0342       0.2277      -0.0052      -0.0641
     -4.3300      -0.0335       0.2245      -0.0052      -0.0647
     -4.3200      -0.0327       0.2213      -0.0051      -0.0652
     -4.3100      -0.0320       0.2182      -0.0051      -0.0657
     -4.3000      -0.0313       0.2151      -0.0051      -0.0662
     -4.2900      -0.0307       0.2121      -0.0051      -0.0667
     -4.2800      -0.0301       0.2092      -0.0051      -0.0672
     -4.2700      -0.0295       0.2063      -0.0050      -0.0677
     -4.2600      -0.0289       0.2035      -0.0050      -0.0682
     -4.2500      -0.0284       0.2007      -0.0050      -0.0687
     -4.2400      -0.0278       0.1980      -0.0050      -0.0692
     -4.2300      -0.0273       0.1953      -0.0050      -0.0697
     -4.2200      -0.0268       0.1926      -0.0049      -0.0702
     -4.2100      -0.0264       0.1901      -0.0049      -0.0707
     -4.2000      -0.0259       0.1875      -0.0049      -0.0712
     -4.1900      -0.0255       0.1850      -0.0049      -0.0717
     -4.1800      -0.0251       0.1825      -0.0049      -0.0722
     -4.1700      -0.0247       0.1801      -0.0049      -0.0727
     -4.1600      -0.0243       0.1777      -0.0048      -0.0731
     -4.1500      -0.0239       0.1753      -0.0048      -0.0736
     -4.1400      -0.0235       0.1730      -0.0048      -0.0741
     -4.1300      -0.0232       0.1707      -0.0048      -0.0746
     -4.1200      -0.0229       0.1685      -0.0048      -0.0751
     -4.1100      -0.0225       0.1662      -0.0047      -0.0755
     -4.1000      -0.0222       0.1640      -0.0047      -0.0760
     -4.0900      -0.0219       0.1619      -0.0047      -0.0765
     -4.0800      -0.0216       0.1597      -0.0047      -0.0769
     -4.0700      -0.0213       0.1576      -0.0047      -0.0774
     -4.0600      -0.0210       0.1555      -0.0047      -0.0779
     -4.0500      -0.0207       0.1535      -0.0046      -0.0783
     -4.0400      -0.0205       0.1514      -0.0046      -0.0788
     -4.0300      -0.0202       0.1494      -0.0046      -0.0793
     -4.0200      -0.0200       0.1475      -0.0046      -0.0797
     -4.0100      -0.0197       0.1455      -0.0046      -0.0802
     -4.0000      -0.0195       0.1436      -0.0045      -0.0806
     -3.9900      -0.0192       0.1417      -0.0045      -0.0811
     -3.9800      -0.0190       0.1398      -0.0045      -0.0815
     -3.9700      -0.0188       0.1379      -0.0045      -0.0820
     -3.9600      -0.0186       0.1360      -0.0045      -0.0824
     -3.9500      -0.0184       0.1342      -0.0045      -0.0829
     -3.9400      -0.0182       0.1324      -0.0044      -0.0833
     -3.9300      -0.0180       0.1306      -0.0044      -0.0838
     -3.9200      -0.0178       0.1289      -0.0044      -0.0842
     -3.9100      -0.0176       0.1271      -0.0044      -0.0846
     -3.9000      -0.0174       0.1254      -0.0044      -0.0851
     -3.8900      -0.0172       0.1237      -0.0044      -0.0855
     -3.8800      -0.0170       0.1220      -0.0043      -0.0859
     -3.8700      -0.0168       0.1203      -0.0043      -0.0864
     -3.8600      -0.0167       0.1186      -0.0043      -0.0868
     -3.8500      -0.0165       0.1170      -0.0043      -0.0872
     -3.8400      -0.0163       0.1154      -0.0043      -0.0877
     -3.8300      -0.0162       0.1138      -0.0043      -0.0881
     -3.8200      -0.0160       0.1122      -0.0042      -0.0885
     -3.8100      -0.0159       0.1106      -0.0042      -0.0889
     -3.8000      -0.0157       0.1090      -0.0042      -0.0894
     -3.7900      -0.0156       0.1075      -0.0042      -0.0898
     -3.7800      -0.0154       0.1059      -0.0042      -0.0902
     -3.7700      -0.0153       0.1044      -0.0042      -0.0906
     -3.7600      -0.0151       0.1029      -0.0042      -0.0910
     -3.7500      -0.0150       0.1014      -0.0041      -0.0914
     -3.7400      -0.0149       0.0999      -0.0041      -0.0919
     -3.7300      -0.0147       0.0984      -0.0041      -0.0923
     -3.7200      -0.0146       0.0970      -0.0041      -0.0927
     -3.7100      -0.0145       0.0955      -0.0041      -0.0931
     -3.7000      -0.0143       0.0941      -0.0041      -0.0935
     -3.6900      -0.0142       0.0927      -0.0040      -0.0939
     -3.6800      -0.0141       0.0913      -0.0040      -0.0943
     -3.6700      -0.0140       0.0899      -0.0040      -0.0947
     -3.6600      -0.0139       0.0885      -0.0040      -0.0951
     -3.6500      -0.0138       0.0871      -0.0040      -0.0955
     -3.6400      -0.0136       0.0858      -0.0040      -0.0959
     -3.6300      -0.0135       0.0844      -0.0040      -0.0963
     -3.6200      -0.0134       0.0831      -0.0039      -0.0967
     -3.6100      -0.0133       0.0818      -0.0039      -0.0971
     -3.6000      -0.0132       0.0804      -0.0039      -0.0975
     -3.5900      -0.0131       0.0791      -0.0039      -0.0978
     -3.5800      -0.0130       0.0778      -0.0039      -0.0982
     -3.5700      -0.0129       0.0765      -0.0039      -0.0986
     -3.5600      -0.0128       0.0753      -0.0038      -0.0990
     -3.5500      -0.0127       0.0740      -0.0038      -0.0994
     -3.5400      -0.0126       0.0727      -0.0038      -0.0998
     -3.5300      -0.0125       0.0715      -0.0038      -0.1001
     -3.5200      -0.0124       0.0703      -0.0038      -0.1005
     -3.5100      -0.0123       0.0690      -0.0038      -0.1009
     -3.5000      -0.0122       0.0678      -0.0038      -0.1013
     -3.4900      -0.0121       0.0666      -0.0037      -0.1016
     -3.4800      -0.0120       0.0654      -0.0037      -0.1020
     -3.4700      -0.0119       0.0642      -0.0037      -0.1024
     -3.4600      -0.0119       0.0630      -0.0037      -0.1028
     -3.4500      -0.0118       0.0618      -0.0037      -0.1031
     -3.4400      -0.0117       0.0607      -0.0037      -0.1035
     -3.4300      -0.0116       0.0595      -0.0037      -0.1039
     -3.4200      -0.0115       0.0584      -0.0036      -0.1042
     -3.4100      -0.0114       0.0572      -0.0036      -0.1046
     -3.4000      -0.0113       0.0561      -0.0036      -0.1049
     -3.3900      -0.0113       0.0550      -0.0036      -0.1053
     -3.3800      -0.0112       0.0538      -0.0036      -0.1057
     -3.3700      -0.0111       0.0527      -0.0036      -0.1060
     -3.3600      -0.0110       0.0516      -0.0036      -0.1064
     -3.3500      -0.0110       0.0505      -0.0035      -0.1067
     -3.3400      -0.0109       0.0494      -0.0035      -0.1071
     -3.3300      -0.0108       0.0484      -0.0035      -0.1074
     -3.3200      -0.0107       0.0473      -0.0035      -0.1078
     -3.3100      -0.0107       0.0462      -0.0035      -0.1081
     -3.3000      -0.0106       0.0452      -0.0035      -0.1085
     -3.2900      -0.0105       0.0441      -0.0035      -0.1088
     -3.2800      -0.0104       0.0431      -0.0034      -0.1092
     -3.2700      -0.0104       0.0420      -0.0034      -0.1095
     -3.2600      -0.0103       0.0410      -0.0034      -0.1098
     -3.2500      -0.0102       0.0400      -0.0034      -0.1102
     -3.2400      -0.0102       0.0390      -0.0034      -0.1105
     -3.2300      -0.0101       0.0380      -0.0034      -0.1109
     -3.2200      -0.0100       0.0370      -0.0034      -0.1112
     -3.2100      -0.0100       0.0360      -0.0034      -0.1115
     -3.2000      -0.0099       0.0350      -0.0033      -0.1119
     -3.1900      -0.0098       0.0340      -0.0033      -0.1122
     -3.1800      -0.0098       0.0330      -0.0033      -0.1125
     -3.1700      -0.0097       0.0320      -0.0033      -0.1129
     -3.1600      -0.0096       0.0311      -0.0033      -0.1132
     -3.1500      -0.0096       0.0301      -0.0033      -0.1135
     -3.1400      -0.0095       0.0292      -0.0033      -0.1138
     -3.1300      -0.0095       0.0282      -0.0032      -0.1142
     -3.1200      -0.0094       0.0273      -0.0032      -0.1145
     -3.1100      -0.0093       0.0264      -0.0032      -0.1148
     -3.1000      -0.0093       0.0254      -0.0032      -0.1151
     -3.0900      -0.0092       0.0245      -0.0032      -0.1154
     -3.0800      -0.0092       0.0236      -0.0032      -0.1158
     -3.0700      -0.0091       0.0227      -0.0032      -0.1161
     -3.0600      -0.0090       0.0218      -0.0032      -0.1164
     -3.0500      -0.0090       0.0209      -0.0031      -0.1167
     -3.0400      -0.0089       0.0200      -0.0031      -0.1170
     -3.0300      -0.0089       0.0191      -0.0031      -0.1173
     -3.0200      -0.0088       0.0182      -0.0031      -0.1176
     -3.0100      -0.0088       0.0173      -0.0031      -0.1180
     -3.0000      -0.0087       0.0165      -0.0031      -0.1183
     -2.9900      -0.0087       0.0156      -0.0031      -0.1186
     -2.9800      -0.0086       0.0147      -0.0031      -0.1189
     -2.9700      -0.0085       0.0139      -0.0030      -0.1192
     -2.9600      -0.0085       0.0130      -0.0030      -0.1195
     -2.9500      -0.0084       0.0122      -0.0030      -0.1198
     -2.9400      -0.0084       0.0113      -0.0030      -0.1201
     -2.9300      -0.0083       0.0105      -0.0030      -0.1204
     -2.9200      -0.0083       0.0097      -0.0030      -0.1207
     -2.9100      -0.0082       0.0089      -0.0030      -0.1210
     -2.9000      -0.0082       0.0080      -0.0030      -0.1213
     -2.8900      -0.0081       0.0072      -0.0029      -0.1216
     -2.8800      -0.0081       0.0064      -0.0029      -0.1218
     -2.8700      -0.0080       0.0056      -0.0029      -0.1221
     -2.8600      -0.0080       0.0048      -0.0029      -0.1224
     -2.8500      -0.0080       0.0040      -0.0029      -0.1227
     -2.8400      -0.0079       0.0032      -0.0029      -0.1230
   -2.830       -.7854E-2    0.2433E-2    -.2866E-2    -.1233   
   -2.820       -.7804E-2    0.1654E-2    -.2854E-2    -.1236   
   -2.810       -.7755E-2    0.8806E-3    -.2841E-2    -.1239   
   -2.800       -.7707E-2    0.1131E-3    -.2829E-2    -.1241   
   -2.790       -.7661E-2    -.6495E-3    -.2817E-2    -.1244   
   -2.780       -.7616E-2    -.1408E-2    -.2805E-2    -.1247   
   -2.770       -.7573E-2    -.2163E-2    -.2793E-2    -.1250   
     -2.7600      -0.0075      -0.0029      -0.0028      -0.1253
     -2.7500      -0.0075      -0.0037      -0.0028      -0.1255
     -2.7400      -0.0074      -0.0044      -0.0028      -0.1258
     -2.7300      -0.0074      -0.0051      -0.0027      -0.1261
     -2.7200      -0.0074      -0.0059      -0.0027      -0.1264
     -2.7100      -0.0073      -0.0066      -0.0027      -0.1266
     -2.7000      -0.0073      -0.0073      -0.0027      -0.1269
     -2.6900      -0.0072      -0.0081      -0.0027      -0.1272
     -2.6800      -0.0072      -0.0088      -0.0027      -0.1274
     -2.6700      -0.0071      -0.0095      -0.0027      -0.1277
     -2.6600      -0.0071      -0.0102      -0.0027      -0.1280
   -2.650       -.7042E-2    -.1091E-1    -.2649E-2    -.1282   
   -2.640       -.7000E-2    -.1161E-1    -.2637E-2    -.1285   
   -2.630       -.6957E-2    -.1231E-1    -.2626E-2    -.1288   
   -2.620       -.6916E-2    -.1300E-1    -.2614E-2    -.1290   
   -2.610       -.6874E-2    -.1369E-1    -.2602E-2    -.1293   
   -2.600       -.6833E-2    -.1437E-1    -.2590E-2    -.1295   
   -2.590       -.6792E-2    -.1505E-1    -.2579E-2    -.1298   
   -2.580       -.6751E-2    -.1572E-1    -.2567E-2    -.1300   
   -2.570       -.6711E-2    -.1640E-1    -.2555E-2    -.1303   
   -2.560       -.6671E-2    -.1706E-1    -.2544E-2    -.1306   
   -2.550       -.6631E-2    -.1773E-1    -.2532E-2    -.1308   
   -2.540       -.6592E-2    -.1839E-1    -.2521E-2    -.1311   
   -2.530       -.6552E-2    -.1904E-1    -.2509E-2    -.1313   
   -2.520       -.6513E-2    -.1969E-1    -.2498E-2    -.1316   
   -2.510       -.6474E-2    -.2034E-1    -.2486E-2    -.1318   
   -2.500       -.6436E-2    -.2099E-1    -.2475E-2    -.1321   
   -2.490       -.6397E-2    -.2163E-1    -.2463E-2    -.1323   
   -2.480       -.6359E-2    -.2226E-1    -.2452E-2    -.1325   
   -2.470       -.6321E-2    -.2290E-1    -.2440E-2    -.1328   
   -2.460       -.6283E-2    -.2353E-1    -.2429E-2    -.1330   
   -2.450       -.6246E-2    -.2415E-1    -.2417E-2    -.1333   
   -2.440       -.6208E-2    -.2477E-1    -.2406E-2    -.1335   
   -2.430       -.6171E-2    -.2539E-1    -.2395E-2    -.1337   
   -2.420       -.6134E-2    -.2600E-1    -.2383E-2    -.1340   
   -2.410       -.6097E-2    -.2661E-1    -.2372E-2    -.1342   
   -2.400       -.6061E-2    -.2722E-1    -.2361E-2    -.1345   
   -2.390       -.6024E-2    -.2782E-1    -.2349E-2    -.1347   
   -2.380       -.5988E-2    -.2842E-1    -.2338E-2    -.1349   
   -2.370       -.5952E-2    -.2902E-1    -.2327E-2    -.1352   
   -2.360       -.5916E-2    -.2961E-1    -.2316E-2    -.1354   
   -2.350       -.5881E-2    -.3020E-1    -.2305E-2    -.1356   
   -2.340       -.5845E-2    -.3078E-1    -.2294E-2    -.1359   
   -2.330       -.5810E-2    -.3137E-1    -.2282E-2    -.1361   
   -2.320       -.5775E-2    -.3194E-1    -.2271E-2    -.1363   
   -2.310       -.5740E-2    -.3252E-1    -.2260E-2    -.1365   
   -2.300       -.5705E-2    -.3309E-1    -.2249E-2    -.1368   
   -2.290       -.5670E-2    -.3366E-1    -.2238E-2    -.1370   
   -2.280       -.5636E-2    -.3422E-1    -.2227E-2    -.1372   
   -2.270       -.5602E-2    -.3478E-1    -.2216E-2    -.1374   
   -2.260       -.5568E-2    -.3534E-1    -.2205E-2    -.1376   
   -2.250       -.5534E-2    -.3589E-1    -.2194E-2    -.1379   
   -2.240       -.5500E-2    -.3644E-1    -.2183E-2    -.1381   
   -2.230       -.5467E-2    -.3699E-1    -.2172E-2    -.1383   
   -2.220       -.5433E-2    -.3754E-1    -.2161E-2    -.1385   
   -2.210       -.5400E-2    -.3808E-1    -.2150E-2    -.1387   
   -2.200       -.5367E-2    -.3861E-1    -.2139E-2    -.1389   
   -2.190       -.5334E-2    -.3915E-1    -.2128E-2    -.1391   
   -2.180       -.5301E-2    -.3968E-1    -.2117E-2    -.1394   
   -2.170       -.5268E-2    -.4021E-1    -.2107E-2    -.1396   
   -2.160       -.5236E-2    -.4073E-1    -.2096E-2    -.1398   
   -2.150       -.5203E-2    -.4125E-1    -.2085E-2    -.1400   
   -2.140       -.5171E-2    -.4177E-1    -.2074E-2    -.1402   
   -2.130       -.5139E-2    -.4228E-1    -.2063E-2    -.1404   
   -2.120       -.5107E-2    -.4279E-1    -.2053E-2    -.1406   
   -2.110       -.5075E-2    -.4330E-1    -.2042E-2    -.1408   
   -2.100       -.5043E-2    -.4381E-1    -.2031E-2    -.1410   
   -2.090       -.5012E-2    -.4431E-1    -.2020E-2    -.1412   
   -2.080       -.4981E-2    -.4481E-1    -.2010E-2    -.1414   
   -2.070       -.4949E-2    -.4530E-1    -.1999E-2    -.1416   
   -2.060       -.4918E-2    -.4580E-1    -.1988E-2    -.1418   
   -2.050       -.4887E-2    -.4628E-1    -.1978E-2    -.1420   
   -2.040       -.4856E-2    -.4677E-1    -.1967E-2    -.1422   
   -2.030       -.4825E-2    -.4725E-1    -.1956E-2    -.1424   
   -2.020       -.4795E-2    -.4773E-1    -.1946E-2    -.1426   
   -2.010       -.4764E-2    -.4821E-1    -.1935E-2    -.1428   
   -2.000       -.4734E-2    -.4869E-1    -.1924E-2    -.1430   
   -1.990       -.4704E-2    -.4916E-1    -.1914E-2    -.1432   
   -1.980       -.4674E-2    -.4962E-1    -.1903E-2    -.1434   
   -1.970       -.4644E-2    -.5009E-1    -.1893E-2    -.1435   
   -1.960       -.4614E-2    -.5055E-1    -.1882E-2    -.1437   
   -1.950       -.4584E-2    -.5101E-1    -.1872E-2    -.1439   
   -1.940       -.4554E-2    -.5147E-1    -.1861E-2    -.1441   
   -1.930       -.4525E-2    -.5192E-1    -.1851E-2    -.1443   
   -1.920       -.4495E-2    -.5237E-1    -.1840E-2    -.1445   
   -1.910       -.4466E-2    -.5282E-1    -.1830E-2    -.1447   
   -1.900       -.4437E-2    -.5326E-1    -.1820E-2    -.1448   
   -1.890       -.4408E-2    -.5370E-1    -.1809E-2    -.1450   
   -1.880       -.4379E-2    -.5414E-1    -.1799E-2    -.1452   
   -1.870       -.4350E-2    -.5458E-1    -.1788E-2    -.1454   
   -1.860       -.4321E-2    -.5501E-1    -.1778E-2    -.1455   
   -1.850       -.4292E-2    -.5544E-1    -.1768E-2    -.1457   
   -1.840       -.4264E-2    -.5586E-1    -.1757E-2    -.1459   
   -1.830       -.4235E-2    -.5629E-1    -.1747E-2    -.1461   
   -1.820       -.4207E-2    -.5671E-1    -.1737E-2    -.1463   
   -1.810       -.4178E-2    -.5713E-1    -.1726E-2    -.1464   
   -1.800       -.4150E-2    -.5754E-1    -.1716E-2    -.1466   
   -1.790       -.4122E-2    -.5796E-1    -.1706E-2    -.1468   
   -1.780       -.4094E-2    -.5837E-1    -.1695E-2    -.1469   
   -1.770       -.4066E-2    -.5877E-1    -.1685E-2    -.1471   
   -1.760       -.4039E-2    -.5918E-1    -.1675E-2    -.1473   
   -1.750       -.4011E-2    -.5958E-1    -.1665E-2    -.1474   
   -1.740       -.3983E-2    -.5998E-1    -.1655E-2    -.1476   
   -1.730       -.3956E-2    -.6037E-1    -.1644E-2    -.1478   
   -1.720       -.3928E-2    -.6077E-1    -.1634E-2    -.1479   
   -1.710       -.3901E-2    -.6116E-1    -.1624E-2    -.1481   
   -1.700       -.3874E-2    -.6155E-1    -.1614E-2    -.1483   
   -1.690       -.3847E-2    -.6193E-1    -.1604E-2    -.1484   
   -1.680       -.3820E-2    -.6231E-1    -.1593E-2    -.1486   
   -1.670       -.3793E-2    -.6269E-1    -.1583E-2    -.1487   
   -1.660       -.3766E-2    -.6307E-1    -.1573E-2    -.1489   
   -1.650       -.3739E-2    -.6344E-1    -.1563E-2    -.1490   
   -1.640       -.3712E-2    -.6382E-1    -.1553E-2    -.1492   
   -1.630       -.3686E-2    -.6419E-1    -.1543E-2    -.1494   
   -1.620       -.3659E-2    -.6455E-1    -.1533E-2    -.1495   
   -1.610       -.3633E-2    -.6492E-1    -.1523E-2    -.1497   
   -1.600       -.3606E-2    -.6528E-1    -.1513E-2    -.1498   
   -1.590       -.3580E-2    -.6564E-1    -.1503E-2    -.1500   
   -1.580       -.3554E-2    -.6599E-1    -.1493E-2    -.1501   
   -1.570       -.3528E-2    -.6635E-1    -.1483E-2    -.1503   
   -1.560       -.3502E-2    -.6670E-1    -.1473E-2    -.1504   
   -1.550       -.3476E-2    -.6704E-1    -.1463E-2    -.1505   
   -1.540       -.3450E-2    -.6739E-1    -.1453E-2    -.1507   
   -1.530       -.3424E-2    -.6773E-1    -.1443E-2    -.1508   
   -1.520       -.3398E-2    -.6807E-1    -.1433E-2    -.1510   
   -1.510       -.3373E-2    -.6841E-1    -.1423E-2    -.1511   
   -1.500       -.3347E-2    -.6875E-1    -.1413E-2    -.1513   
   -1.490       -.3321E-2    -.6908E-1    -.1403E-2    -.1514   
   -1.480       -.3296E-2    -.6941E-1    -.1393E-2    -.1515   
   -1.470       -.3271E-2    -.6974E-1    -.1383E-2    -.1517   
   -1.460       -.3245E-2    -.7006E-1    -.1373E-2    -.1518   
   -1.450       -.3220E-2    -.7038E-1    -.1364E-2    -.1520   
   -1.440       -.3195E-2    -.7070E-1    -.1354E-2    -.1521   
   -1.430       -.3170E-2    -.7102E-1    -.1344E-2    -.1522   
   -1.420       -.3145E-2    -.7134E-1    -.1334E-2    -.1523   
   -1.410       -.3120E-2    -.7165E-1    -.1324E-2    -.1525   
   -1.400       -.3095E-2    -.7196E-1    -.1314E-2    -.1526   
   -1.390       -.3070E-2    -.7227E-1    -.1304E-2    -.1528   
   -1.380       -.3045E-2    -.7257E-1    -.1294E-2    -.1529   
   -1.370       -.3020E-2    -.7288E-1    -.1285E-2    -.1530   
   -1.360       -.2996E-2    -.7318E-1    -.1275E-2    -.1531   
   -1.350       -.2971E-2    -.7347E-1    -.1265E-2    -.1533   
   -1.340       -.2947E-2    -.7377E-1    -.1255E-2    -.1534   
   -1.330       -.2922E-2    -.7406E-1    -.1246E-2    -.1535   
   -1.320       -.2898E-2    -.7435E-1    -.1236E-2    -.1536   
   -1.310       -.2873E-2    -.7464E-1    -.1226E-2    -.1538   
   -1.300       -.2849E-2    -.7492E-1    -.1216E-2    -.1539   
   -1.290       -.2825E-2    -.7521E-1    -.1207E-2    -.1540   
   -1.280       -.2801E-2    -.7549E-1    -.1197E-2    -.1541   
   -1.270       -.2777E-2    -.7577E-1    -.1187E-2    -.1542   
   -1.260       -.2752E-2    -.7604E-1    -.1178E-2    -.1543   
   -1.250       -.2728E-2    -.7632E-1    -.1168E-2    -.1545   
   -1.240       -.2704E-2    -.7659E-1    -.1158E-2    -.1546   
   -1.230       -.2681E-2    -.7686E-1    -.1148E-2    -.1547   
   -1.220       -.2657E-2    -.7712E-1    -.1139E-2    -.1548   
   -1.210       -.2633E-2    -.7739E-1    -.1129E-2    -.1549   
   -1.200       -.2609E-2    -.7765E-1    -.1119E-2    -.1550   
   -1.190       -.2586E-2    -.7791E-1    -.1110E-2    -.1551   
   -1.180       -.2562E-2    -.7816E-1    -.1100E-2    -.1553   
   -1.170       -.2538E-2    -.7842E-1    -.1091E-2    -.1554   
   -1.160       -.2515E-2    -.7867E-1    -.1081E-2    -.1555   
   -1.150       -.2491E-2    -.7892E-1    -.1071E-2    -.1556   
   -1.140       -.2468E-2    -.7917E-1    -.1062E-2    -.1557   
   -1.130       -.2444E-2    -.7941E-1    -.1052E-2    -.1558   
   -1.120       -.2421E-2    -.7965E-1    -.1043E-2    -.1559   
   -1.110       -.2398E-2    -.7989E-1    -.1033E-2    -.1560   
   -1.100       -.2375E-2    -.8013E-1    -.1023E-2    -.1561   
   -1.090       -.2351E-2    -.8037E-1    -.1014E-2    -.1562   
   -1.080       -.2328E-2    -.8060E-1    -.1004E-2    -.1563   
   -1.070       -.2305E-2    -.8083E-1    -.9948E-3    -.1564   
   -1.060       -.2282E-2    -.8106E-1    -.9852E-3    -.1565   
   -1.050       -.2259E-2    -.8129E-1    -.9757E-3    -.1566   
   -1.040       -.2236E-2    -.8151E-1    -.9661E-3    -.1567   
   -1.030       -.2213E-2    -.8174E-1    -.9566E-3    -.1568   
   -1.020       -.2190E-2    -.8196E-1    -.9470E-3    -.1569   
   -1.010       -.2168E-2    -.8217E-1    -.9376E-3    -.1570   
   -1.000       -.2145E-2    -.8239E-1    -.9280E-3    -.1571   
   -.9900       -.2122E-2    -.8260E-1    -.9186E-3    -.1572   
   -.9800       -.2099E-2    -.8281E-1    -.9090E-3    -.1573   
   -.9700       -.2077E-2    -.8302E-1    -.8996E-3    -.1573   
   -.9600       -.2054E-2    -.8323E-1    -.8901E-3    -.1574   
   -.9500       -.2031E-2    -.8343E-1    -.8807E-3    -.1575   
   -.9400       -.2009E-2    -.8363E-1    -.8712E-3    -.1576   
   -.9300       -.1986E-2    -.8383E-1    -.8617E-3    -.1577   
   -.9200       -.1964E-2    -.8403E-1    -.8523E-3    -.1578   
   -.9100       -.1941E-2    -.8422E-1    -.8428E-3    -.1579   
   -.9000       -.1919E-2    -.8441E-1    -.8334E-3    -.1579   
   -.8900       -.1897E-2    -.8460E-1    -.8239E-3    -.1580   
   -.8800       -.1874E-2    -.8479E-1    -.8145E-3    -.1581   
   -.8700       -.1852E-2    -.8498E-1    -.8051E-3    -.1582   
   -.8600       -.1830E-2    -.8516E-1    -.7956E-3    -.1583   
   -.8500       -.1808E-2    -.8534E-1    -.7863E-3    -.1583   
   -.8400       -.1785E-2    -.8552E-1    -.7768E-3    -.1584   
   -.8300       -.1763E-2    -.8570E-1    -.7675E-3    -.1585   
   -.8200       -.1741E-2    -.8587E-1    -.7580E-3    -.1586   
   -.8100       -.1719E-2    -.8605E-1    -.7487E-3    -.1587   
   -.8000       -.1697E-2    -.8622E-1    -.7392E-3    -.1587   
   -.7900       -.1675E-2    -.8639E-1    -.7299E-3    -.1588   
   -.7800       -.1653E-2    -.8655E-1    -.7204E-3    -.1589   
   -.7700       -.1631E-2    -.8672E-1    -.7112E-3    -.1589   
   -.7600       -.1609E-2    -.8688E-1    -.7017E-3    -.1590   
   -.7500       -.1587E-2    -.8704E-1    -.6924E-3    -.1591   
   -.7400       -.1565E-2    -.8719E-1    -.6830E-3    -.1591   
   -.7300       -.1544E-2    -.8735E-1    -.6737E-3    -.1592   
   -.7200       -.1522E-2    -.8750E-1    -.6643E-3    -.1593   
   -.7100       -.1500E-2    -.8765E-1    -.6550E-3    -.1593   
   -.7000       -.1478E-2    -.8780E-1    -.6457E-3    -.1594   
   -.6900       -.1456E-2    -.8795E-1    -.6364E-3    -.1595   
   -.6800       -.1435E-2    -.8809E-1    -.6270E-3    -.1595   
   -.6700       -.1413E-2    -.8824E-1    -.6177E-3    -.1596   
   -.6600       -.1391E-2    -.8838E-1    -.6084E-3    -.1597   
   -.6500       -.1370E-2    -.8851E-1    -.5991E-3    -.1597   
   -.6400       -.1348E-2    -.8865E-1    -.5898E-3    -.1598   
   -.6300       -.1327E-2    -.8878E-1    -.5805E-3    -.1598   
   -.6200       -.1305E-2    -.8891E-1    -.5712E-3    -.1599   
   -.6100       -.1284E-2    -.8904E-1    -.5619E-3    -.1600   
   -.6000       -.1262E-2    -.8917E-1    -.5526E-3    -.1600   
   -.5900       -.1241E-2    -.8929E-1    -.5434E-3    -.1601   
   -.5800       -.1219E-2    -.8942E-1    -.5340E-3    -.1601   
   -.5700       -.1198E-2    -.8954E-1    -.5248E-3    -.1602   
   -.5600       -.1176E-2    -.8965E-1    -.5155E-3    -.1602   
   -.5500       -.1155E-2    -.8977E-1    -.5062E-3    -.1603   
   -.5400       -.1134E-2    -.8988E-1    -.4970E-3    -.1603   
   -.5300       -.1112E-2    -.9000E-1    -.4877E-3    -.1604   
   -.5200       -.1091E-2    -.9011E-1    -.4784E-3    -.1604   
   -.5100       -.1070E-2    -.9021E-1    -.4692E-3    -.1605   
   -.5000       -.1048E-2    -.9032E-1    -.4599E-3    -.1605   
   -.4900       -.1027E-2    -.9042E-1    -.4507E-3    -.1606   
   -.4800       -.1006E-2    -.9053E-1    -.4415E-3    -.1606   
   -.4700       -.9845E-3    -.9062E-1    -.4322E-3    -.1606   
   -.4600       -.9633E-3    -.9072E-1    -.4230E-3    -.1607   
   -.4500       -.9421E-3    -.9082E-1    -.4137E-3    -.1607   
   -.4400       -.9209E-3    -.9091E-1    -.4045E-3    -.1608   
   -.4300       -.8998E-3    -.9100E-1    -.3952E-3    -.1608   
   -.4200       -.8786E-3    -.9109E-1    -.3860E-3    -.1608   
   -.4100       -.8575E-3    -.9118E-1    -.3768E-3    -.1609   
   -.4000       -.8364E-3    -.9126E-1    -.3675E-3    -.1609   
   -.3900       -.8153E-3    -.9134E-1    -.3583E-3    -.1610   
   -.3800       -.7942E-3    -.9142E-1    -.3491E-3    -.1610   
   -.3700       -.7731E-3    -.9150E-1    -.3399E-3    -.1610   
   -.3600       -.7521E-3    -.9158E-1    -.3306E-3    -.1611   
   -.3500       -.7310E-3    -.9165E-1    -.3214E-3    -.1611   
   -.3400       -.7100E-3    -.9172E-1    -.3122E-3    -.1611   
   -.3300       -.6889E-3    -.9179E-1    -.3030E-3    -.1611   
   -.3200       -.6679E-3    -.9186E-1    -.2938E-3    -.1612   
   -.3100       -.6470E-3    -.9193E-1    -.2846E-3    -.1612   
   -.3000       -.6260E-3    -.9199E-1    -.2754E-3    -.1612   
   -.2900       -.6050E-3    -.9205E-1    -.2662E-3    -.1613   
   -.2800       -.5840E-3    -.9211E-1    -.2570E-3    -.1613   
   -.2700       -.5631E-3    -.9217E-1    -.2478E-3    -.1613   
   -.2600       -.5421E-3    -.9222E-1    -.2387E-3    -.1613   
   -.2500       -.5212E-3    -.9228E-1    -.2294E-3    -.1614   
   -.2400       -.5003E-3    -.9233E-1    -.2203E-3    -.1614   
   -.2300       -.4794E-3    -.9238E-1    -.2111E-3    -.1614   
   -.2200       -.4585E-3    -.9242E-1    -.2019E-3    -.1614   
   -.2100       -.4376E-3    -.9247E-1    -.1927E-3    -.1614   
   -.2000       -.4167E-3    -.9251E-1    -.1835E-3    -.1615   
   -.1900       -.3958E-3    -.9255E-1    -.1743E-3    -.1615   
   -.1800       -.3749E-3    -.9259E-1    -.1652E-3    -.1615   
   -.1700       -.3541E-3    -.9263E-1    -.1560E-3    -.1615   
   -.1600       -.3332E-3    -.9266E-1    -.1468E-3    -.1615   
   -.1500       -.3124E-3    -.9269E-1    -.1376E-3    -.1615   
   -.1400       -.2915E-3    -.9272E-1    -.1284E-3    -.1616   
   -.1300       -.2707E-3    -.9275E-1    -.1193E-3    -.1616   
   -.1200       -.2498E-3    -.9278E-1    -.1101E-3    -.1616   
   -.1100       -.2290E-3    -.9280E-1    -.1009E-3    -.1616   
   -.1000       -.2082E-3    -.9282E-1    -.9173E-4    -.1616   
   -.9000E-1    -.1873E-3    -.9284E-1    -.8255E-4    -.1616   
   -.8000E-1    -.1665E-3    -.9286E-1    -.7338E-4    -.1616   
   -.7000E-1    -.1457E-3    -.9287E-1    -.6420E-4    -.1616   
   -.6000E-1    -.1249E-3    -.9289E-1    -.5504E-4    -.1616   
   -.5000E-1    -.1041E-3    -.9290E-1    -.4586E-4    -.1616   
   -.4000E-1    -.8324E-4    -.9291E-1    -.3669E-4    -.1616   
   -.3000E-1    -.6243E-4    -.9291E-1    -.2752E-4    -.1617   
   -.2000E-1    -.4162E-4    -.9292E-1    -.1834E-4    -.1617   
   -.1000E-1    -.2081E-4    -.9292E-1    -.9173E-5    -.1617   
    0.00        0.918E-10    -.929E-01    -.228E-09    -.162    
   0.1000E-1    0.2081E-4    -.9292E-1    0.9173E-5    -.1617   
   0.2000E-1    0.4162E-4    -.9292E-1    0.1834E-4    -.1617   
   0.3000E-1    0.6243E-4    -.9292E-1    0.2752E-4    -.1617   
   0.4000E-1    0.8324E-4    -.9291E-1    0.3669E-4    -.1616   
   0.5000E-1    0.1041E-3    -.9290E-1    0.4586E-4    -.1616   
   0.6000E-1    0.1249E-3    -.9289E-1    0.5503E-4    -.1616   
   0.7000E-1    0.1457E-3    -.9287E-1    0.6421E-4    -.1616   
   0.8000E-1    0.1665E-3    -.9286E-1    0.7338E-4    -.1616   
   0.9000E-1    0.1873E-3    -.9284E-1    0.8255E-4    -.1616   
   0.1000       0.2082E-3    -.9282E-1    0.9173E-4    -.1616   
   0.1100       0.2290E-3    -.9280E-1    0.1009E-3    -.1616   
   0.1200       0.2498E-3    -.9278E-1    0.1101E-3    -.1616   
   0.1300       0.2707E-3    -.9275E-1    0.1193E-3    -.1616   
   0.1400       0.2915E-3    -.9272E-1    0.1284E-3    -.1616   
   0.1500       0.3124E-3    -.9269E-1    0.1376E-3    -.1615   
   0.1600       0.3332E-3    -.9266E-1    0.1468E-3    -.1615   
   0.1700       0.3541E-3    -.9263E-1    0.1560E-3    -.1615   
   0.1800       0.3749E-3    -.9259E-1    0.1652E-3    -.1615   
   0.1900       0.3958E-3    -.9255E-1    0.1743E-3    -.1615   
   0.2000       0.4167E-3    -.9251E-1    0.1835E-3    -.1615   
   0.2100       0.4376E-3    -.9247E-1    0.1927E-3    -.1614   
   0.2200       0.4585E-3    -.9242E-1    0.2019E-3    -.1614   
   0.2300       0.4794E-3    -.9237E-1    0.2111E-3    -.1614   
   0.2400       0.5003E-3    -.9233E-1    0.2203E-3    -.1614   
   0.2500       0.5212E-3    -.9227E-1    0.2295E-3    -.1614   
   0.2600       0.5421E-3    -.9222E-1    0.2387E-3    -.1613   
   0.2700       0.5631E-3    -.9217E-1    0.2478E-3    -.1613   
   0.2800       0.5840E-3    -.9211E-1    0.2570E-3    -.1613   
   0.2900       0.6050E-3    -.9205E-1    0.2662E-3    -.1613   
   0.3000       0.6260E-3    -.9199E-1    0.2755E-3    -.1612   
   0.3100       0.6469E-3    -.9193E-1    0.2846E-3    -.1612   
   0.3200       0.6679E-3    -.9186E-1    0.2939E-3    -.1612   
   0.3300       0.6889E-3    -.9179E-1    0.3031E-3    -.1612   
   0.3400       0.7100E-3    -.9172E-1    0.3123E-3    -.1611   
   0.3500       0.7310E-3    -.9165E-1    0.3215E-3    -.1611   
   0.3600       0.7520E-3    -.9158E-1    0.3307E-3    -.1611   
   0.3700       0.7731E-3    -.9150E-1    0.3399E-3    -.1610   
   0.3800       0.7942E-3    -.9142E-1    0.3491E-3    -.1610   
   0.3900       0.8152E-3    -.9134E-1    0.3584E-3    -.1610   
   0.4000       0.8363E-3    -.9126E-1    0.3676E-3    -.1609   
   0.4100       0.8575E-3    -.9118E-1    0.3768E-3    -.1609   
   0.4200       0.8786E-3    -.9109E-1    0.3860E-3    -.1609   
   0.4300       0.8997E-3    -.9100E-1    0.3952E-3    -.1608   
   0.4400       0.9209E-3    -.9091E-1    0.4045E-3    -.1608   
   0.4500       0.9421E-3    -.9082E-1    0.4137E-3    -.1607   
   0.4600       0.9633E-3    -.9072E-1    0.4230E-3    -.1607   
   0.4700       0.9845E-3    -.9062E-1    0.4322E-3    -.1606   
   0.4800       0.1006E-2    -.9053E-1    0.4414E-3    -.1606   
   0.4900       0.1027E-2    -.9042E-1    0.4507E-3    -.1606   
   0.5000       0.1048E-2    -.9032E-1    0.4599E-3    -.1605   
   0.5100       0.1070E-2    -.9022E-1    0.4692E-3    -.1605   
   0.5200       0.1091E-2    -.9011E-1    0.4784E-3    -.1604   
   0.5300       0.1112E-2    -.9000E-1    0.4877E-3    -.1604   
   0.5400       0.1134E-2    -.8989E-1    0.4969E-3    -.1603   
   0.5500       0.1155E-2    -.8977E-1    0.5062E-3    -.1603   
   0.5600       0.1176E-2    -.8966E-1    0.5155E-3    -.1602   
   0.5700       0.1198E-2    -.8954E-1    0.5248E-3    -.1602   
   0.5800       0.1219E-2    -.8942E-1    0.5340E-3    -.1601   
   0.5900       0.1241E-2    -.8930E-1    0.5433E-3    -.1601   
   0.6000       0.1262E-2    -.8917E-1    0.5526E-3    -.1600   
   0.6100       0.1284E-2    -.8904E-1    0.5619E-3    -.1600   
   0.6200       0.1305E-2    -.8891E-1    0.5712E-3    -.1599   
   0.6300       0.1327E-2    -.8878E-1    0.5805E-3    -.1598   
   0.6400       0.1348E-2    -.8865E-1    0.5898E-3    -.1598   
   0.6500       0.1370E-2    -.8851E-1    0.5991E-3    -.1597   
   0.6600       0.1391E-2    -.8838E-1    0.6084E-3    -.1597   
   0.6700       0.1413E-2    -.8824E-1    0.6177E-3    -.1596   
   0.6800       0.1435E-2    -.8809E-1    0.6271E-3    -.1595   
   0.6900       0.1456E-2    -.8795E-1    0.6363E-3    -.1595   
   0.7000       0.1478E-2    -.8780E-1    0.6457E-3    -.1594   
   0.7100       0.1500E-2    -.8765E-1    0.6550E-3    -.1593   
   0.7200       0.1522E-2    -.8750E-1    0.6644E-3    -.1593   
   0.7300       0.1544E-2    -.8735E-1    0.6737E-3    -.1592   
   0.7400       0.1565E-2    -.8719E-1    0.6831E-3    -.1592   
   0.7500       0.1587E-2    -.8704E-1    0.6924E-3    -.1591   
   0.7600       0.1609E-2    -.8688E-1    0.7018E-3    -.1590   
   0.7700       0.1631E-2    -.8672E-1    0.7111E-3    -.1589   
   0.7800       0.1653E-2    -.8655E-1    0.7205E-3    -.1589   
   0.7900       0.1675E-2    -.8639E-1    0.7299E-3    -.1588   
   0.8000       0.1697E-2    -.8622E-1    0.7393E-3    -.1587   
   0.8100       0.1719E-2    -.8605E-1    0.7487E-3    -.1587   
   0.8200       0.1741E-2    -.8587E-1    0.7580E-3    -.1586   
   0.8300       0.1763E-2    -.8570E-1    0.7674E-3    -.1585   
   0.8400       0.1786E-2    -.8552E-1    0.7768E-3    -.1584   
   0.8500       0.1808E-2    -.8534E-1    0.7862E-3    -.1583   
   0.8600       0.1830E-2    -.8516E-1    0.7956E-3    -.1583   
   0.8700       0.1852E-2    -.8498E-1    0.8050E-3    -.1582   
   0.8800       0.1874E-2    -.8479E-1    0.8145E-3    -.1581   
   0.8900       0.1897E-2    -.8461E-1    0.8239E-3    -.1580   
   0.9000       0.1919E-2    -.8442E-1    0.8334E-3    -.1579   
   0.9100       0.1942E-2    -.8422E-1    0.8428E-3    -.1579   
   0.9200       0.1964E-2    -.8403E-1    0.8522E-3    -.1578   
   0.9300       0.1987E-2    -.8383E-1    0.8617E-3    -.1577   
   0.9400       0.2009E-2    -.8363E-1    0.8712E-3    -.1576   
   0.9500       0.2032E-2    -.8343E-1    0.8806E-3    -.1575   
   0.9600       0.2054E-2    -.8323E-1    0.8901E-3    -.1574   
   0.9700       0.2077E-2    -.8302E-1    0.8996E-3    -.1573   
   0.9800       0.2099E-2    -.8281E-1    0.9090E-3    -.1573   
   0.9900       0.2122E-2    -.8260E-1    0.9186E-3    -.1572   
    1.000       0.2145E-2    -.8239E-1    0.9280E-3    -.1571   
    1.010       0.2168E-2    -.8217E-1    0.9376E-3    -.1570   
    1.020       0.2191E-2    -.8196E-1    0.9470E-3    -.1569   
    1.030       0.2213E-2    -.8174E-1    0.9566E-3    -.1568   
    1.040       0.2236E-2    -.8151E-1    0.9660E-3    -.1567   
    1.050       0.2259E-2    -.8129E-1    0.9756E-3    -.1566   
    1.060       0.2282E-2    -.8106E-1    0.9851E-3    -.1565   
    1.070       0.2305E-2    -.8083E-1    0.9946E-3    -.1564   
    1.080       0.2328E-2    -.8060E-1    0.1004E-2    -.1563   
    1.090       0.2352E-2    -.8037E-1    0.1014E-2    -.1562   
    1.100       0.2375E-2    -.8013E-1    0.1023E-2    -.1561   
    1.110       0.2398E-2    -.7990E-1    0.1033E-2    -.1560   
    1.120       0.2421E-2    -.7965E-1    0.1042E-2    -.1559   
    1.130       0.2445E-2    -.7941E-1    0.1052E-2    -.1558   
    1.140       0.2468E-2    -.7917E-1    0.1062E-2    -.1557   
    1.150       0.2491E-2    -.7892E-1    0.1071E-2    -.1556   
    1.160       0.2515E-2    -.7867E-1    0.1081E-2    -.1555   
    1.170       0.2538E-2    -.7842E-1    0.1091E-2    -.1554   
    1.180       0.2562E-2    -.7816E-1    0.1100E-2    -.1553   
    1.190       0.2586E-2    -.7791E-1    0.1110E-2    -.1551   
    1.200       0.2609E-2    -.7765E-1    0.1119E-2    -.1550   
    1.210       0.2633E-2    -.7738E-1    0.1129E-2    -.1549   
    1.220       0.2657E-2    -.7712E-1    0.1139E-2    -.1548   
    1.230       0.2681E-2    -.7685E-1    0.1148E-2    -.1547   
    1.240       0.2704E-2    -.7659E-1    0.1158E-2    -.1546   
    1.250       0.2728E-2    -.7632E-1    0.1168E-2    -.1545   
    1.260       0.2752E-2    -.7604E-1    0.1177E-2    -.1543   
    1.270       0.2777E-2    -.7577E-1    0.1187E-2    -.1542   
    1.280       0.2801E-2    -.7549E-1    0.1197E-2    -.1541   
    1.290       0.2825E-2    -.7521E-1    0.1207E-2    -.1540   
    1.300       0.2849E-2    -.7493E-1    0.1216E-2    -.1539   
    1.310       0.2873E-2    -.7464E-1    0.1226E-2    -.1538   
    1.320       0.2898E-2    -.7435E-1    0.1236E-2    -.1536   
    1.330       0.2922E-2    -.7406E-1    0.1246E-2    -.1535   
    1.340       0.2947E-2    -.7377E-1    0.1255E-2    -.1534   
    1.350       0.2971E-2    -.7347E-1    0.1265E-2    -.1533   
    1.360       0.2996E-2    -.7318E-1    0.1275E-2    -.1531   
    1.370       0.3020E-2    -.7288E-1    0.1285E-2    -.1530   
    1.380       0.3045E-2    -.7257E-1    0.1295E-2    -.1529   
    1.390       0.3070E-2    -.7227E-1    0.1304E-2    -.1527   
    1.400       0.3095E-2    -.7196E-1    0.1314E-2    -.1526   
    1.410       0.3120E-2    -.7165E-1    0.1324E-2    -.1525   
    1.420       0.3145E-2    -.7134E-1    0.1334E-2    -.1523   
    1.430       0.3170E-2    -.7102E-1    0.1344E-2    -.1522   
    1.440       0.3195E-2    -.7070E-1    0.1354E-2    -.1521   
    1.450       0.3220E-2    -.7038E-1    0.1364E-2    -.1520   
    1.460       0.3245E-2    -.7006E-1    0.1373E-2    -.1518   
    1.470       0.3270E-2    -.6974E-1    0.1383E-2    -.1517   
    1.480       0.3296E-2    -.6941E-1    0.1393E-2    -.1515   
    1.490       0.3321E-2    -.6908E-1    0.1403E-2    -.1514   
    1.500       0.3347E-2    -.6875E-1    0.1413E-2    -.1513   
    1.510       0.3372E-2    -.6841E-1    0.1423E-2    -.1511   
    1.520       0.3398E-2    -.6807E-1    0.1433E-2    -.1510   
    1.530       0.3424E-2    -.6773E-1    0.1443E-2    -.1508   
    1.540       0.3450E-2    -.6739E-1    0.1453E-2    -.1507   
    1.550       0.3476E-2    -.6704E-1    0.1463E-2    -.1505   
    1.560       0.3502E-2    -.6670E-1    0.1473E-2    -.1504   
    1.570       0.3528E-2    -.6635E-1    0.1483E-2    -.1502   
    1.580       0.3554E-2    -.6599E-1    0.1493E-2    -.1501   
    1.590       0.3580E-2    -.6564E-1    0.1503E-2    -.1499   
    1.600       0.3606E-2    -.6528E-1    0.1513E-2    -.1498   
    1.610       0.3633E-2    -.6492E-1    0.1523E-2    -.1496   
    1.620       0.3659E-2    -.6455E-1    0.1533E-2    -.1495   
    1.630       0.3686E-2    -.6419E-1    0.1543E-2    -.1493   
    1.640       0.3712E-2    -.6382E-1    0.1553E-2    -.1492   
    1.650       0.3739E-2    -.6345E-1    0.1563E-2    -.1490   
    1.660       0.3766E-2    -.6307E-1    0.1573E-2    -.1489   
    1.670       0.3793E-2    -.6269E-1    0.1583E-2    -.1487   
    1.680       0.3820E-2    -.6231E-1    0.1593E-2    -.1486   
    1.690       0.3847E-2    -.6193E-1    0.1603E-2    -.1484   
    1.700       0.3874E-2    -.6155E-1    0.1614E-2    -.1482   
    1.710       0.3901E-2    -.6116E-1    0.1624E-2    -.1481   
    1.720       0.3928E-2    -.6077E-1    0.1634E-2    -.1479   
    1.730       0.3956E-2    -.6037E-1    0.1644E-2    -.1478   
    1.740       0.3983E-2    -.5998E-1    0.1655E-2    -.1476   
    1.750       0.4011E-2    -.5958E-1    0.1665E-2    -.1474   
    1.760       0.4039E-2    -.5918E-1    0.1675E-2    -.1473   
    1.770       0.4066E-2    -.5877E-1    0.1685E-2    -.1471   
    1.780       0.4094E-2    -.5837E-1    0.1696E-2    -.1469   
    1.790       0.4122E-2    -.5796E-1    0.1706E-2    -.1468   
    1.800       0.4150E-2    -.5754E-1    0.1716E-2    -.1466   
    1.810       0.4178E-2    -.5713E-1    0.1726E-2    -.1464   
    1.820       0.4207E-2    -.5671E-1    0.1737E-2    -.1463   
    1.830       0.4235E-2    -.5629E-1    0.1747E-2    -.1461   
    1.840       0.4264E-2    -.5586E-1    0.1757E-2    -.1459   
    1.850       0.4292E-2    -.5544E-1    0.1768E-2    -.1457   
    1.860       0.4321E-2    -.5501E-1    0.1778E-2    -.1456   
    1.870       0.4350E-2    -.5458E-1    0.1789E-2    -.1454   
    1.880       0.4379E-2    -.5414E-1    0.1799E-2    -.1452   
    1.890       0.4408E-2    -.5370E-1    0.1809E-2    -.1450   
    1.900       0.4437E-2    -.5326E-1    0.1820E-2    -.1448   
    1.910       0.4466E-2    -.5282E-1    0.1830E-2    -.1447   
    1.920       0.4495E-2    -.5237E-1    0.1840E-2    -.1445   
    1.930       0.4525E-2    -.5192E-1    0.1851E-2    -.1443   
    1.940       0.4554E-2    -.5147E-1    0.1861E-2    -.1441   
    1.950       0.4584E-2    -.5101E-1    0.1872E-2    -.1439   
    1.960       0.4613E-2    -.5055E-1    0.1882E-2    -.1437   
    1.970       0.4643E-2    -.5009E-1    0.1893E-2    -.1435   
    1.980       0.4673E-2    -.4962E-1    0.1903E-2    -.1434   
    1.990       0.4703E-2    -.4915E-1    0.1914E-2    -.1432   
    2.000       0.4734E-2    -.4868E-1    0.1925E-2    -.1430   
    2.010       0.4764E-2    -.4821E-1    0.1935E-2    -.1428   
    2.020       0.4795E-2    -.4773E-1    0.1946E-2    -.1426   
    2.030       0.4825E-2    -.4725E-1    0.1956E-2    -.1424   
    2.040       0.4856E-2    -.4677E-1    0.1967E-2    -.1422   
    2.050       0.4887E-2    -.4628E-1    0.1978E-2    -.1420   
    2.060       0.4918E-2    -.4579E-1    0.1988E-2    -.1418   
    2.070       0.4949E-2    -.4530E-1    0.1999E-2    -.1416   
    2.080       0.4980E-2    -.4481E-1    0.2010E-2    -.1414   
    2.090       0.5012E-2    -.4431E-1    0.2020E-2    -.1412   
    2.100       0.5043E-2    -.4381E-1    0.2031E-2    -.1410   
    2.110       0.5075E-2    -.4330E-1    0.2042E-2    -.1408   
    2.120       0.5107E-2    -.4279E-1    0.2053E-2    -.1406   
    2.130       0.5139E-2    -.4228E-1    0.2063E-2    -.1404   
    2.140       0.5171E-2    -.4177E-1    0.2074E-2    -.1402   
    2.150       0.5203E-2    -.4125E-1    0.2085E-2    -.1400   
    2.160       0.5236E-2    -.4073E-1    0.2096E-2    -.1398   
    2.170       0.5268E-2    -.4021E-1    0.2107E-2    -.1396   
    2.180       0.5301E-2    -.3968E-1    0.2117E-2    -.1394   
    2.190       0.5334E-2    -.3915E-1    0.2128E-2    -.1391   
    2.200       0.5367E-2    -.3861E-1    0.2139E-2    -.1389   
    2.210       0.5400E-2    -.3808E-1    0.2150E-2    -.1387   
    2.220       0.5433E-2    -.3754E-1    0.2161E-2    -.1385   
    2.230       0.5467E-2    -.3699E-1    0.2172E-2    -.1383   
    2.240       0.5500E-2    -.3644E-1    0.2183E-2    -.1381   
    2.250       0.5534E-2    -.3589E-1    0.2194E-2    -.1379   
    2.260       0.5568E-2    -.3534E-1    0.2205E-2    -.1376   
    2.270       0.5602E-2    -.3478E-1    0.2216E-2    -.1374   
    2.280       0.5636E-2    -.3422E-1    0.2227E-2    -.1372   
    2.290       0.5670E-2    -.3366E-1    0.2238E-2    -.1370   
    2.300       0.5705E-2    -.3309E-1    0.2249E-2    -.1368   
    2.310       0.5740E-2    -.3252E-1    0.2260E-2    -.1365   
    2.320       0.5775E-2    -.3194E-1    0.2271E-2    -.1363   
    2.330       0.5810E-2    -.3137E-1    0.2282E-2    -.1361   
    2.340       0.5845E-2    -.3078E-1    0.2294E-2    -.1359   
    2.350       0.5881E-2    -.3020E-1    0.2305E-2    -.1356   
    2.360       0.5916E-2    -.2961E-1    0.2316E-2    -.1354   
    2.370       0.5952E-2    -.2902E-1    0.2327E-2    -.1352   
    2.380       0.5988E-2    -.2842E-1    0.2338E-2    -.1349   
    2.390       0.6024E-2    -.2782E-1    0.2350E-2    -.1347   
    2.400       0.6061E-2    -.2722E-1    0.2361E-2    -.1345   
    2.410       0.6097E-2    -.2661E-1    0.2372E-2    -.1342   
    2.420       0.6134E-2    -.2600E-1    0.2383E-2    -.1340   
    2.430       0.6171E-2    -.2539E-1    0.2395E-2    -.1337   
    2.440       0.6208E-2    -.2477E-1    0.2406E-2    -.1335   
    2.450       0.6246E-2    -.2415E-1    0.2417E-2    -.1333   
    2.460       0.6283E-2    -.2353E-1    0.2429E-2    -.1330   
    2.470       0.6321E-2    -.2290E-1    0.2440E-2    -.1328   
    2.480       0.6359E-2    -.2226E-1    0.2452E-2    -.1325   
    2.490       0.6397E-2    -.2163E-1    0.2463E-2    -.1323   
    2.500       0.6436E-2    -.2099E-1    0.2475E-2    -.1321   
    2.510       0.6474E-2    -.2034E-1    0.2486E-2    -.1318   
    2.520       0.6513E-2    -.1969E-1    0.2498E-2    -.1316   
    2.530       0.6552E-2    -.1904E-1    0.2509E-2    -.1313   
    2.540       0.6591E-2    -.1839E-1    0.2520E-2    -.1311   
    2.550       0.6631E-2    -.1773E-1    0.2532E-2    -.1308   
    2.560       0.6671E-2    -.1706E-1    0.2544E-2    -.1305   
    2.570       0.6711E-2    -.1640E-1    0.2556E-2    -.1303   
    2.580       0.6751E-2    -.1572E-1    0.2567E-2    -.1300   
    2.590       0.6792E-2    -.1505E-1    0.2579E-2    -.1298   
    2.600       0.6833E-2    -.1437E-1    0.2590E-2    -.1295   
    2.610       0.6874E-2    -.1369E-1    0.2602E-2    -.1293   
    2.620       0.6916E-2    -.1300E-1    0.2614E-2    -.1290   
    2.630       0.6957E-2    -.1231E-1    0.2626E-2    -.1288   
    2.640       0.7000E-2    -.1161E-1    0.2637E-2    -.1285   
    2.650       0.7042E-2    -.1091E-1    0.2649E-2    -.1282   
      2.6600       0.0071      -0.0102       0.0027      -0.1280
      2.6700       0.0071      -0.0095       0.0027      -0.1277
      2.6800       0.0072      -0.0088       0.0027      -0.1274
      2.6900       0.0072      -0.0081       0.0027      -0.1272
      2.7000       0.0073      -0.0073       0.0027      -0.1269
      2.7100       0.0073      -0.0066       0.0027      -0.1266
      2.7200       0.0074      -0.0059       0.0027      -0.1264
      2.7300       0.0074      -0.0051       0.0027      -0.1261
      2.7400       0.0074      -0.0044       0.0028      -0.1258
      2.7500       0.0075      -0.0037       0.0028      -0.1255
      2.7600       0.0075      -0.0029       0.0028      -0.1253
    2.770       0.7573E-2    -.2163E-2    0.2793E-2    -.1250   
    2.780       0.7616E-2    -.1408E-2    0.2805E-2    -.1247   
    2.790       0.7661E-2    -.6494E-3    0.2817E-2    -.1244   
    2.800       0.7707E-2    0.1132E-3    0.2829E-2    -.1241   
    2.810       0.7755E-2    0.8807E-3    0.2841E-2    -.1239   
    2.820       0.7804E-2    0.1654E-2    0.2853E-2    -.1236   
    2.830       0.7854E-2    0.2433E-2    0.2866E-2    -.1233   
      2.8400       0.0079       0.0032       0.0029      -0.1230
      2.8500       0.0080       0.0040       0.0029      -0.1227
      2.8600       0.0080       0.0048       0.0029      -0.1224
      2.8700       0.0080       0.0056       0.0029      -0.1221
      2.8800       0.0081       0.0064       0.0029      -0.1218
      2.8900       0.0081       0.0072       0.0029      -0.1216
      2.9000       0.0082       0.0080       0.0030      -0.1213
      2.9100       0.0082       0.0089       0.0030      -0.1210
      2.9200       0.0083       0.0097       0.0030      -0.1207
      2.9300       0.0083       0.0105       0.0030      -0.1204
      2.9400       0.0084       0.0113       0.0030      -0.1201
      2.9500       0.0084       0.0122       0.0030      -0.1198
      2.9600       0.0085       0.0130       0.0030      -0.1195
      2.9700       0.0085       0.0139       0.0030      -0.1192
      2.9800       0.0086       0.0147       0.0031      -0.1189
      2.9900       0.0087       0.0156       0.0031      -0.1186
      3.0000       0.0087       0.0165       0.0031      -0.1183
      3.0100       0.0088       0.0173       0.0031      -0.1180
      3.0200       0.0088       0.0182       0.0031      -0.1176
      3.0300       0.0089       0.0191       0.0031      -0.1173
      3.0400       0.0089       0.0200       0.0031      -0.1170
      3.0500       0.0090       0.0209       0.0031      -0.1167
      3.0600       0.0090       0.0218       0.0032      -0.1164
      3.0700       0.0091       0.0227       0.0032      -0.1161
      3.0800       0.0092       0.0236       0.0032      -0.1158
      3.0900       0.0092       0.0245       0.0032      -0.1154
      3.1000       0.0093       0.0254       0.0032      -0.1151
      3.1100       0.0093       0.0264       0.0032      -0.1148
      3.1200       0.0094       0.0273       0.0032      -0.1145
      3.1300       0.0095       0.0282       0.0032      -0.1142
      3.1400       0.0095       0.0292       0.0033      -0.1138
      3.1500       0.0096       0.0301       0.0033      -0.1135
      3.1600       0.0096       0.0311       0.0033      -0.1132
      3.1700       0.0097       0.0320       0.0033      -0.1129
      3.1800       0.0098       0.0330       0.0033      -0.1125
      3.1900       0.0098       0.0340       0.0033      -0.1122
      3.2000       0.0099       0.0350       0.0033      -0.1119
      3.2100       0.0100       0.0360       0.0034      -0.1115
      3.2200       0.0100       0.0370       0.0034      -0.1112
      3.2300       0.0101       0.0380       0.0034      -0.1109
      3.2400       0.0102       0.0390       0.0034      -0.1105
      3.2500       0.0102       0.0400       0.0034      -0.1102
      3.2600       0.0103       0.0410       0.0034      -0.1098
      3.2700       0.0104       0.0420       0.0034      -0.1095
      3.2800       0.0104       0.0431       0.0034      -0.1092
      3.2900       0.0105       0.0441       0.0035      -0.1088
      3.3000       0.0106       0.0452       0.0035      -0.1085
      3.3100       0.0107       0.0462       0.0035      -0.1081
      3.3200       0.0107       0.0473       0.0035      -0.1078
      3.3300       0.0108       0.0484       0.0035      -0.1074
      3.3400       0.0109       0.0494       0.0035      -0.1071
      3.3500       0.0110       0.0505       0.0035      -0.1067
      3.3600       0.0110       0.0516       0.0036      -0.1064
      3.3700       0.0111       0.0527       0.0036      -0.1060
      3.3800       0.0112       0.0538       0.0036      -0.1057
      3.3900       0.0113       0.0550       0.0036      -0.1053
      3.4000       0.0113       0.0561       0.0036      -0.1049
      3.4100       0.0114       0.0572       0.0036      -0.1046
      3.4200       0.0115       0.0584       0.0036      -0.1042
      3.4300       0.0116       0.0595       0.0037      -0.1039
      3.4400       0.0117       0.0607       0.0037      -0.1035
      3.4500       0.0118       0.0618       0.0037      -0.1031
      3.4600       0.0119       0.0630       0.0037      -0.1028
      3.4700       0.0119       0.0642       0.0037      -0.1024
      3.4800       0.0120       0.0654       0.0037      -0.1020
      3.4900       0.0121       0.0666       0.0037      -0.1016
      3.5000       0.0122       0.0678       0.0038      -0.1013
      3.5100       0.0123       0.0690       0.0038      -0.1009
      3.5200       0.0124       0.0703       0.0038      -0.1005
      3.5300       0.0125       0.0715       0.0038      -0.1001
      3.5400       0.0126       0.0727       0.0038      -0.0998
      3.5500       0.0127       0.0740       0.0038      -0.0994
      3.5600       0.0128       0.0753       0.0038      -0.0990
      3.5700       0.0129       0.0765       0.0039      -0.0986
      3.5800       0.0130       0.0778       0.0039      -0.0982
      3.5900       0.0131       0.0791       0.0039      -0.0978
      3.6000       0.0132       0.0804       0.0039      -0.0974
      3.6100       0.0133       0.0818       0.0039      -0.0971
      3.6200       0.0134       0.0831       0.0039      -0.0967
      3.6300       0.0135       0.0844       0.0039      -0.0963
      3.6400       0.0136       0.0858       0.0040      -0.0959
      3.6500       0.0138       0.0871       0.0040      -0.0955
      3.6600       0.0139       0.0885       0.0040      -0.0951
      3.6700       0.0140       0.0899       0.0040      -0.0947
      3.6800       0.0141       0.0913       0.0040      -0.0943
      3.6900       0.0142       0.0927       0.0040      -0.0939
      3.7000       0.0144       0.0941       0.0041      -0.0935
      3.7100       0.0145       0.0955       0.0041      -0.0931
      3.7200       0.0146       0.0970       0.0041      -0.0927
      3.7300       0.0147       0.0984       0.0041      -0.0923
      3.7400       0.0149       0.0999       0.0041      -0.0919
      3.7500       0.0150       0.1014       0.0041      -0.0914
      3.7600       0.0151       0.1029       0.0042      -0.0910
      3.7700       0.0153       0.1044       0.0042      -0.0906
      3.7800       0.0154       0.1059       0.0042      -0.0902
      3.7900       0.0156       0.1075       0.0042      -0.0898
      3.8000       0.0157       0.1090       0.0042      -0.0894
      3.8100       0.0159       0.1106       0.0042      -0.0889
      3.8200       0.0160       0.1122       0.0042      -0.0885
      3.8300       0.0162       0.1138       0.0043      -0.0881
      3.8400       0.0163       0.1154       0.0043      -0.0877
      3.8500       0.0165       0.1170       0.0043      -0.0872
      3.8600       0.0167       0.1186       0.0043      -0.0868
      3.8700       0.0168       0.1203       0.0043      -0.0864
      3.8800       0.0170       0.1220       0.0043      -0.0859
      3.8900       0.0172       0.1237       0.0044      -0.0855
      3.9000       0.0174       0.1254       0.0044      -0.0851
      3.9100       0.0176       0.1271       0.0044      -0.0846
      3.9200       0.0178       0.1289       0.0044      -0.0842
      3.9300       0.0180       0.1306       0.0044      -0.0838
      3.9400       0.0182       0.1324       0.0044      -0.0833
      3.9500       0.0184       0.1342       0.0045      -0.0829
      3.9600       0.0186       0.1361       0.0045      -0.0824
      3.9700       0.0188       0.1379       0.0045      -0.0820
      3.9800       0.0190       0.1398       0.0045      -0.0815
      3.9900       0.0192       0.1417       0.0045      -0.0811
      4.0000       0.0195       0.1436       0.0045      -0.0806
      4.0100       0.0197       0.1455       0.0046      -0.0802
      4.0200       0.0200       0.1475       0.0046      -0.0797
      4.0300       0.0202       0.1494       0.0046      -0.0793
      4.0400       0.0205       0.1514       0.0046      -0.0788
      4.0500       0.0207       0.1535       0.0046      -0.0783
      4.0600       0.0210       0.1555       0.0047      -0.0779
      4.0700       0.0213       0.1576       0.0047      -0.0774
      4.0800       0.0216       0.1597       0.0047      -0.0769
      4.0900       0.0219       0.1619       0.0047      -0.0765
      4.1000       0.0222       0.1640       0.0047      -0.0760
      4.1100       0.0225       0.1662       0.0047      -0.0755
      4.1200       0.0229       0.1685       0.0048      -0.0751
      4.1300       0.0232       0.1707       0.0048      -0.0746
      4.1400       0.0236       0.1730       0.0048      -0.0741
      4.1500       0.0239       0.1754       0.0048      -0.0736
      4.1600       0.0243       0.1777       0.0048      -0.0731
      4.1700       0.0247       0.1801       0.0049      -0.0727
      4.1800       0.0251       0.1825       0.0049      -0.0722
      4.1900       0.0255       0.1850       0.0049      -0.0717
      4.2000       0.0259       0.1875       0.0049      -0.0712
      4.2100       0.0264       0.1901       0.0049      -0.0707
      4.2200       0.0269       0.1927       0.0049      -0.0702
      4.2300       0.0273       0.1953       0.0050      -0.0697
      4.2400       0.0278       0.1980       0.0050      -0.0692
      4.2500       0.0284       0.2007       0.0050      -0.0687
      4.2600       0.0289       0.2035       0.0050      -0.0682
      4.2700       0.0295       0.2063       0.0050      -0.0677
      4.2800       0.0301       0.2092       0.0051      -0.0672
      4.2900       0.0307       0.2121       0.0051      -0.0667
      4.3000       0.0313       0.2151       0.0051      -0.0662
      4.3100       0.0320       0.2182       0.0051      -0.0657
      4.3200       0.0327       0.2213       0.0051      -0.0652
      4.3300       0.0334       0.2245       0.0052      -0.0647
      4.3400       0.0342       0.2277       0.0052      -0.0641
      4.3500       0.0350       0.2310       0.0052      -0.0636
      4.3600       0.0359       0.2344       0.0052      -0.0631
      4.3700       0.0368       0.2379       0.0052      -0.0626
      4.3800       0.0377       0.2414       0.0053      -0.0621
      4.3900       0.0387       0.2450       0.0053      -0.0615
      4.4000       0.0398       0.2488       0.0053      -0.0610
      4.4100       0.0409       0.2526       0.0053      -0.0605
      4.4200       0.0421       0.2565       0.0054      -0.0599
      4.4300       0.0433       0.2605       0.0054      -0.0594
      4.4400       0.0446       0.2646       0.0054      -0.0589
      4.4500       0.0460       0.2688       0.0054      -0.0583
      4.4600       0.0475       0.2731       0.0054      -0.0578
      4.4700       0.0491       0.2776       0.0055      -0.0572
      4.4800       0.0508       0.2822       0.0055      -0.0567
      4.4900       0.0525       0.2869       0.0055      -0.0561
      4.5000       0.0545       0.2918       0.0055      -0.0556
      4.5100       0.0565       0.2968       0.0056      -0.0550
      4.5200       0.0587       0.3020       0.0056      -0.0545
      4.5300       0.0611       0.3073       0.0056      -0.0539
      4.5400       0.0636       0.3128       0.0056      -0.0534
      4.5500       0.0664       0.3185       0.0057      -0.0528
      4.5600       0.0693       0.3244       0.0057      -0.0522
      4.5700       0.0725       0.3305       0.0057      -0.0517
      4.5800       0.0760       0.3368       0.0057      -0.0511
      4.5900       0.0797       0.3434       0.0057      -0.0505
      4.6000       0.0839       0.3502       0.0058      -0.0500
      4.6100       0.0883       0.3572       0.0058      -0.0494
      4.6200       0.0932       0.3645       0.0058      -0.0488
      4.6300       0.0986       0.3720       0.0059      -0.0482
      4.6400       0.1045       0.3798       0.0059      -0.0476
      4.6500       0.1110       0.3879       0.0059      -0.0471
      4.6600       0.1182       0.3963       0.0059      -0.0465
      4.6700       0.1261       0.4049       0.0060      -0.0459
      4.6800       0.1350       0.4138       0.0060      -0.0453
      4.6900       0.1448       0.4229       0.0060      -0.0447
      4.7000       0.1557       0.4322       0.0060      -0.0441
      4.7100       0.1679       0.4416       0.0061      -0.0435
      4.7200       0.1817       0.4511       0.0061      -0.0429
      4.7300       0.1970       0.4605       0.0061      -0.0423
      4.7400       0.2144       0.4697       0.0062      -0.0416
      4.7500       0.2338       0.4785       0.0062      -0.0410
      4.7600       0.2556       0.4864       0.0062      -0.0404
      4.7700       0.2801       0.4931       0.0062      -0.0398
      4.7800       0.3075       0.4980       0.0063      -0.0392
      4.7900       0.3380       0.5005       0.0063      -0.0385
      4.8000       0.3715       0.4996       0.0063      -0.0379
      4.8100       0.4078       0.4943       0.0064      -0.0373
      4.8200       0.4465       0.4834       0.0064      -0.0366
      4.8300       0.4866       0.4655       0.0064      -0.0360
      4.8400       0.5265       0.4397       0.0065      -0.0354
      4.8500       0.5643       0.4051       0.0065      -0.0347
      4.8600       0.5970       0.3616       0.0065      -0.0341
      4.8700       0.6222       0.3103       0.0066      -0.0334
      4.8800       0.6370       0.2534       0.0066      -0.0328
      4.8900       0.6401       0.1938       0.0066      -0.0321
      4.9000       0.6309       0.1353       0.0067      -0.0314
      4.9100       0.6107       0.0811       0.0067      -0.0308
      4.9200       0.5815       0.0340       0.0068      -0.0301
    4.930       0.5461       -.4622E-2    0.6800E-2    -.2943E-1
      4.9400       0.5073      -0.0343       0.0068      -0.0288
      4.9500       0.4675      -0.0554       0.0069      -0.0281
      4.9600       0.4284      -0.0691       0.0069      -0.0274
      4.9700       0.3913      -0.0765       0.0070      -0.0267
      4.9800       0.3569      -0.0789       0.0070      -0.0260
      4.9900       0.3255      -0.0775       0.0071      -0.0253
      5.0000       0.2973      -0.0731       0.0071      -0.0246
      5.0100       0.2720      -0.0667       0.0072      -0.0239
      5.0200       0.2495      -0.0587       0.0072      -0.0232
      5.0300       0.2295      -0.0497       0.0073      -0.0225
      5.0400       0.2118      -0.0401       0.0073      -0.0217
      5.0500       0.1961      -0.0302       0.0074      -0.0210
      5.0600       0.1822      -0.0200       0.0074      -0.0203
      5.0700       0.1699      -0.0098       0.0075      -0.0195
    5.080       0.1590       0.3266E-3    0.7574E-2    -.1880E-1
      5.0900       0.1494       0.0103       0.0076      -0.0181
      5.1000       0.1409       0.0201       0.0077      -0.0173
      5.1100       0.1333       0.0297       0.0078      -0.0165
      5.1200       0.1267       0.0390       0.0079      -0.0158
      5.1300       0.1209       0.0482       0.0080      -0.0150
      5.1400       0.1158       0.0571       0.0080      -0.0142
      5.1500       0.1113       0.0658       0.0081      -0.0134
      5.1600       0.1074       0.0743       0.0082      -0.0127
      5.1700       0.1041       0.0826       0.0084      -0.0119
      5.1800       0.1013       0.0906       0.0085      -0.0111
      5.1900       0.0990       0.0983       0.0086      -0.0102
      5.2000       0.0971       0.1058       0.0087      -0.0094
      5.2100       0.0958       0.1129       0.0089      -0.0086
      5.2200       0.0949       0.1198       0.0090      -0.0078
      5.2300       0.0944       0.1263       0.0092      -0.0070
      5.2400       0.0943       0.1324       0.0094      -0.0061
      5.2500       0.0946       0.1380       0.0096      -0.0053
    5.260       0.9526E-1    0.1431       0.9826E-2    -.4466E-2
    5.270       0.9613E-1    0.1476       0.1007E-1    -.3648E-2
    5.280       0.9710E-1    0.1513       0.1033E-1    -.2843E-2
    5.290       0.9801E-1    0.1544       0.1061E-1    -.2055E-2
    5.300       0.9867E-1    0.1567       0.1090E-1    -.1289E-2
    5.310       0.9888E-1    0.1585       0.1121E-1    -.5521E-3
    5.320       0.9849E-1    0.1598       0.1152E-1    0.1518E-3
    5.330       0.9738E-1    0.1608       0.1183E-1    0.8189E-3
    5.340       0.9557E-1    0.1619       0.1211E-1    0.1450E-2
    5.350       0.9312E-1    0.1633       0.1235E-1    0.2050E-2
    5.360       0.9017E-1    0.1651       0.1255E-1    0.2632E-2
    5.370       0.8692E-1    0.1674       0.1269E-1    0.3212E-2
    5.380       0.8351E-1    0.1702       0.1277E-1    0.3809E-2
    5.390       0.8010E-1    0.1734       0.1281E-1    0.4442E-2
    5.400       0.7680E-1    0.1771       0.1281E-1    0.5123E-2
      5.4100       0.0737       0.1811       0.0128       0.0059
      5.4200       0.0708       0.1855       0.0128       0.0067
      5.4300       0.0681       0.1900       0.0128       0.0075
      5.4400       0.0656       0.1946       0.0128       0.0084
      5.4500       0.0634       0.1994       0.0128       0.0094
     5.46000      0.06144      0.20421      0.01285      0.01038
     5.47000      0.05966      0.20907      0.01295      0.01142
     5.48000      0.05806      0.21394      0.01310      0.01248
     5.49000      0.05662      0.21880      0.01328      0.01357
     5.50000      0.05533      0.22366      0.01350      0.01469
     5.51000      0.05416      0.22848      0.01378      0.01582
     5.52000      0.05312      0.23329      0.01410      0.01698
     5.53000      0.05218      0.23807      0.01448      0.01815
     5.54000      0.05133      0.24282      0.01491      0.01934
     5.55000      0.05058      0.24755      0.01541      0.02054
     5.56000      0.04990      0.25225      0.01598      0.02175
     5.57000      0.04928      0.25692      0.01663      0.02297
     5.58000      0.04874      0.26156      0.01737      0.02419
     5.59000      0.04824      0.26618      0.01820      0.02540
     5.60000      0.04781      0.27079      0.01915      0.02659
     5.61000      0.04741      0.27534      0.02022      0.02775
     5.62000      0.04707      0.27990      0.02142      0.02886
     5.63000      0.04676      0.28443      0.02277      0.02989
     5.64000      0.04649      0.28893      0.02428      0.03080
     5.65000      0.04626      0.29343      0.02595      0.03157
     5.66000      0.04605      0.29791      0.02777      0.03212
     5.67000      0.04588      0.30238      0.02973      0.03241
     5.68000      0.04572      0.30683      0.03179      0.03238
     5.69000      0.04560      0.31128      0.03386      0.03195
     5.70000      0.04551      0.31574      0.03587      0.03108
     5.71000      0.04543      0.32017      0.03767      0.02976
     5.72000      0.04538      0.32460      0.03912      0.02801
     5.73000      0.04535      0.32904      0.04010      0.02593
     5.74000      0.04533      0.33348      0.04049      0.02366
     5.75000      0.04534      0.33792      0.04025      0.02138
     5.76000      0.04536      0.34236      0.03942      0.01928
     5.77000      0.04540      0.34681      0.03809      0.01749
     5.78000      0.04546      0.35126      0.03639      0.01613
     5.79000      0.04553      0.35572      0.03448      0.01522
     5.80000      0.04562      0.36020      0.03247      0.01476
     5.81000      0.04572      0.36466      0.03048      0.01471
     5.82000      0.04583      0.36915      0.02858      0.01500
     5.83000      0.04596      0.37365      0.02681      0.01557
     5.84000      0.04611      0.37818      0.02519      0.01636
     5.85000      0.04626      0.38272      0.02373      0.01732
     5.86000      0.04643      0.38727      0.02243      0.01841
     5.87000      0.04661      0.39183      0.02128      0.01959
     5.88000      0.04682      0.39646      0.02026      0.02084
     5.89000      0.04702      0.40106      0.01936      0.02213
     5.90000      0.04724      0.40568      0.01857      0.02344
     5.91000      0.04748      0.41036      0.01788      0.02477
     5.92000      0.04772      0.41505      0.01728      0.02611
     5.93000      0.04798      0.41975      0.01677      0.02745
     5.94000      0.04824      0.42448      0.01632      0.02879
     5.95000      0.04851      0.42921      0.01594      0.03012
     5.96000      0.04881      0.43402      0.01561      0.03145
     5.97000      0.04910      0.43880      0.01534      0.03276
     5.98000      0.04943      0.44369      0.01513      0.03407
     5.99000      0.04974      0.44854      0.01496      0.03537
     6.00000      0.05008      0.45345      0.01483      0.03666
     6.01000      0.05044      0.45842      0.01475      0.03793
     6.02000      0.05079      0.46337      0.01471      0.03919
     6.03000      0.05117      0.46840      0.01471      0.04043
     6.04000      0.05155      0.47346      0.01475      0.04165
     6.05000      0.05194      0.47854      0.01484      0.04284
     6.06000      0.05235      0.48366      0.01496      0.04400
     6.07000      0.05276      0.48880      0.01512      0.04512
     6.08000      0.05319      0.49398      0.01531      0.04620
     6.09000      0.05363      0.49919      0.01553      0.04721
     6.10000      0.05408      0.50446      0.01577      0.04816
     6.11000      0.05455      0.50980      0.01599      0.04904
     6.12000      0.05503      0.51516      0.01620      0.04984
     6.13000      0.05552      0.52057      0.01636      0.05057
     6.14000      0.05602      0.52604      0.01645      0.05125
     6.15000      0.05654      0.53153      0.01645      0.05190
     6.16000      0.05708      0.53712      0.01637      0.05254
     6.17000      0.05762      0.54270      0.01620      0.05321
     6.18000      0.05818      0.54838      0.01595      0.05393
     6.19000      0.05876      0.55408      0.01566      0.05471
     6.20000      0.05936      0.55990      0.01533      0.05556
     6.21000      0.05996      0.56570      0.01500      0.05648
     6.22000      0.06058      0.57158      0.01467      0.05746
     6.23000      0.06121      0.57751      0.01436      0.05849
     6.24000      0.06188      0.58356      0.01407      0.05956
     6.25000      0.06254      0.58959      0.01381      0.06067
     6.26000      0.06323      0.59572      0.01357      0.06180
     6.27000      0.06393      0.60192      0.01336      0.06295
     6.28000      0.06465      0.60817      0.01318      0.06411
     6.29000      0.06540      0.61451      0.01302      0.06529
     6.30000      0.06616      0.62089      0.01288      0.06647
     6.31000      0.06693      0.62735      0.01275      0.06766
     6.32000      0.06775      0.63394      0.01265      0.06885
     6.33000      0.06856      0.64054      0.01256      0.07004
     6.34000      0.06940      0.64721      0.01248      0.07123
     6.35000      0.07027      0.65401      0.01242      0.07242
     6.36000      0.07115      0.66081      0.01236      0.07362
     6.37000      0.07206      0.66776      0.01232      0.07481
     6.38000      0.07299      0.67476      0.01228      0.07601
     6.39000      0.07395      0.68189      0.01225      0.07721
     6.40000      0.07492      0.68907      0.01223      0.07840
     6.41000      0.07593      0.69638      0.01221      0.07960
     6.42000      0.07697      0.70384      0.01220      0.08080
     6.43000      0.07802      0.71131      0.01219      0.08200
     6.44000      0.07912      0.71897      0.01219      0.08320
     6.45000      0.08023      0.72664      0.01219      0.08440
     6.46000      0.08140      0.73456      0.01220      0.08560
     6.47000      0.08259      0.74253      0.01221      0.08681
     6.48000      0.08378      0.75050      0.01222      0.08802
     6.49000      0.08503      0.75869      0.01223      0.08922
     6.50000      0.08631      0.76693      0.01225      0.09044
     6.51000      0.08765      0.77541      0.01227      0.09165
     6.52000      0.08901      0.78395      0.01229      0.09287
     6.53000      0.09041      0.79260      0.01232      0.09408
     6.54000      0.09185      0.80138      0.01234      0.09531
     6.55000      0.09334      0.81034      0.01237      0.09653
     6.56000      0.09487      0.81942      0.01240      0.09776
     6.57000      0.09642      0.82853      0.01244      0.09900
     6.58000      0.09803      0.83781      0.01247      0.10023
     6.59000      0.09967      0.84718      0.01251      0.10147
     6.60000      0.10140      0.85689      0.01254      0.10271
     6.61000      0.10313      0.86651      0.01258      0.10396
     6.62000      0.10497      0.87650      0.01262      0.10521
     6.63000      0.10682      0.88652      0.01266      0.10647
     6.64000      0.10879      0.89691      0.01270      0.10772
     6.65000      0.11075      0.90720      0.01275      0.10899
     6.66000      0.11286      0.91799      0.01279      0.11026
     6.67000      0.11499      0.92883      0.01284      0.11154
     6.68000      0.11727      0.94012      0.01289      0.11281
     6.69000      0.11953      0.95129      0.01294      0.11410
     6.70000      0.12192      0.96282      0.01299      0.11538
     6.71000      0.12440      0.97465      0.01304      0.11668
     6.72000      0.12691      0.98643      0.01309      0.11797
     6.73000      0.12956      0.99869      0.01315      0.11928
     6.74000      0.13229      1.01111      0.01320      0.12059
     6.75000      0.13511      1.02372      0.01326      0.12191
     6.76000      0.13801      1.03653      0.01331      0.12322
     6.77000      0.14104      1.04967      0.01337      0.12455
     6.78000      0.14422      1.06325      0.01343      0.12588
     6.79000      0.14749      1.07697      0.01349      0.12722
     6.80000      0.15090      1.09102      0.01355      0.12856
     6.81000      0.15439      1.10521      0.01362      0.12992
     6.82000      0.15811      1.12003      0.01368      0.13126
     6.83000      0.16193      1.13501      0.01375      0.13263
     6.84000      0.16591      1.15035      0.01381      0.13399
     6.85000      0.17007      1.16607      0.01388      0.13538
     6.86000      0.17441      1.18221      0.01394      0.13675
     6.87000      0.17903      1.19902      0.01401      0.13815
     6.88000      0.18364      1.21558      0.01408      0.13953
     6.89000      0.18862      1.23307      0.01416      0.14094
     6.90000      0.19378      1.25087      0.01423      0.14234
     6.91000      0.19925      1.26935      0.01430      0.14377
     6.92000      0.20478      1.28773      0.01437      0.14518
     6.93000      0.21068      1.30693      0.01445      0.14662
     6.94000      0.21684      1.32658      0.01453      0.14805
     6.95000      0.22338      1.34699      0.01461      0.14951
     6.96000      0.23016      1.36777      0.01468      0.15095
     6.97000      0.23719      1.38883      0.01477      0.15243
     6.98000      0.24467      1.41079      0.01484      0.15388
     6.99000      0.25255      1.43341      0.01493      0.15537
     7.00000      0.26075      1.45645      0.01501      0.15684
     7.01000      0.26945      1.48036      0.01510      0.15835
     7.02000      0.27855      1.50479      0.01518      0.15983
     7.03000      0.28835      1.53051      0.01527      0.16135
     7.04000      0.29862      1.55679      0.01536      0.16286
     7.05000      0.30947      1.58393      0.01545      0.16440
     7.06000      0.32103      1.61211      0.01555      0.16593
     7.07000      0.33335      1.64139      0.01564      0.16749
     7.08000      0.34627      1.67132      0.01574      0.16904
     7.09000      0.36021      1.70276      0.01583      0.17061
     7.10000      0.37500      1.73521      0.01593      0.17218
     7.11000      0.39060      1.76851      0.01603      0.17377
     7.12000      0.40725      1.80303      0.01613      0.17536
     7.13000      0.42554      1.83988      0.01623      0.17696
     7.14000      0.44462      1.87714      0.01634      0.17858
     7.15000      0.46497      1.91567      0.01645      0.18020
     7.16000      0.48651      1.95517      0.01656      0.18184
     7.17000      0.51021      1.99725      0.01666      0.18347
     7.18000      0.53573      2.04106      0.01678      0.18514
     7.19000      0.56343      2.08696      0.01689      0.18680
     7.20000      0.59276      2.13378      0.01700      0.18848
     7.21000      0.62475      2.18298      0.01712      0.19017
     7.22000      0.65938      2.23419      0.01724      0.19186
     7.23000      0.69695      2.28752      0.01736      0.19358
     7.24000      0.73721      2.34224      0.01748      0.19528
     7.25000      0.78235      2.40106      0.01761      0.19704
     7.26000      0.83025      2.46048      0.01773      0.19876
     7.27000      0.88322      2.52309      0.01787      0.20054
     7.28000      0.94051      2.58735      0.01800      0.20229
     7.29000      1.00464      2.65556      0.01813      0.20409
     7.30000      1.07448      2.72553      0.01827      0.20587
     7.31000      1.15125      2.79776      0.01841      0.20770
     7.32000      1.23677      2.87306      0.01855      0.20950
     7.33000      1.33084      2.95000      0.01869      0.21136
     7.34000      1.43683      3.03014      0.01884      0.21320
     7.35000      1.55337      3.11068      0.01899      0.21507
     7.36000      1.68402      3.19254      0.01914      0.21695
     7.37000      1.83344      3.27640      0.01930      0.21883
     7.38000      1.99922      3.35777      0.01946      0.22075
     7.39000      2.18723      3.43674      0.01962      0.22266
     7.40000      2.39411      3.50794      0.01978      0.22462
     7.41000      2.62791      3.57051      0.01995      0.22655
     7.42000      2.89028      3.61927      0.02012      0.22854
     7.43000      3.18347      3.64808      0.02029      0.23051
     7.44000      3.50246      3.64881      0.02047      0.23253
     7.45000      3.85518      3.61329      0.02066      0.23455
     7.46000      4.23340      3.53070      0.02084      0.23659
     7.47000      4.63263      3.38951      0.02103      0.23865
     7.48000      5.04197      3.17826      0.02123      0.24072
     7.49000      5.45498      2.88097      0.02143      0.24283
     7.50000      5.83336      2.50132      0.02163      0.24493
     7.51000      6.16101      2.03568      0.02184      0.24710
     7.52000      6.41547      1.48599      0.02205      0.24922
     7.53000      6.56554      0.88209      0.02227      0.25143
     7.54000      6.59730      0.25020      0.02249      0.25359
     7.55000      6.50781     -0.36187      0.02272      0.25584
     7.56000      6.30826     -0.93710      0.02295      0.25805
     7.57000      6.01514     -1.45159      0.02319      0.26034
     7.58000      5.65996     -1.87616      0.02343      0.26260
     7.59000      5.26021     -2.21959      0.02368      0.26493
     7.60000      4.84863     -2.47328      0.02394      0.26726
     7.61000      4.43638     -2.65244      0.02420      0.26963
     7.62000      4.04792     -2.76224      0.02448      0.27202
     7.63000      3.67789     -2.82126      0.02475      0.27443
     7.64000      3.34101     -2.83694      0.02504      0.27690
     7.65000      3.03344     -2.82080      0.02533      0.27934
     7.66000      2.75815     -2.78084      0.02563      0.28187
     7.67000      2.51231     -2.72407      0.02594      0.28437
     7.68000      2.29114     -2.65552      0.02626      0.28695
     7.69000      2.09512     -2.57945      0.02658      0.28951
     7.70000      1.91958     -2.49855      0.02692      0.29215
     7.71000      1.76323     -2.41523      0.02726      0.29478
     7.72000      1.62537     -2.33174      0.02762      0.29748
     7.73000      1.49933     -2.24755      0.02798      0.30018
     7.74000      1.38884     -2.16562      0.02836      0.30294
     7.75000      1.28864     -2.08500      0.02874      0.30572
     7.76000      1.19947     -2.00708      0.02914      0.30854
     7.77000      1.11763     -1.93075      0.02955      0.31139
     7.78000      1.04406     -1.85719      0.02997      0.31427
     7.79000      0.97809     -1.78667      0.03041      0.31721
     7.80000      0.91791     -1.71856      0.03085      0.32014
     7.81000      0.86257     -1.65263      0.03132      0.32317
     7.82000      0.81208     -1.58919      0.03179      0.32619
     7.83000      0.76665     -1.52873      0.03229      0.32932
     7.84000      0.72475     -1.47039      0.03280      0.33244
     7.85000      0.68618     -1.41420      0.03334      0.33566
     7.86000      0.65085     -1.36026      0.03388      0.33888
     7.87000      0.61819     -1.30827      0.03445      0.34219
     7.88000      0.58784     -1.25805      0.03504      0.34553
     7.89000      0.56013     -1.21000      0.03565      0.34894
     7.90000      0.53437     -1.16360      0.03629      0.35242
     7.91000      0.51061     -1.11897      0.03694      0.35589
     7.92000      0.48843     -1.07582      0.03764      0.35953
     7.93000      0.46779     -1.03416      0.03834      0.36311
     7.94000      0.44890     -0.99421      0.03909      0.36689
     7.95000      0.43104     -0.95535      0.03985      0.37060
     7.96000      0.41450     -0.91789      0.04066      0.37451
     7.97000      0.39898     -0.88157      0.04149      0.37837
     7.98000      0.38461     -0.84652      0.04237      0.38243
     7.99000      0.37093     -0.81234      0.04327      0.38647
     8.00000      0.35829     -0.77934      0.04423      0.39066
     8.01000      0.34638     -0.74726      0.04522      0.39490
     8.02000      0.33526     -0.71614      0.04626      0.39925
     8.03000      0.32472     -0.68582      0.04735      0.40368
     8.04000      0.31481     -0.65632      0.04849      0.40821
     8.05000      0.30553     -0.62764      0.04968      0.41284
     8.06000      0.29674     -0.59966      0.05094      0.41758
     8.07000      0.28853     -0.57243      0.05225      0.42243
     8.08000      0.28075     -0.54583      0.05364      0.42740
     8.09000      0.27336     -0.51984      0.05509      0.43248
     8.10000      0.26642     -0.49447      0.05663      0.43770
     8.11000      0.25989     -0.46969      0.05824      0.44303
     8.12000      0.25370     -0.44542      0.05996      0.44853
     8.13000      0.24787     -0.42168      0.06176      0.45415
     8.14000      0.24240     -0.39844      0.06367      0.45994
     8.15000      0.23719     -0.37565      0.06569      0.46587
     8.16000      0.23226     -0.35328      0.06783      0.47198
     8.17000      0.22761     -0.33133      0.07011      0.47828
     8.18000      0.22327     -0.30980      0.07253      0.48475
     8.19000      0.21910     -0.28861      0.07511      0.49142
     8.20000      0.21517     -0.26777      0.07786      0.49831
     8.21000      0.21146     -0.24728      0.08079      0.50540
     8.22000      0.20794     -0.22709      0.08393      0.51273
     8.23000      0.20463     -0.20722      0.08730      0.52030
     8.24000      0.20153     -0.18762      0.09091      0.52813
     8.25000      0.19861     -0.16829      0.09478      0.53620
     8.26000      0.19586     -0.14922      0.09897      0.54458
    8.270000     0.193282    -0.130385     0.103456     0.553196
    8.280001     0.190857    -0.111775     0.108331     0.562171
     8.29000      0.18859     -0.09338      0.11357      0.57136
     8.30000      0.18646     -0.07519      0.11928      0.58097
     8.31000      0.18447     -0.05722      0.12546      0.59082
     8.32000      0.18262     -0.03945      0.13220      0.60107
     8.33000      0.18092     -0.02187      0.13953      0.61162
    8.340       0.1794       -.4472E-2    0.1476       0.6226   
     8.35000      0.17802      0.01277      0.15633      0.63381
     8.36000      0.17683      0.02990      0.16594      0.64544
     8.37000      0.17580      0.04694      0.17643      0.65730
     8.38000      0.17492      0.06389      0.18799      0.66954
     8.39000      0.17416      0.08078      0.20053      0.68188
     8.40000      0.17354      0.09758      0.21437      0.69462
    8.410001     0.173049     0.114327     0.229274     0.707257
    8.420000     0.172708     0.130993     0.245713     0.720309
    8.430000     0.172519     0.147598     0.263343     0.733175
    8.440000     0.172493     0.164146     0.282807     0.746498
    8.450001     0.172672     0.180649     0.303787     0.759684
    8.460000     0.173023     0.197115     0.327053     0.773270
    8.470000     0.173586     0.213557     0.352535     0.786745
    8.480000     0.174376     0.229979     0.381109     0.800342
    8.490001     0.175415     0.246398     0.412933     0.813447
    8.500000     0.176735     0.262819     0.448797     0.825785
    8.510000     0.178323     0.279238     0.489088     0.836565
    8.520000     0.180244     0.295669     0.534470     0.844979
    8.530001     0.182512     0.312104     0.585171     0.849755
    8.540000     0.185165     0.328533     0.641439     0.849454
    8.550000     0.188300     0.344985     0.703026     0.842261
    8.559999     0.191887     0.361386     0.769559     0.826164
    8.570001     0.196004     0.377723     0.839273     0.798884
    8.580000     0.200789     0.394002     0.910458     0.758263
    8.590000     0.206231     0.410109     0.979398     0.702609
    8.599999     0.212418     0.425967     1.042109     0.631139
    8.610001     0.219439     0.441474     1.093512     0.544727
    8.620000     0.227413     0.456514     1.129003     0.446000
    8.630000     0.236350     0.470856     1.144505     0.339955
    8.639999     0.246322     0.484285     1.138580     0.232213
    8.650001     0.257191     0.496412     1.111572     0.129715
     8.66000      0.26905      0.50702      1.06670      0.03679
     8.67000      0.28162      0.51567      1.00822     -0.04089
    8.680001     0.294510     0.521956     0.941151    -0.103772
    8.690001     0.307182     0.525568     0.870361    -0.150232
    8.700001     0.318832     0.526304     0.799244    -0.182932
    8.710000     0.328656     0.524298     0.730931    -0.202883
    8.720001     0.335828     0.520010     0.666724    -0.213100
    8.730000     0.339529     0.514183     0.607936    -0.215144
    8.740001     0.339563     0.507948     0.554605    -0.211313
    8.750000     0.335698     0.502327     0.506954    -0.202911
    8.760001     0.328662     0.498446     0.464532    -0.191403
    8.770000     0.318954     0.496927     0.427116    -0.177648
    8.780001     0.307630     0.498234     0.394140    -0.162548
    8.790000     0.295315     0.502314     0.365295    -0.146584
    8.800001     0.282882     0.509071     0.340059    -0.130318
    8.809999     0.270802     0.518149     0.318132    -0.114030
     8.82000      0.25933      0.52910      0.29910     -0.09807
     8.83000      0.24882      0.54163      0.28269     -0.08263
     8.84000      0.23926      0.55533      0.26855     -0.06797
     8.85000      0.23076      0.56998      0.25645     -0.05421
     8.86000      0.22323      0.58530      0.24603     -0.04157
     8.87000      0.21656      0.60103      0.23700     -0.03010
     8.88000      0.21082      0.61722      0.22898     -0.01994
     8.89000      0.20576      0.63354      0.22159     -0.01104
    8.900       0.2014       0.6501       0.2144       -.3295E-2
    8.910       0.1977       0.6668       0.2072       0.3488E-2
      8.9200       0.1945       0.6834       0.1996       0.0096
     8.93000      0.19183      0.70019      0.19155      0.01543
     8.94000      0.18961      0.71706      0.18308      0.02125
     8.95000      0.18770      0.73380      0.17433      0.02732
     8.96000      0.18612      0.75054      0.16549      0.03380
     8.97000      0.18489      0.76736      0.15680      0.04074
     8.98000      0.18395      0.78421      0.14841      0.04812
     8.99000      0.18324      0.80105      0.14047      0.05587
     9.00000      0.18267      0.81772      0.13304      0.06391
     9.01000      0.18233      0.83445      0.12617      0.07214
     9.02000      0.18219      0.85122      0.11983      0.08048
     9.03000      0.18217      0.86790      0.11401      0.08885
     9.04000      0.18227      0.88451      0.10867      0.09718
    9.050001     0.182552     0.901238     0.103772     0.105430
     9.06000      0.18293      0.91790      0.09929      0.11355
     9.07000      0.18350      0.93475      0.09517      0.12154
     9.08000      0.18415      0.95155      0.09140      0.12936
     9.09000      0.18497      0.96855      0.08794      0.13701
     9.10000      0.18585      0.98548      0.08476      0.14450
     9.11000      0.18679      1.00235      0.08183      0.15181
     9.12000      0.18784      1.01932      0.07912      0.15896
     9.13000      0.18901      1.03644      0.07662      0.16595
     9.14000      0.19023      1.05350      0.07430      0.17278
     9.15000      0.19150      1.07054      0.07216      0.17945
     9.16000      0.19288      1.08775      0.07016      0.18599
     9.17000      0.19442      1.10522      0.06830      0.19238
     9.18000      0.19591      1.12244      0.06656      0.19863
     9.19000      0.19761      1.14012      0.06494      0.20476
     9.20000      0.19944      1.15801      0.06343      0.21076
     9.21000      0.20128      1.17584      0.06201      0.21665
     9.22000      0.20320      1.19377      0.06068      0.22242
     9.23000      0.20530      1.21209      0.05944      0.22810
     9.24000      0.20738      1.23028      0.05826      0.23366
     9.25000      0.20964      1.24886      0.05716      0.23915
     9.26000      0.21189      1.26731      0.05611      0.24450
     9.27000      0.21421      1.28589      0.05515      0.24983
     9.28000      0.21664      1.30468      0.05421      0.25500
     9.29000      0.21915      1.32362      0.05336      0.26018
     9.30000      0.22176      1.34272      0.05252      0.26519
     9.31000      0.22440      1.36184      0.05177      0.27025
     9.32000      0.22724      1.38146      0.05101      0.27510
     9.33000      0.23003      1.40085      0.05035      0.28004
     9.34000      0.23283      1.42013      0.04967      0.28477
     9.35000      0.23582      1.43990      0.04908      0.28958
     9.36000      0.23866      1.45913      0.04847      0.29420
     9.37000      0.24177      1.47907      0.04794      0.29888
     9.38000      0.24485      1.49880      0.04740      0.30341
     9.39000      0.24814      1.51908      0.04690      0.30796
     9.40000      0.25144      1.53929      0.04643      0.31243
     9.41000      0.25495      1.55998      0.04598      0.31685
     9.42000      0.25836      1.58029      0.04556      0.32125
     9.43000      0.26185      1.60074      0.04515      0.32558
     9.44000      0.26568      1.62208      0.04477      0.32990
     9.45000      0.26951      1.64329      0.04440      0.33415
     9.46000      0.27342      1.66463      0.04407      0.33841
     9.47000      0.27737      1.68599      0.04374      0.34258
     9.48000      0.28167      1.70824      0.04343      0.34676
     9.49000      0.28603      1.73055      0.04314      0.35087
     9.50000      0.29030      1.75243      0.04286      0.35497
     9.51000      0.29497      1.77538      0.04260      0.35904
     9.52000      0.29974      1.79848      0.04234      0.36306
     9.53000      0.30462      1.82173      0.04211      0.36709
     9.54000      0.30975      1.84556      0.04188      0.37103
     9.55000      0.31496      1.86947      0.04168      0.37502
     9.56000      0.32053      1.89425      0.04147      0.37889
     9.57000      0.32578      1.91794      0.04129      0.38284
     9.58000      0.33156      1.94299      0.04110      0.38667
     9.59000      0.33733      1.96779      0.04094      0.39055
     9.60000      0.34314      1.99256      0.04077      0.39435
     9.61000      0.34915      2.01766      0.04063      0.39820
     9.62000      0.35491      2.04188      0.04048      0.40194
     9.63000      0.36126      2.06757      0.04036      0.40575
     9.64000      0.36748      2.09268      0.04023      0.40945
     9.65000      0.37378      2.11778      0.04012      0.41322
     9.66000      0.37997      2.14237      0.04000      0.41686
     9.67000      0.38702      2.16911      0.03991      0.42059
     9.68000      0.39328      2.19345      0.03980      0.42418
     9.69000      0.40043      2.21997      0.03972      0.42787
     9.70000      0.40662      2.24368      0.03962      0.43142
     9.71000      0.41500      2.27298      0.03955      0.43505
     9.72000      0.42121      2.29628      0.03947      0.43859
     9.73000      0.42972      2.32537      0.03940      0.44214
     9.74000      0.43608      2.34856      0.03932      0.44563
     9.75000      0.44430      2.37632      0.03927      0.44918
     9.76000      0.45234      2.40333      0.03920      0.45261
     9.77000      0.46108      2.43181      0.03915      0.45606
     9.78000      0.46908      2.45811      0.03910      0.45950
     9.79000      0.47805      2.48655      0.03904      0.46282
     9.80000      0.48651      2.51339      0.03900      0.46622
     9.81000      0.49554      2.54132      0.03894      0.46949
     9.82000      0.50426      2.56817      0.03890      0.47281
     9.83000      0.51360      2.59617      0.03884      0.47600
     9.84000      0.52245      2.62267      0.03880      0.47924
     9.85000      0.53104      2.64819      0.03874      0.48234
     9.86000      0.53907      2.67205      0.03869      0.48545
     9.87000      0.54799      2.69772      0.03863      0.48843
     9.88000      0.55533      2.71933      0.03856      0.49138
     9.89000      0.56292      2.74124      0.03848      0.49420
     9.90000      0.56944      2.76034      0.03840      0.49692
     9.91000      0.57562      2.77841      0.03830      0.49954
     9.92000      0.58098      2.79432      0.03817      0.50192
     9.93000      0.58482      2.80649      0.03803      0.50417
     9.94000      0.58665      2.81385      0.03783      0.50605
     9.95000      0.58703      2.81772      0.03761      0.50766
     9.96000      0.58211      2.80924      0.03727      0.50850
     9.97000      0.57196      2.78850      0.03683      0.50858
     9.98000      0.54874      2.73696      0.03605      0.50631
     9.99000      0.47074      2.56470      0.03356      0.49533
    10.00       0.9362E-2     2.682       0.6561E-3    0.5011   
# 
# 04/08/2018 at 00:58 YAMBO @ narro [start]
# 04/08/2018 at 00:59               [end]
#  
# Timing   [Min/Max/Average]: 15s/15s/15s
#
# .-Input file : yambo.in
# | optics                         # [R OPT] Optics
# | bse                            # [R BSE] Bethe Salpeter Equation.
# | bsk                            # [R BSK] Bethe Salpeter Equation kernel
# | bss                            # [R BSS] Bethe Salpeter Equation solver
# | em1s                           # [R Xs] Static Inverse Dielectric Matrix
# | BoseTemp= 0.000000     eV      # Bosonic Temperature
# | FFTGvecs=  3473        RL      # [FFT] Plane-waves
# | Chimod= "hartree"              # [X] IP/Hartree/ALDA/LRC/BSfxc
# | BSEmod= "resonant"             # [BSE] resonant/retarded/coupling
# | BSKmod= "SEX"                  # [BSE] IP/Hartree/HF/ALDA/SEX/BSfxc
# | BSSmod= "d"                    # [BSS] (h)aydock/(d)iagonalization/(i)nversion/(t)ddft`
# | BSENGexx=  51          RL      # [BSK] Exchange components
# | BSENGBlk=  51          RL      # [BSK] Screened interaction block size
# | #WehCpl                        # [BSK] eh interaction included also in coupling
# | % BEnRange
# | -10.00000 | 10.00000 | eV      # [BSS] Energy range
# | %
# | % BDmRange
# |   0.10000 |  0.10000 | eV      # [BSS] Damping range
# | %
# | BEnSteps= 2001                 # [BSS] Energy steps
# | % BLongDir
# | 0.5774E-5 |0.5774E-5 |0.5774E-5 |        # [BSS] [cc] Electric Field
# | %
# | % BSEQptR
# |   1 |  4 |                     # [BSK] Transferred momenta range
# | %
# | % BSEBands
# |   3 | 10 |                     # [BSK] Bands range
# | %
# | % BndsRnXs
# |    1 |  60 |                   # [Xs] Polarization function bands
# | %
# | NGsBlkXs=  51          RL      # [Xs] Response block size
# | % DmRngeXs
# | 0.1000E-2 |0.1000E-2 | eV      # [Xs] Damping range
# | %
# | % LongDrXs
# | 0.1000E-4 | 0.000    | 0.000    |        # [Xs] [cc] Electric Field
# | %
