#  __      __   ______   __       __  _______    ______     
# |  \    /  \ /      \ |  \     /  \|       \  /      \    
#  \$$\  /  $$|  $$$$$$\| $$\   /  $$| $$$$$$$\|  $$$$$$\   
#   \$$\/  $$ | $$__| $$| $$$\ /  $$$| $$__/ $$| $$  | $$   
#    \$$  $$  | $$    $$| $$$$\  $$$$| $$    $$| $$  | $$   
#     \$$$$   | $$$$$$$$| $$\$$ $$ $$| $$$$$$$\| $$  | $$   
#     | $$    | $$  | $$| $$ \$$$| $$| $$__/ $$| $$__/ $$   
#     | $$    | $$  | $$| $$  \$ | $$| $$    $$ \$$    $$   
#      \$$     \$$   \$$ \$$      \$$ \$$$$$$$   \$$$$$$    
#                                                           
#        Version 4.2.0 Revision 14314 Hash 217f693          
#                      MPI+SLK Build                        
#                http://www.yambo-code.org                  
#
# Absorption @ Q(1) [q->0 direction] : 1.0000000  0.0000000  0.0000000
#
#
# - Energies      are Slater exchange(X)+Perdew & Zunger(C)
# - Wavefunctions are Slater exchange(X)+Perdew & Zunger(C)
#
# - The Green`s function is Retarded -
# - Using the Length Gauge -
# - [r,Vnl] *is* included -
#
#  E/ev[1]     EPS-Im[2]   EPS-Re[3]
#
  0.0000     0.96418E-6   41.342   
 0.10020E-1  0.50665E-1   41.344   
 0.20040E-1  0.10138      41.351   
 0.30060E-1  0.15219      41.364   
 0.40080E-1  0.20314      41.381   
   0.050100    0.254295   41.403122
   0.060120    0.305692   41.430275
   0.070140    0.357386   41.462399
   0.080160    0.409428   41.499542
   0.090180    0.461869   41.541733
   0.100200    0.514765   41.589020
   0.110220    0.568170   41.641464
   0.120240    0.622139   41.699078
   0.130261    0.676731   41.761929
   0.140281    0.732006   41.830078
   0.150301    0.788026   41.903591
   0.160321    0.844854   41.982525
   0.170341    0.902558   42.066967
   0.180361    0.961206   42.157005
   0.190381    1.020872   42.252705
   0.200401    1.081629   42.354191
   0.210421    1.143559   42.461529
   0.220441    1.206741   42.574867
   0.230461    1.271266   42.694267
   0.240481    1.337222   42.819889
   0.250501    1.404709   42.951862
   0.260521    1.473826   43.090321
   0.270541    1.544682   43.235394
   0.280561    1.617392   43.387260
   0.290581    1.692077   43.546070
   0.300601    1.768866   43.712006
   0.310621    1.847896   43.885273
   0.320641    1.929314   44.066044
   0.330661    2.013277   44.254528
   0.340681    2.099950   44.450966
   0.350701    2.189515   44.655571
   0.360721    2.282161   44.868622
   0.370741    2.378098   45.090359
   0.380762    2.477545   45.321091
   0.390782    2.580742   45.561092
   0.400802    2.687951   45.810692
   0.410822    2.799447   46.070202
   0.420842    2.915533   46.340000
   0.430862    3.036540   46.620461
   0.440882    3.162819   46.911987
   0.450902    3.294763   47.215000
   0.460922    3.432791   47.529961
   0.470942    3.577363   47.857346
   0.480962    3.728986   48.197659
   0.490982    3.888210   48.551464
   0.501002    4.055641   48.919308
   0.511022    4.231944   49.301811
   0.521042    4.417855   49.699638
   0.531062    4.614181   50.113491
   0.541082    4.821817   50.544079
   0.551102    5.041757   50.992184
   0.561122    5.275099   51.458675
   0.571142    5.523066   51.944366
   0.581162    5.787026   52.450233
   0.591182    6.068504   52.977242
   0.601202    6.369206   53.526443
   0.611222    6.691052   54.098915
   0.621242    7.036196   54.695812
   0.631262    7.407077   55.318314
   0.641283    7.806432   55.967644
   0.651303    8.237382   56.645100
   0.661323    8.703463   57.351921
   0.671343    9.208694   58.089428
   0.681363    9.757676   58.858841
   0.691383   10.355653   59.661354
   0.701403   11.008633   60.498020
   0.711423   11.723517   61.369614
   0.721443   12.508235   62.276749
   0.731463   13.371918   63.219421
   0.741483   14.325066   64.197006
   0.751503   15.379771   65.208038
   0.761523   16.549950   66.249657
   0.771543   17.851545   67.317322
   0.781563   19.302790   68.404091
   0.791583   20.924335   69.499733
   0.801603   22.739378   70.589745
   0.811623   24.773504   71.653831
   0.821643   27.054220   72.664070
   0.831663   29.609945   73.582825
   0.841683   32.468079   74.359856
   0.851703   35.651745   74.929688
   0.861723   39.174587   75.208794
   0.871743   43.033131   75.093987
   0.881764   47.196358   74.463219
   0.891784   51.592636   73.181183
   0.901804   56.096119   71.112312
   0.911824   60.516560   68.143578
   0.921844   64.599976   64.216751
   0.931864   68.047066   59.365059
   0.941884   70.555405   53.741486
   0.951904   71.879219   47.622555
   0.961924   71.889206   41.376122
   0.971944   70.607811   35.397373
   0.981964   68.203209   30.034302
   0.991984   64.944992   25.531012
   1.002004   61.141850   22.005840
   1.012024   57.085636   19.463524
   1.022044   53.015720   17.827339
   1.032064   49.105930   16.975460
   1.042084   45.468182   16.770920
   1.052104   42.163876   17.081463
   1.062124   39.217915   17.790310
   1.072144   36.631023   18.799961
   1.082164   34.389542   20.032244
   1.092184   32.472340   21.426123
   1.102204   30.855436   22.934759
   1.112224   29.514896   24.522619
   1.122244   28.428469   26.162758
   1.132264   27.576323   27.834421
   1.142285   26.941351   29.521227
   1.152305   26.509029   31.209364
   1.162325   26.266899   32.886326
   1.172345   26.203789   34.539829
   1.182365   26.308706   36.157104
   1.192385   26.569412   37.724491
   1.202405   26.970730   39.227928
   1.212425   27.492840   40.654362
   1.222445   28.110119   41.994259
   1.232465   28.791273   43.245239
   1.242485   29.501858   44.416374
   1.252505   30.209332   45.530796
   1.262525   30.890064   46.625851
   1.272545   31.536156   47.748692
   1.282565   32.158985   48.948509
   1.292585   32.788071   50.267979
   1.302605   33.465778   51.737144
   1.312625   34.240292   53.371120
   1.322645   35.159683   55.171799
   1.332665   36.268494   57.131367
   1.342685   37.606884   59.236053
   1.352705   39.211716   61.469166
   1.362725   41.118317   63.812160
   1.372745   43.362793   66.245232
   1.382765   45.983807   68.746429
   1.392786   49.024395   71.289932
   1.402806   52.533142   73.843742
   1.412826   56.564816   76.366692
   1.422846   61.180580   78.804405
   1.432866   66.447014   81.084480
   1.442886   72.433762   83.110710
   1.452906   79.209145   84.756027
   1.462926   86.831924   85.854980
   1.472946   95.338913   86.196602
    1.48297   104.72607    85.51926
    1.49299   114.92214    83.51167
    1.50301   125.75580    79.82502
    1.51303   136.92009    74.10374
    1.52305   147.94348    66.04044
    1.53307   158.18596    55.45707
    1.54309   166.88011    42.39959
    1.55311   173.23097    27.21729
    1.56313   176.56723    10.58347
    1.57315   176.50011    -6.57339
    1.58317   173.02731   -23.22726
    1.59319   166.53375   -38.44830
    1.60321   157.68802   -51.56043
    1.61323   147.28342   -62.21198
    1.62325   136.08699   -70.35477
    1.63327   124.73855   -76.16550
    1.64329   113.70956   -79.95081
    1.65331   103.30666   -82.06619
   1.663327   93.700478  -82.860542
   1.673347   84.960716  -82.645264
   1.683367   77.089844  -81.681992
   1.693387   70.048820  -80.181641
   1.703407   63.776207  -78.309059
   1.713427   58.200748  -76.190277
   1.723447   53.249416  -73.919945
   1.733467   48.851967  -71.567886
   1.743487   44.943348  -69.185135
   1.753507   41.464832  -66.808044
   1.763527   38.364250  -64.462158
   1.773547   35.595657  -62.164948
   1.783567   33.118973  -59.927883
   1.793587   30.899303  -57.758060
   1.803607   28.906456  -55.659241
   1.813627   27.114237  -53.632938
   1.823647   25.500065  -51.679016
   1.833667   24.044308  -49.796078
   1.843687   22.730093  -47.981960
   1.853707   21.542799  -46.233948
   1.863727   20.469833  -44.549007
   1.873747   19.500284  -42.923824
   1.883767   18.624783  -41.355076
   1.893788   17.835268  -39.839279
   1.903808   17.124886  -38.373131
   1.913828   16.487780  -36.953255
   1.923848   15.919057  -35.576458
   1.933868   15.414679  -34.239609
   1.943888   14.971390  -32.939751
   1.953908   14.586701  -31.674046
   1.963928   14.258803  -30.439835
   1.973948   13.986609  -29.234657
   1.983968   13.769724  -28.056271
   1.993988   13.608459  -26.902695
   2.004008   13.503857  -25.772291
   2.014028   13.457734  -24.663803
   2.024048   13.472731  -23.576500
   2.034068   13.552355  -22.510315
   2.044088   13.701052  -21.465992
   2.054108   13.924254  -20.445465
   2.064128   14.228379  -19.452084
   2.074148   14.620833  -18.491154
   2.084168   15.109818  -17.570511
   2.094188   15.704104  -16.701193
   2.104208   16.412348  -15.898392
   2.114228   17.242172  -15.182375
   2.124248   18.198505  -14.579445
   2.134269   19.281206  -14.122642
   2.144289   20.481672  -13.851722
   2.154309   21.778572  -13.811683
   2.164329   23.133083  -14.049021
   2.174349   24.484966  -14.604725
   2.184369   25.751610  -15.503925
   2.194389   26.832718  -16.743307
   2.204409   27.622862  -18.280315
   2.214429   28.030909  -20.029272
   2.224449   28.001381  -21.869446
   2.234469   27.529243  -23.664875
   2.244489   26.661448  -25.290005
   2.254509   25.484385  -26.651363
   2.264529   24.103149  -27.698286
   2.274549   22.621248  -28.421070
   2.284569   21.126469  -28.841139
   2.294589   19.684673  -28.998705
   2.304609   18.339882  -28.941650
   2.314629   17.117769  -28.718115
   2.324649   16.030302  -28.372246
   2.334669   15.079984  -27.942497
   2.344689   14.263252  -27.461670
   2.354709   13.572613  -26.957542
   2.364729   12.997932  -26.453957
   2.374749   12.526779  -25.971640
   2.384769   12.144225  -25.528624
   2.394789   11.832362  -25.140089
   2.404809   11.569958  -24.817245
   2.414829   11.332786  -24.565760
   2.424850   11.095205  -24.383753
   2.434870   10.833159  -24.260742
   2.444890   10.528016  -24.178116
   2.454910   10.170008  -24.112066
   2.464930    9.759692  -24.038115
   2.474950    9.306702  -23.935736
   2.484970    8.826439  -23.791494
   2.494990    8.336022  -23.599781
   2.505010    7.850996  -23.361610
   2.515030    7.383455  -23.082443
   2.525050    6.941561  -22.769999
   2.535070    6.529898  -22.432472
   2.545090    6.150265  -22.077566
   2.555110    5.802514  -21.711861
   2.565130    5.485271  -21.340733
   2.575150    5.196489  -20.968346
   2.585170    4.933817  -20.597849
   2.595190    4.694851  -20.231541
   2.605210    4.477273  -19.871040
   2.615230    4.278940  -19.517469
   2.625250    4.097907  -19.171532
   2.635270    3.932453  -18.833672
   2.645291    3.781059  -18.504110
   2.655311    3.642416  -18.182917
   2.665331    3.515389  -17.870083
   2.675350    3.399017  -17.565538
   2.685370    3.292480  -17.269152
   2.695390    3.195091  -16.980858
   2.705411    3.106284  -16.700563
   2.715431    3.025580  -16.428251
   2.725451    2.952575  -16.163954
   2.735471    2.886908  -15.907846
   2.745491    2.828213  -15.660160
   2.755511    2.776077  -15.421310
   2.765531    2.729960  -15.191813
   2.775551    2.689106  -14.972308
   2.785571    2.652456  -14.763431
   2.795591    2.618571  -14.565716
   2.805611    2.585625  -14.379396
   2.815631    2.551503  -14.204097
   2.825651    2.514056  -14.038770
   2.835671    2.471470  -13.881528
   2.845691    2.422662  -13.729881
   2.855711    2.367522  -13.581156
   2.865731    2.306899  -13.432888
   2.875751    2.242350  -13.283304
   2.885771    2.175727  -13.131424
   2.895791    2.108814  -12.977015
   2.905811    2.043089  -12.820401
   2.915831    1.979610  -12.662236
   2.925852    1.919047  -12.503273
   2.935872    1.861734  -12.344267
   2.945892    1.807770  -12.185873
   2.955912    1.757092  -12.028633
   2.965932    1.709544  -11.872973
   2.975952    1.664917  -11.719193
   2.985972    1.622984  -11.567521
   2.995992    1.583518  -11.418110
   3.006012    1.546302  -11.271042
   3.016032    1.511133  -11.126361
   3.026052    1.477829  -10.984090
   3.036072    1.446224  -10.844215
   3.046092    1.416172  -10.706713
   3.056112    1.387542  -10.571546
   3.066132    1.360217  -10.438669
   3.076152    1.334094  -10.308024
   3.086172    1.309083  -10.179564
   3.096192    1.285100  -10.053231
  3.1062121   1.2620758  -9.9289713
  3.1162322   1.2399428  -9.8067274
  3.1262522   1.2186439  -9.6864300
  3.1362724   1.1981268  -9.5680380
  3.1462924   1.1783450  -9.4514847
  3.1563125   1.1592551  -9.3367319
  3.1663325   1.1408190  -9.2237158
  3.1763525   1.1230018  -9.1123991
  3.1863725   1.1057712  -9.0027132
  3.1963925   1.0890982  -8.8946304
  3.2064126   1.0729561  -8.7880936
  3.2164328   1.0573200  -8.6830692
  3.2264528   1.0421672  -8.5795031
  3.2364728   1.0274769  -8.4773598
  3.2464929   1.0132295  -8.3766031
  3.2565129   0.9994073  -8.2771921
  3.2665329   0.9859931  -8.1790867
  3.2765529   0.9729724  -8.0822535
  3.2865732   0.9603295  -7.9866524
  3.2965932   0.9480516  -7.8922625
  3.3066132   0.9361261  -7.7990408
  3.3166330   0.9245414  -7.7069521
  3.3266530   0.9132856  -7.6159754
  3.3366730   0.9023489  -7.5260773
  3.3466930   0.8917220  -7.4372234
  3.3567133   0.8813949  -7.3493900
  3.3667333   0.8713598  -7.2625484
  3.3767533   0.8616082  -7.1766710
  3.3867733   0.8521332  -7.0917263
  3.3967934   0.8429272  -7.0077047
  3.4068134   0.8339835  -6.9245644
  3.4168336   0.8252961  -6.8422856
  3.4268537   0.8168594  -6.7608480
  3.4368734   0.8086675  -6.6802287
  3.4468937   0.8007150  -6.6003990
  3.4569135   0.7929978  -6.5213327
  3.4669337   0.7855105  -6.4430151
  3.4769535   0.7782502  -6.3654275
  3.4869738   0.7712119  -6.2885389
  3.4969938   0.7643929  -6.2123361
  3.5070140   0.7577890  -6.1367931
  3.5170338   0.7513974  -6.0618920
  3.5270541   0.7452155  -5.9876146
  3.5370739   0.7392413  -5.9139347
  3.5470941   0.7334710  -5.8408337
  3.5571139   0.7279043  -5.7683020
  3.5671341   0.7225382  -5.6963048
  3.5771542   0.7173719  -5.6248350
  3.5871744   0.7124032  -5.5538669
  3.5971942   0.7076319  -5.4833846
  3.6072145   0.7030568  -5.4133630
  3.6172342   0.6986771  -5.3437943
  3.6272545   0.6944928  -5.2746544
  3.6372743   0.6905040  -5.2059240
  3.6472943   0.6867102  -5.1375828
  3.6573145   0.6831118  -5.0696135
  3.6673343   0.6797104  -5.0019999
  3.6773546   0.6765057  -4.9347191
  3.6873744   0.6735000  -4.8677583
  3.6973946   0.6706938  -4.8010855
  3.7074146   0.6680896  -4.7346945
  3.7174346   0.6656891  -4.6685624
  3.7274547   0.6634952  -4.6026697
  3.7374749   0.6615096  -4.5369968
  3.7474947   0.6597363  -4.4715223
  3.7575150   0.6581781  -4.4062276
  3.7675347   0.6568390  -4.3410940
  3.7775550   0.6557233  -4.2760940
  3.7875750   0.6548354  -4.2112155
  3.7975953   0.6541802  -4.1464300
  3.8076150   0.6537637  -4.0817165
  3.8176353   0.6535914  -4.0170541
  3.8276551   0.6536700  -3.9524236
  3.8376753   0.6540065  -3.8877931
  3.8476951   0.6546082  -3.8231478
  3.8577151   0.6554841  -3.7584562
  3.8677354   0.6566426  -3.6936946
  3.8777552   0.6580936  -3.6288395
  3.8877754   0.6598473  -3.5638576
  3.8977952   0.6619154  -3.4987273
  3.9078155   0.6643097  -3.4334164
  3.9178352   0.6670441  -3.3678975
  3.9278555   0.6701316  -3.3021369
  3.9378755   0.6735885  -3.2361054
  3.9478958   0.6774309  -3.1697669
  3.9579155   0.6816769  -3.1030908
  3.9679358   0.6863458  -3.0360341
  3.9779556   0.6914582  -2.9685659
  3.9879758   0.6970375  -2.9006453
  3.9979956   0.7031075  -2.8322301
  4.0080161   0.7096950  -2.7632782
  4.0180359   0.7168283  -2.6937456
  4.0280561   0.7245393  -2.6235797
  4.0380759   0.7328611  -2.5527391
  4.0480962   0.7418312  -2.4811664
  4.0581160   0.7514890  -2.4088128
  4.0681357   0.7618784  -2.3356156
  4.0781560   0.7730477  -2.2615147
  4.0881758   0.7850477  -2.1864488
  4.0981960   0.7979356  -2.1103475
  4.1082163   0.8117738  -2.0331433
  4.1182365   0.8266303  -1.9547579
  4.1282563   0.8425791  -1.8751173
  4.1382766   0.8597038  -1.7941289
  4.1482964   0.8780935  -1.7117124
  4.1583166   0.8978493  -1.6277676
  4.1683364   0.9190802  -1.5421994
  4.1783566   0.9419101  -1.4548979
  4.1883764   0.9664710  -1.3657582
  4.1983967   0.9929169  -1.2746522
  4.2084165   1.0214118  -1.1814656
  4.2184367   1.0521454  -1.0860569
  4.2284565   1.0853226  -0.9882958
  4.2384768   1.1211801  -0.8880244
  4.2484965   1.1599760  -0.7851019
  4.2585168   1.2020087  -0.6793544
  4.2685370   1.2476057  -0.5706271
  4.2785568   1.2971438  -0.4587433
  4.2885771   1.3510482  -0.3435167
  4.2985969   1.4097961  -0.2247833
  4.3086171   1.4739379  -0.1023543
   4.318637    1.544091    0.023931
  4.3286572   1.6209708   0.1542423
  4.3386769   1.7053789   0.2887061
  4.3486972   1.7982492   0.4274388
  4.3587170   1.9006321   0.5704839
  4.3687372   2.0137448   0.7178382
  4.3787570   2.1389575   0.8693770
  4.3887773   2.2778471   1.0248579
  4.3987975   2.4321783   1.1838303
  4.4088178   2.6039538   1.3456191
  4.4188375   2.7953715   1.5091891
  4.4288578   3.0088639   1.6731130
  4.4388776   3.2469904   1.8353994
  4.4488978   3.5124447   1.9934270
  4.4589176   3.8078506   2.1437712
  4.4689379   4.1357036   2.2821419
  4.4789577   4.4980474   2.4032445
  4.4889779   4.8963585   2.5007670
  4.4989977   5.3310986   2.5673041
  4.5090175   5.8014812   2.5944183
  4.5190377   6.3049512   2.5727139
  4.5290575   6.8365583   2.4921291
  4.5390778   7.3885179   2.3424628
  4.5490980   7.9495482   2.1142654
  4.5591183   8.5047903   1.7999783
  4.5691381   9.0357885   1.3954649
  4.5791583   9.5213842   0.9015577
  4.5891781   9.9390736   0.3258342
   4.599198   10.267760   -0.316299
   4.609218   10.491199   -1.001356
   4.619238   10.602127   -1.699979
   4.629258   10.605081   -2.381155
   4.639278   10.516549   -3.018424
   4.649298   10.361650   -3.595111
   4.659318   10.168211   -4.107414
  4.6693382   9.9604654  -4.5635881
  4.6793585   9.7539568  -4.9805403
  4.6893787   9.5530853  -5.3783803
  4.6993990   9.3511782  -5.7749028
  4.7094188   9.1333008  -6.1804996
  4.7194386   8.8810120  -6.5952001
  4.7294588   8.5782299  -7.0083590
  4.7394786   8.2164106  -7.4015245
  4.7494988   7.7971683  -7.7537146
  4.7595186   7.3316927  -8.0468779
  4.7695389   6.8372812  -8.2698336
  4.7795587   6.3331151  -8.4193716
  4.7895789   5.8364887  -8.4992142
  4.7995987   5.3608556  -8.5176430
  4.8096189   4.9150958  -8.4851456
  4.8196387   4.5041137  -8.4124889
  4.8296590   4.1295881  -8.3095894
  4.8396792   3.7910633  -8.1849279
  4.8496995   3.4866643  -8.0454130
  4.8597193   3.2138317  -7.8964806
  4.8697395   2.9696453  -7.7422571
  4.8797593   2.7511954  -7.5858593
  4.8897796   2.5556581  -7.4295292
  4.8997993   2.3804631  -7.2748833
  4.9098196   2.2232544  -7.1230373
  4.9198394   2.0819647  -6.9747400
  4.9298592   1.9547523  -6.8304729
  4.9398794   1.8400056  -6.6904941
  4.9498992   1.7363372  -6.5549536
  4.9599195   1.6425219  -6.4238510
  4.9699397   1.5575156  -6.2971549
  4.9799600   1.4804008  -6.1747556
  4.9899797   1.4103982  -6.0565243
  5.0000000   1.3468277  -5.9422984
# 
# 02/24/2017 at 16:54 YAMBO @ narro [start]
# 02/24/2017 at 16:54               [end]
#
# .-Input file : yambo.in
# | optics                       # [R OPT] Optics
# | chi                          # [R CHI] Dyson equation for Chi.
# | BoseTemp=  0.02585     eV    # Bosonic Temperature
# | FFTGvecs= 229          RL    # [FFT] Plane-waves
# | Chimod= "IP"                 # [X] IP/Hartree/ALDA/LRC/BSfxc
# | NGsBlkXd= 1            RL    # [Xd] Response block size
# | % QpntsRXd
# |  1 | 2 |                     # [Xd] Transferred momenta
# | %
# | % BndsRnXd
# |   1 |  4 |                   # [Xd] Polarization function bands
# | %
# | GrFnTpXd= "R"                # [Xd] Green`s function (T)ordered,(R)etarded,(r)senant,(a)ntiresonant [T, R, r, Ta, Ra]
# | % EnRngeXd
# |  0.000000 | 5.000000 | eV    # [Xd] Energy range
# | %
# | % DmRngeXd
# |   0.10000 |  0.10000 | eV    # [Xd] Damping range
# | %
# | ETStpsXd=  500               # [Xd] Total Energy steps
# | % LongDrXd
# | 0.1000E-4 | 0.000    | 0.000    |        # [Xd] [cc] Electric Field
# | %
