#                                                           
#                                                           
# Y88b    /   e           e    e      888~~\    ,88~-_      
#  Y88b  /   d8b         d8b  d8b     888   |  d888   \     
#   Y88b/   /Y88b       d888bdY88b    888 _/  88888    |    
#    Y8Y   /  Y88b     / Y88Y Y888b   888  \  88888    |    
#     Y   /____Y88b   /   YY   Y888b  888   |  Y888   /     
#    /   /      Y88b /          Y888b 888__/    `88_-~      
#                                                           
#                                                           
#       Version 4.2.0 Revision 14319 Hash 8432f48           
#                  MPI+SLK+OpenMP Build                     
#               http://www.yambo-code.org                   
#
# Joint density of states @ Q(1) [q->0 direction] :0.1000E-4  0.000     0.000   
#
# - Energies      are Teter 93(XC)
# - The Green`s function is Retarded -
#
#   BSK|Identifier              :5287
#      |Dimension               :69
#      |Bands                   :1 - 70
#      |Exchange           [res]: yes
#      |Correlation        [res]: no
#      |Kernel`s coupling       : no
#      |Exchange           [cpl]: no
#      |Correlation        [cpl]: no
#      |W interaction is bare   : no
#      |ALDA kernel in R-space  : no
#      |RL vectors    [exchange]:123
#      |E/h energy range    [ev]:-1.000000 - -1.000000
#      |Coupling range     [o/o]: 100.0000 -  100.0000
#
#  E/ev[1]    jdos-Im[2] jdos-Re[3] jdoso-Im[4]jdoso-Re[5]jdos`-Im[6]jdos`-Re[7]
#
  0.000000   0.000000   0.503543   0.000000   0.506337
 0.7538E-1  0.5547E-4  0.5036     0.5687E-4  0.5064   
 0.1508     0.1110E-3  0.5036     0.1138E-3  0.5064   
 0.2261     0.1665E-3  0.5037     0.1707E-3  0.5065   
 0.3015     0.2222E-3  0.5039     0.2278E-3  0.5067   
 0.3769     0.2779E-3  0.5041     0.2850E-3  0.5069   
 0.4523     0.3338E-3  0.5043     0.3423E-3  0.5071   
 0.5276     0.3899E-3  0.5046     0.3998E-3  0.5074   
 0.6030     0.4462E-3  0.5049     0.4576E-3  0.5077   
 0.6784     0.5028E-3  0.5052     0.5156E-3  0.5081   
 0.7538     0.5596E-3  0.5056     0.5739E-3  0.5085   
 0.8291     0.6167E-3  0.5061     0.6325E-3  0.5089   
 0.9045     0.6742E-3  0.5066     0.6915E-3  0.5094   
 0.9799     0.7320E-3  0.5071     0.7509E-3  0.5100   
  1.055     0.7902E-3  0.5077     0.8107E-3  0.5106   
  1.131     0.8489E-3  0.5083     0.8709E-3  0.5112   
  1.206     0.9080E-3  0.5090     0.9317E-3  0.5119   
  1.281     0.9676E-3  0.5097     0.9930E-3  0.5126   
  1.357     0.1028E-2  0.5104     0.1055E-2  0.5134   
  1.432     0.1089E-2  0.5112     0.1117E-2  0.5142   
  1.508     0.1150E-2  0.5121     0.1181E-2  0.5151   
  1.583     0.1212E-2  0.5129     0.1244E-2  0.5160   
  1.658     0.1275E-2  0.5139     0.1309E-2  0.5169   
  1.734     0.1338E-2  0.5149     0.1374E-2  0.5180   
  1.809     0.1402E-2  0.5159     0.1441E-2  0.5190   
  1.884     0.1467E-2  0.5170     0.1508E-2  0.5201   
  1.960     0.1533E-2  0.5181     0.1576E-2  0.5213   
  2.035     0.1600E-2  0.5193     0.1645E-2  0.5225   
  2.111     0.1668E-2  0.5205     0.1715E-2  0.5238   
  2.186     0.1736E-2  0.5218     0.1786E-2  0.5251   
  2.261     0.1806E-2  0.5231     0.1858E-2  0.5265   
  2.337     0.1877E-2  0.5245     0.1931E-2  0.5279   
  2.412     0.1949E-2  0.5260     0.2006E-2  0.5294   
  2.487     0.2023E-2  0.5275     0.2082E-2  0.5309   
  2.563     0.2097E-2  0.5290     0.2160E-2  0.5325   
  2.638     0.2173E-2  0.5306     0.2238E-2  0.5342   
  2.714     0.2250E-2  0.5323     0.2319E-2  0.5359   
  2.789     0.2329E-2  0.5340     0.2401E-2  0.5377   
  2.864     0.2409E-2  0.5358     0.2484E-2  0.5395   
  2.940     0.2491E-2  0.5376     0.2570E-2  0.5414   
  3.015     0.2575E-2  0.5396     0.2657E-2  0.5434   
  3.090     0.2660E-2  0.5415     0.2746E-2  0.5454   
  3.166     0.2748E-2  0.5436     0.2838E-2  0.5475   
  3.241     0.2837E-2  0.5457     0.2931E-2  0.5497   
  3.317     0.2928E-2  0.5478     0.3026E-2  0.5519   
  3.392     0.3021E-2  0.5501     0.3124E-2  0.5542   
  3.467     0.3117E-2  0.5524     0.3225E-2  0.5566   
  3.543     0.3214E-2  0.5548     0.3328E-2  0.5591   
  3.618     0.3315E-2  0.5572     0.3433E-2  0.5617   
  3.693     0.3418E-2  0.5598     0.3542E-2  0.5643   
  3.769     0.3523E-2  0.5624     0.3654E-2  0.5670   
  3.844     0.3631E-2  0.5651     0.3768E-2  0.5698   
  3.920     0.3742E-2  0.5679     0.3886E-2  0.5727   
  3.995     0.3857E-2  0.5707     0.4008E-2  0.5756   
  4.070     0.3974E-2  0.5737     0.4133E-2  0.5787   
  4.146     0.4095E-2  0.5767     0.4262E-2  0.5819   
  4.221     0.4220E-2  0.5798     0.4395E-2  0.5851   
    4.2965     0.0043     0.5831     0.0045     0.5885
    4.3719     0.0045     0.5864     0.0047     0.5920
    4.4472     0.0046     0.5898     0.0048     0.5955
    4.5226     0.0048     0.5934     0.0050     0.5992
    4.5980     0.0049     0.5970     0.0051     0.6030
    4.6734     0.0051     0.6007     0.0053     0.6070
    4.7487     0.0052     0.6046     0.0055     0.6110
    4.8241     0.0054     0.6086     0.0056     0.6152
    4.8995     0.0055     0.6127     0.0058     0.6195
    4.9749     0.0057     0.6169     0.0060     0.6240
    5.0503     0.0059     0.6213     0.0062     0.6286
    5.1256     0.0061     0.6258     0.0064     0.6333
    5.2010     0.0063     0.6304     0.0066     0.6382
    5.2764     0.0065     0.6352     0.0069     0.6433
    5.3518     0.0067     0.6402     0.0071     0.6486
    5.4271     0.0069     0.6453     0.0073     0.6540
    5.5025     0.0071     0.6505     0.0076     0.6596
    5.5779     0.0073     0.6560     0.0079     0.6654
    5.6533     0.0076     0.6616     0.0081     0.6715
    5.7286     0.0078     0.6674     0.0085     0.6777
    5.8040     0.0081     0.6734     0.0088     0.6842
    5.8794     0.0084     0.6797     0.0091     0.6909
    5.9548     0.0087     0.6861     0.0095     0.6979
    6.0302     0.0090     0.6928     0.0098     0.7052
    6.1055     0.0093     0.6997     0.0102     0.7127
    6.1809     0.0097     0.7068     0.0107     0.7206
   6.25628    0.01003    0.71422    0.01112    0.72876
   6.33166    0.01041    0.72191    0.01162    0.73731
   6.40704    0.01081    0.72989    0.01215    0.74625
   6.48241    0.01123    0.73819    0.01272    0.75560
   6.55779    0.01168    0.74680    0.01335    0.76539
   6.63317    0.01215    0.75577    0.01403    0.77568
   6.70854    0.01266    0.76511    0.01479    0.78651
   6.78392    0.01320    0.77483    0.01562    0.79792
   6.85930    0.01377    0.78498    0.01656    0.80999
   6.93467    0.01439    0.79557    0.01761    0.82280
   7.01005    0.01504    0.80663    0.01881    0.83645
   7.08543    0.01575    0.81821    0.02021    0.85104
   7.16080    0.01652    0.83035    0.02185    0.86675
   7.23618    0.01734    0.84308    0.02383    0.88377
   7.31156    0.01824    0.85645    0.02626    0.90237
   7.38694    0.01922    0.87052    0.02936    0.92291
   7.46231    0.02028    0.88536    0.03346    0.94594
   7.53769    0.02146    0.90103    0.03916    0.97223
   7.61307    0.02275    0.91763    0.04761    1.00298
   7.68844    0.02419    0.93524    0.06122    1.04005
   7.76382    0.02580    0.95399    0.08564    1.08617
   7.83920    0.02761    0.97400    0.13585    1.14325
   7.91457    0.02966    0.99545    0.25217    1.19287
   7.98995    0.03202    1.01852    0.44735    1.08910
   8.06533    0.03476    1.04348    0.37454    0.83851
   8.14070    0.03799    1.07061    0.20121    0.83328
   8.21608    0.04187    1.10033    0.12457    0.90051
   8.29146    0.04663    1.13315    0.09390    0.96570
   8.36683    0.05262    1.16979    0.08212    1.02494
   8.44221    0.06047    1.21122    0.07997    1.08192
   8.51759    0.07125    1.25890    0.08479    1.14037
   8.59297    0.08704    1.31495    0.09741    1.20392
  8.668342   0.112366   1.382589   0.122901   1.276616
  8.743719   0.158338   1.465714   0.176468   1.361319
  8.819096   0.255020   1.560648   0.299435   1.439014
  8.894473   0.455291   1.588992   0.498836   1.359461
  8.969850   0.550344   1.390265   0.423600   1.150813
  9.045226   0.421597   1.373019   0.264456   1.194666
  9.120604   0.453293   1.493759   0.206599   1.315226
  9.195980   0.611280   1.448771   0.202518   1.446338
  9.271358   0.502522   1.320781   0.233877   1.590722
  9.346734   0.373293   1.448568   0.310677   1.760261
  9.422112   0.373619   1.654538   0.480964   1.959202
  9.497488   0.490692   1.891897   0.858369   2.091545
  9.572865   0.805680   2.120394   1.230439   1.784215
  9.648241   1.342327   2.022542   1.122192   1.633114
  9.723618   1.512961   1.679370   1.339896   1.695562
  9.798995   1.759684   1.317823   1.633599   1.363893
  9.874372   1.388361   0.766993   1.466187   0.871983
  9.949749   0.964955   0.908206   1.020989   0.735615
  10.02513    0.93405    1.06369    0.69462    0.97716
  10.10050    0.78312    1.09213    0.63267    1.31873
  10.17588    0.65560    1.36911    0.80355    1.64140
  10.25126    0.75110    1.72900    1.21303    1.69289
  10.32663    1.12915    2.01404    1.20155    1.41905
  10.40201    1.53273    1.86746    1.02937    1.68118
  10.47739    1.56183    1.95782    1.28929    2.18202
  10.55276    2.22427    2.29093    2.19456    2.53650
  10.62814    3.38770    1.61068    3.49846    1.78734
  10.70      3.369     -.5556E-2   3.572     0.6613E-2
  10.77890    2.21326   -0.68555    2.32416   -0.74060
  10.85427    1.35650   -0.44320    1.48456   -0.64588
  10.92965    1.07499   -0.01265    0.93155   -0.28463
  11.00503    1.01730    0.14291    0.69443    0.15295
  11.08040    0.78697    0.34013    0.65009    0.56542
  11.15578    0.71308    0.72239    0.77673    0.96561
  11.23116    0.86619    1.14457    1.17348    1.26851
  11.30653    1.36316    1.49150    1.62148    1.11359
  11.38191    2.11387    1.28649    1.79096    1.05830
  11.45729    2.47827    0.55702    2.28629    0.69403
  11.53266    2.04919   -0.14321    2.09814    0.03479
  11.60804    1.59728   -0.14293    1.78209   -0.23746
  11.68342    1.40059   -0.20549    1.22930   -0.39318
  11.75879    1.00348   -0.21021    0.79698   -0.08279
  11.83417    0.69361    0.09179    0.66046    0.31307
  11.90955    0.60344    0.46270    0.72840    0.69673
  11.98493    0.67522    0.84017    1.05565    0.98195
  12.06030    0.97481    1.20294    1.43871    0.79782
  12.13568    1.62132    1.23406    1.37891    0.64729
  12.21106    1.85630    0.58589    1.40726    0.56272
  12.28643    1.42280    0.30170    1.21891    0.50330
  12.36181    1.13164    0.57394    1.13508    0.77943
  12.43719    1.30995    0.82456    1.41747    0.86846
  12.51256    1.35023    0.62201    1.30947    0.69090
  12.58794    1.03289    0.80166    1.18863    0.99778
  12.66332    1.02682    1.28215    1.48924    1.20541
  12.73869    1.39871    1.72015    1.48274    1.09221
  12.81407    1.84869    1.74146    1.37086    1.52018
  12.88945    2.01914    2.01253    1.79831    2.16317
  12.96482    2.84711    2.37248    2.83127    2.41456
  13.04020    3.76136    1.97189    3.62840    1.94123
  13.11558    4.39768    1.74042    4.26873    1.83912
  13.19096    5.82991    0.83360    5.77562    0.95380
  13.26633    6.15259   -1.74364    6.14546   -1.61513
  13.34171    3.98599   -3.30073    4.04504   -3.16745
  13.41709    2.40720   -2.72665    2.58572   -2.64162
  13.49246    2.03182   -2.03431    2.20699   -2.22727
  13.56784    1.83851   -1.88772    1.67993   -1.97079
  13.64322    1.46103   -1.46229    1.46068   -1.32919
  13.71859    1.56821   -0.80225    1.82552   -0.78189
  13.79397    2.32902   -0.44474    2.43550   -0.86109
  13.86935    3.03140   -1.09586    2.72258   -1.28936
  13.94472    2.94824   -1.70225    2.73689   -1.64652
  14.02010    3.04039   -2.21548    2.93988   -2.15184
  14.09548    2.54673   -3.23430    2.46791   -3.17111
  14.17085    1.40968   -3.35091    1.36423   -3.28406
  14.24623    0.79527   -2.95242    0.77057   -2.89704
  14.32161    0.51160   -2.58839    0.49660   -2.54350
  14.39699    0.36299   -2.30782    0.35301   -2.27064
  14.47236    0.27514   -2.09002    0.26804   -2.05847
  14.54774    0.21830   -1.91607    0.21301   -1.88877
  14.62312    0.17900   -1.77336    0.17492   -1.74936
  14.69849    0.15045   -1.65362    0.14720   -1.63222
  14.77387    0.12889   -1.55128    0.12624   -1.53201
  14.84925    0.11211   -1.46250    0.10991   -1.44499
  14.92462    0.09872   -1.38451    0.09687   -1.36849
  15.00000    0.08782   -1.31531    0.08624   -1.30054
# 
# 03/01/2017 at 15:53 YAMBO @ anomaly [start]
# 03/01/2017 at 15:53                 [end]
#
# .-Input file : yambo.in
# | optics                       # [R OPT] Optics
# | bse                          # [R BSE] Bethe Salpeter Equation.
# | bsk                          # [R BSK] Bethe Salpeter Equation kernel
# | bss                          # [R BSS] Bethe Salpeter Equation solver
# | BoseTemp= 0.000000     eV    # Bosonic Temperature
# | FFTGvecs=  9939        RL    # [FFT] Plane-waves
# | X_Threads= 1                 # [OPENMP/X] Number of threads for response functions
# | DIP_Threads= 1               # [OPENMP/X] Number of threads for dipoles
# | NonPDirs= "XYZ"              # [X/BSS] Non periodic chartesian directions (X,Y,Z,XY...)
# | BSEmod= "retarded"           # [BSE] resonant/retarded/coupling
# | BSKmod= "Hartree"            # [BSE] IP/Hartree/HF/ALDA/SEX/BSfxc
# | BSSmod= "d"                  # [BSS] (h)aydock/(d)iagonalization/(i)nversion/(t)ddft`
# | BSENGexx= 123          RL    # [BSK] Exchange components
# | % BEnRange
# |   0.00000 | 15.00000 | eV    # [BSS] Energy range
# | %
# | % BDmRange
# |   0.10000 |  0.10000 | eV    # [BSS] Damping range
# | %
# | BEnSteps= 200                # [BSS] Energy steps
# | % BLongDir
# | 0.1000E-4 | 0.000    | 0.000    |        # [BSS] [cc] Electric Field
# | %
# | % BSEBands
# |    1 |  70 |                 # [BSK] Bands range
# | %
